timestamps,TP9,AF7,AF8,TP10,Right AUX
1714024497.554,-23.926,-35.156,-28.320,-31.738,0.000
1714024497.558,-23.926,-22.949,-15.625,-26.367,0.000
1714024497.562,-19.531,-17.578,-14.160,-22.461,0.000
1714024497.566,-19.043,-19.531,-25.391,-27.832,0.000
1714024497.570,-17.090,-21.484,-34.668,-29.785,0.000
1714024497.574,-20.020,-22.461,-40.039,-37.598,0.000
1714024497.578,-27.832,-23.926,-37.598,-39.062,0.000
1714024497.582,-25.391,-27.344,-36.621,-26.855,0.000
1714024497.586,-24.414,-23.438,-33.203,-20.508,0.000
1714024497.590,-26.367,-22.949,-20.508,-30.273,0.000
1714024497.594,-27.344,-27.832,-24.902,-31.738,0.000
1714024497.597,-23.926,-22.949,-31.738,-25.879,0.000
1714024497.601,-19.531,-18.555,-29.785,-25.879,0.000
1714024497.605,-18.555,-11.719,-34.180,-30.273,0.000
1714024497.609,-16.602,-17.090,-31.250,-26.367,0.000
1714024497.613,-19.531,-28.320,-27.832,-22.949,0.000
1714024497.617,-24.902,-26.855,-32.227,-30.762,0.000
1714024497.621,-24.902,-19.043,-35.156,-30.762,0.000
1714024497.624,-22.949,-20.020,-27.832,-27.344,0.000
1714024497.628,-25.879,-27.344,-22.461,-20.996,0.000
1714024497.632,-32.227,-28.809,-30.273,-22.461,0.000
1714024497.636,-29.297,-31.738,-32.715,-26.855,0.000
1714024497.640,-28.809,-35.156,-29.785,-31.250,0.000
1714024497.644,-33.691,-33.203,-29.297,-35.156,0.000
1714024497.647,-40.527,-35.156,-25.391,-34.180,0.000
1714024497.651,-40.039,-40.039,-26.367,-35.645,0.000
1714024497.655,-32.227,-40.527,-24.414,-31.738,0.000
1714024497.659,-44.922,-35.645,-26.855,-35.156,0.000
1714024497.663,-45.410,-29.297,-37.109,-34.668,0.000
1714024497.667,-33.691,-29.297,-32.227,-31.250,0.000
1714024497.671,-35.645,-23.926,-24.902,-38.574,0.000
1714024497.675,-35.156,-18.066,-29.785,-41.504,0.000
1714024497.679,-33.203,-25.879,-39.062,-46.387,0.000
1714024497.683,-28.809,-35.645,-30.762,-39.551,0.000
1714024497.687,-21.484,-36.621,-26.367,-32.715,0.000
1714024497.690,-13.672,-23.926,-32.227,-35.645,0.000
1714024497.694,-19.531,-21.973,-36.621,-51.758,0.000
1714024497.698,-25.391,-25.391,-31.738,-61.035,0.000
1714024497.702,-10.254,-22.949,-21.484,-33.691,0.000
1714024497.706,-6.836,-18.555,-27.344,-24.902,0.000
1714024497.709,-14.648,-14.648,-38.574,-35.645,0.000
1714024497.713,-12.207,-18.066,-35.645,-25.391,0.000
1714024497.717,-19.531,-25.879,-27.344,-10.742,0.000
1714024497.721,-31.738,-29.297,-25.879,-19.043,0.000
1714024497.725,-39.062,-32.227,-31.250,-33.203,0.000
1714024497.729,-47.363,-35.645,-37.598,-39.062,0.000
1714024497.733,-49.805,-33.203,-38.086,-49.316,0.000
1714024497.737,-45.410,-30.273,-29.785,-50.293,0.000
1714024497.742,-45.410,-25.391,-31.250,-51.270,0.000
1714024497.745,-44.434,-18.555,-34.668,-50.781,0.000
1714024497.749,-40.527,-10.742,-33.691,-41.016,0.000
1714024497.753,-40.039,-18.066,-35.156,-41.016,0.000
1714024497.757,-43.457,-33.203,-39.062,-43.945,0.000
1714024497.761,-39.551,-34.180,-38.574,-42.969,0.000
1714024497.765,-32.715,-41.504,-23.438,-34.180,0.000
1714024497.769,-29.785,-35.645,-14.648,-30.762,0.000
1714024497.773,-32.715,-22.949,-23.438,-37.109,0.000
1714024497.777,-37.109,-24.414,-33.203,-45.898,0.000
1714024497.781,-32.715,-17.578,-36.621,-41.992,0.000
1714024497.784,-28.809,-19.043,-35.156,-34.180,0.000
1714024497.789,-31.250,-29.785,-33.691,-38.574,0.000
1714024497.793,-32.715,-27.344,-31.738,-40.039,0.000
1714024497.797,-32.715,-26.855,-32.227,-41.504,0.000
1714024497.801,-27.832,-28.809,-26.367,-34.668,0.000
1714024497.805,-26.855,-28.809,-14.160,-30.273,0.000
1714024497.808,-31.738,-31.738,-25.879,-38.574,0.000
1714024497.812,-29.785,-31.738,-37.598,-43.457,0.000
1714024497.816,-25.879,-18.066,-29.785,-37.598,0.000
1714024497.820,-20.996,-15.625,-23.438,-27.344,0.000
1714024497.824,-19.531,-28.809,-20.508,-21.484,0.000
1714024497.828,-19.531,-28.320,-18.066,-19.043,0.000
1714024497.832,-20.020,-27.344,-18.066,-21.973,0.000
1714024497.836,-19.531,-31.250,-20.508,-25.879,0.000
1714024497.840,-20.020,-31.250,-25.879,-33.691,0.000
1714024497.844,-28.809,-33.203,-28.320,-39.062,0.000
1714024497.848,-34.180,-33.203,-29.785,-37.109,0.000
1714024497.852,-20.020,-22.949,-27.832,-29.297,0.000
1714024497.856,-20.996,-24.902,-24.414,-29.297,0.000
1714024497.860,-27.832,-30.762,-28.809,-32.715,0.000
1714024497.863,-25.879,-31.250,-32.715,-41.504,0.000
1714024497.867,-31.738,-30.273,-26.855,-41.016,0.000
1714024497.871,-35.645,-29.785,-22.461,-39.551,0.000
1714024497.875,-38.086,-28.320,-21.973,-50.293,0.000
1714024497.879,-33.691,-27.344,-25.879,-41.992,0.000
1714024497.883,-31.250,-22.461,-27.832,-38.086,0.000
1714024497.887,-40.039,-16.602,-23.438,-44.434,0.000
1714024497.891,-33.691,-21.973,-13.672,-35.156,0.000
1714024497.895,-26.367,-27.344,-12.207,-31.250,0.000
1714024497.899,-31.738,-24.414,-21.973,-37.598,0.000
1714024497.903,-30.273,-22.949,-24.902,-32.715,0.000
1714024497.906,-25.879,-22.461,-23.438,-26.367,0.000
1714024497.910,-24.902,-20.020,-26.855,-25.879,0.000
1714024497.914,-26.855,-27.344,-31.250,-29.297,0.000
1714024497.918,-27.832,-26.367,-19.531,-25.391,0.000
1714024497.922,-30.273,-22.949,-15.137,-29.297,0.000
1714024497.926,-26.367,-21.973,-17.578,-34.668,0.000
1714024497.930,-25.391,-22.949,-11.230,-36.133,0.000
1714024497.934,-26.367,-23.926,-11.230,-31.250,0.000
1714024497.938,-30.273,-22.461,-25.391,-32.715,0.000
1714024497.941,-31.738,-28.809,-25.391,-38.574,0.000
1714024497.945,-30.762,-23.438,-20.508,-34.668,0.000
1714024497.949,-39.062,-28.320,-23.438,-44.434,0.000
1714024497.953,-40.527,-37.598,-17.090,-43.457,0.000
1714024497.957,-34.668,-30.273,-11.719,-35.156,0.000
1714024497.961,-26.855,-25.879,-15.137,-34.180,0.000
1714024497.965,-23.926,-19.531,-8.789,-34.668,0.000
1714024497.969,-27.832,-17.090,-4.883,-31.250,0.000
1714024497.973,-31.250,-24.414,-18.066,-35.156,0.000
1714024497.978,-32.227,-32.227,-30.762,-43.945,0.000
1714024497.982,-49.805,-33.691,-33.203,-59.082,0.000
1714024497.986,-49.805,-25.391,-23.926,-56.641,0.000
1714024497.990,-54.199,-30.762,-22.949,-59.570,0.000
1714024497.994,-69.824,-35.156,-22.949,-77.637,0.000
1714024497.997,-68.848,-28.809,-21.484,-76.660,0.000
1714024498.001,-83.008,-35.156,-23.926,-85.449,0.000
1714024498.005,-94.238,-44.922,-30.273,-92.773,0.000
1714024498.009,-98.145,-41.504,-27.832,-98.145,0.000
1714024498.013,-106.445,-36.133,-23.926,-112.793,0.000
1714024498.017,-112.793,-39.062,-18.066,-117.676,0.000
1714024498.021,-114.258,-47.363,-13.184,-119.629,0.000
1714024498.024,-107.910,-47.363,-9.766,-122.070,0.000
1714024498.028,-107.910,-47.852,-4.883,-124.023,0.000
1714024498.032,-114.258,-53.711,-14.160,-111.816,0.000
1714024498.036,-107.422,-48.828,-25.879,-96.680,0.000
1714024498.040,-97.656,-42.480,-18.066,-94.238,0.000
1714024498.044,-93.750,-33.691,-10.254,-91.309,0.000
1714024498.048,-80.566,-29.785,-8.301,-80.566,0.000
1714024498.051,-76.660,-41.016,-20.508,-84.961,0.000
1714024498.055,-72.266,-31.738,-36.133,-89.844,0.000
1714024498.059,-62.988,-26.855,-34.668,-75.195,0.000
1714024498.063,-58.594,-42.480,-36.133,-57.129,0.000
1714024498.067,-55.664,-43.945,-41.504,-48.828,0.000
1714024498.070,-50.781,-38.574,-29.297,-57.129,0.000
1714024498.074,-41.992,-33.691,-20.508,-54.199,0.000
1714024498.078,-37.598,-28.320,-26.367,-41.992,0.000
1714024498.082,-31.250,-27.344,-28.809,-41.992,0.000
1714024498.086,-32.227,-30.762,-41.992,-43.945,0.000
1714024498.090,-37.598,-33.691,-50.781,-47.363,0.000
1714024498.094,-38.086,-32.715,-49.805,-41.016,0.000
1714024498.098,-35.156,-33.203,-43.945,-35.156,0.000
1714024498.102,-25.879,-28.320,-37.598,-32.715,0.000
1714024498.105,-20.508,-24.902,-25.391,-23.926,0.000
1714024498.109,-13.184,-20.020,-11.230,-15.625,0.000
1714024498.113,-16.602,-14.648,-26.855,-23.438,0.000
1714024498.116,-30.762,-30.273,-45.898,-31.738,0.000
1714024498.120,-39.062,-41.504,-41.504,-36.133,0.000
1714024498.124,-44.922,-34.668,-27.832,-53.223,0.000
1714024498.128,-52.734,-33.691,-29.785,-63.965,0.000
1714024498.132,-71.289,-30.762,-40.527,-76.660,0.000
1714024498.136,-72.754,-20.020,-25.391,-81.055,0.000
1714024498.140,-76.660,-27.832,-11.230,-86.426,0.000
1714024498.144,-98.633,-40.039,-15.137,-113.281,0.000
1714024498.148,-112.305,-36.133,-22.461,-125.488,0.000
1714024498.151,-115.234,-35.156,-23.438,-125.977,0.000
1714024498.155,-120.117,-32.715,-16.113,-134.277,0.000
1714024498.159,-127.930,-32.715,-18.555,-143.555,0.000
1714024498.164,-120.117,-34.668,-16.113,-147.461,0.000
1714024498.168,-107.422,-29.297,-3.906,-133.789,0.000
1714024498.172,-103.516,-33.691,3.418,-122.559,0.000
1714024498.176,-96.191,-35.156,0.488,-121.582,0.000
1714024498.179,-90.820,-28.320,-13.672,-115.234,0.000
1714024498.183,-88.867,-31.250,-22.949,-103.027,0.000
1714024498.187,-80.078,-26.855,-21.973,-93.750,0.000
1714024498.191,-65.918,-24.902,-22.461,-85.449,0.000
1714024498.195,-60.059,-34.180,-22.461,-76.660,0.000
1714024498.199,-53.223,-35.156,-21.484,-62.500,0.000
1714024498.203,-43.945,-31.250,-19.043,-55.176,0.000
1714024498.207,-39.062,-31.738,-24.902,-56.641,0.000
1714024498.211,-36.133,-34.180,-37.109,-53.711,0.000
1714024498.215,-31.738,-39.551,-38.574,-42.969,0.000
1714024498.219,-22.949,-41.016,-33.691,-29.785,0.000
1714024498.223,-20.020,-35.156,-31.250,-31.738,0.000
1714024498.227,-14.648,-31.250,-27.344,-37.598,0.000
1714024498.230,1.953,-27.832,-31.250,-24.414,0.000
1714024498.234,0.488,-36.133,-40.527,-20.508,0.000
1714024498.238,5.371,-30.762,-35.156,-21.484,0.000
1714024498.242,19.043,-20.996,-33.203,-10.742,0.000
1714024498.246,13.672,-30.762,-34.180,-6.836,0.000
1714024498.250,15.625,-35.156,-28.320,0.977,0.000
1714024498.254,31.250,-31.738,-22.461,12.207,0.000
1714024498.258,35.156,-21.484,-14.160,19.531,0.000
1714024498.262,22.461,-27.832,-25.391,16.113,0.000
1714024498.266,16.602,-29.297,-46.387,4.395,0.000
1714024498.270,14.648,-24.902,-47.363,6.348,0.000
1714024498.274,14.648,-32.227,-45.410,5.859,0.000
1714024498.277,23.926,-20.508,-46.387,7.812,0.000
1714024498.281,28.320,-22.949,-36.133,13.672,0.000
1714024498.285,27.344,-37.598,-40.039,16.113,0.000
1714024498.289,30.273,-31.250,-51.758,21.484,0.000
1714024498.293,24.902,-22.949,-45.410,13.184,0.000
1714024498.297,19.043,-25.391,-44.434,8.789,0.000
1714024498.301,19.531,-25.879,-49.316,19.043,0.000
1714024498.305,25.391,-17.090,-37.598,18.066,0.000
1714024498.309,25.391,-19.531,-27.832,5.859,0.000
1714024498.313,20.508,-17.578,-31.738,3.906,0.000
1714024498.316,19.043,-11.230,-27.832,13.672,0.000
1714024498.320,20.996,-17.090,-29.785,17.578,0.000
1714024498.324,23.926,-18.555,-37.109,21.973,0.000
1714024498.328,21.484,-13.672,-39.551,16.113,0.000
1714024498.332,27.344,-10.254,-40.039,20.996,0.000
1714024498.336,29.785,-8.789,-33.691,30.273,0.000
1714024498.340,22.949,-9.766,-32.227,11.230,0.000
1714024498.344,23.438,-12.207,-31.250,6.348,0.000
1714024498.348,16.602,-20.996,-20.508,9.277,0.000
1714024498.351,13.184,-27.344,-28.320,3.418,0.000
1714024498.355,14.160,-25.879,-42.969,-1.465,0.000
1714024498.359,5.371,-25.391,-49.316,-15.137,0.000
1714024498.363,3.418,-20.996,-53.711,-19.043,0.000
1714024498.367,7.812,-16.113,-45.898,-10.254,0.000
1714024498.371,7.812,-17.578,-37.109,-4.883,0.000
1714024498.375,10.742,-11.719,-34.668,-6.836,0.000
1714024498.379,11.230,-8.301,-25.391,3.418,0.000
1714024498.383,5.371,-9.766,-29.785,0.977,0.000
1714024498.386,2.441,-16.113,-41.992,-8.789,0.000
1714024498.390,4.395,-19.531,-47.363,-3.418,0.000
1714024498.394,1.465,-17.090,-44.434,-5.371,0.000
1714024498.399,-2.441,-25.391,-35.645,-12.207,0.000
1714024498.403,0.000,-27.344,-32.227,-7.324,0.000
1714024498.407,1.953,-18.066,-36.133,-5.859,0.000
1714024498.411,-2.930,-17.578,-39.551,-9.277,0.000
1714024498.415,-9.277,-20.996,-31.250,-8.301,0.000
1714024498.419,-10.742,-18.555,-25.879,-10.254,0.000
1714024498.423,-14.648,-19.531,-35.645,-13.184,0.000
1714024498.427,-12.207,-17.578,-37.109,-3.906,0.000
1714024498.431,-2.930,-13.184,-33.203,-0.488,0.000
1714024498.434,-10.254,-21.973,-37.109,-4.883,0.000
1714024498.438,-8.301,-24.902,-34.668,-3.906,0.000
1714024498.442,-7.812,-23.926,-29.785,-9.766,0.000
1714024498.445,-14.160,-25.879,-30.762,-12.207,0.000
1714024498.449,-11.719,-26.367,-37.598,-10.254,0.000
1714024498.453,-5.371,-16.113,-33.203,-9.766,0.000
1714024498.457,-3.906,-10.742,-28.809,-15.625,0.000
1714024498.461,-4.395,-15.137,-29.785,-14.160,0.000
1714024498.465,-10.254,-24.414,-29.297,-10.742,0.000
1714024498.469,-10.742,-28.320,-30.762,-11.719,0.000
1714024498.473,-11.719,-33.203,-34.668,-19.531,0.000
1714024498.477,-15.137,-32.227,-38.574,-32.715,0.000
1714024498.481,-9.277,-24.414,-42.969,-28.809,0.000
1714024498.485,-6.348,-28.320,-38.086,-17.578,0.000
1714024498.488,-8.301,-25.879,-35.645,-25.879,0.000
1714024498.492,0.000,-14.160,-24.414,-24.414,0.000
1714024498.495,1.465,-17.578,-20.020,-12.695,0.000
1714024498.499,-8.789,-31.738,-33.691,-15.625,0.000
1714024498.503,-13.672,-32.227,-39.062,-16.113,0.000
1714024498.507,-19.043,-30.273,-41.016,-23.438,0.000
1714024498.511,-28.809,-28.809,-35.156,-31.738,0.000
1714024498.515,-34.668,-33.203,-27.344,-19.043,0.000
1714024498.519,-29.297,-35.156,-32.227,-17.578,0.000
1714024498.523,-24.902,-26.855,-27.832,-25.391,0.000
1714024498.527,-31.738,-28.809,-18.555,-31.250,0.000
1714024498.531,-37.109,-30.762,-30.762,-31.738,0.000
1714024498.535,-34.180,-27.832,-33.691,-24.414,0.000
1714024498.540,-32.715,-25.391,-27.344,-28.809,0.000
1714024498.544,-41.992,-30.762,-33.691,-30.762,0.000
1714024498.548,-40.039,-30.762,-43.457,-28.320,0.000
1714024498.552,-28.809,-21.973,-41.504,-20.508,0.000
1714024498.556,-26.855,-21.484,-30.762,-15.625,0.000
1714024498.560,-24.414,-24.414,-25.879,-20.020,0.000
1714024498.564,-26.855,-20.996,-26.367,-20.508,0.000
1714024498.568,-26.367,-23.438,-36.133,-20.508,0.000
1714024498.572,-31.738,-26.855,-43.457,-28.809,0.000
1714024498.576,-37.109,-35.645,-42.480,-33.691,0.000
1714024498.579,-35.645,-44.922,-43.945,-39.062,0.000
1714024498.583,-32.715,-36.621,-43.457,-43.945,0.000
1714024498.587,-30.762,-31.738,-31.250,-39.551,0.000
1714024498.591,-30.762,-33.203,-29.297,-35.645,0.000
1714024498.595,-27.344,-23.438,-30.762,-38.574,0.000
1714024498.599,-28.809,-17.090,-23.926,-30.762,0.000
1714024498.603,-30.762,-24.414,-30.762,-23.926,0.000
1714024498.607,-28.320,-29.785,-38.574,-27.832,0.000
1714024498.611,-21.973,-23.926,-31.250,-26.367,0.000
1714024498.615,-20.508,-21.973,-28.320,-28.320,0.000
1714024498.619,-24.902,-29.297,-38.574,-26.367,0.000
1714024498.623,-22.949,-34.668,-37.598,-23.926,0.000
1714024498.627,-20.996,-33.691,-25.879,-27.344,0.000
1714024498.630,-18.066,-23.926,-16.602,-27.344,0.000
1714024498.634,-18.066,-15.137,-27.344,-22.461,0.000
1714024498.638,-19.043,-20.996,-34.668,-17.090,0.000
1714024498.642,-14.648,-30.762,-23.926,-22.461,0.000
1714024498.646,-12.695,-31.250,-24.414,-23.926,0.000
1714024498.650,-22.461,-31.738,-30.273,-28.809,0.000
1714024498.654,-20.508,-34.668,-31.250,-34.668,0.000
1714024498.658,-22.949,-33.203,-26.855,-40.039,0.000
1714024498.662,-26.855,-32.227,-22.461,-44.434,0.000
1714024498.666,-21.973,-26.855,-18.555,-29.297,0.000
1714024498.669,-27.344,-20.996,-16.602,-20.996,0.000
1714024498.673,-30.273,-25.391,-20.508,-26.855,0.000
1714024498.677,-26.367,-30.762,-30.762,-28.809,0.000
1714024498.681,-26.367,-29.785,-37.109,-35.645,0.000
1714024498.685,-22.461,-24.902,-29.297,-22.461,0.000
1714024498.689,-11.719,-17.090,-15.137,-12.207,0.000
1714024498.693,-15.625,-18.555,-18.555,-27.832,0.000
1714024498.697,-20.020,-22.949,-21.484,-28.809,0.000
1714024498.700,-19.531,-19.043,-13.672,-20.996,0.000
1714024498.704,-23.926,-13.672,-23.926,-33.691,0.000
1714024498.708,-23.438,-18.555,-45.898,-40.527,0.000
1714024498.712,-24.414,-26.855,-51.270,-27.832,0.000
1714024498.716,-34.180,-27.832,-35.156,-29.297,0.000
1714024498.720,-34.668,-24.414,-32.715,-39.062,0.000
1714024498.724,-32.227,-23.926,-34.180,-40.039,0.000
1714024498.727,-26.855,-27.832,-13.672,-28.320,0.000
1714024498.731,-25.391,-27.832,-5.859,-28.320,0.000
1714024498.735,-27.344,-23.438,-14.648,-29.785,0.000
1714024498.739,-28.809,-20.020,-18.066,-37.598,0.000
1714024498.743,-31.250,-11.719,-28.809,-40.527,0.000
1714024498.747,-28.320,-20.508,-33.691,-29.297,0.000
1714024498.751,-28.320,-33.691,-35.156,-35.156,0.000
1714024498.755,-26.367,-28.809,-32.227,-29.785,0.000
1714024498.759,-26.855,-28.320,-16.113,-27.344,0.000
1714024498.763,-28.320,-31.738,-7.812,-37.109,0.000
1714024498.766,-32.715,-39.551,-30.273,-34.180,0.000
1714024498.770,-36.621,-41.992,-43.945,-35.156,0.000
1714024498.774,-28.809,-28.809,-39.551,-33.203,0.000
1714024498.778,-24.902,-28.809,-28.809,-29.297,0.000
1714024498.782,-27.832,-33.691,-26.855,-32.715,0.000
1714024498.786,-27.832,-32.227,-25.391,-33.691,0.000
1714024498.789,-27.344,-28.809,-13.672,-37.109,0.000
1714024498.793,-21.484,-21.484,-13.672,-31.250,0.000
1714024498.797,-20.996,-28.320,-18.555,-31.250,0.000
1714024498.801,-29.785,-27.832,-26.367,-33.203,0.000
1714024498.805,-25.879,-15.625,-35.645,-27.832,0.000
1714024498.809,-23.438,-24.902,-35.645,-36.133,0.000
1714024498.813,-31.738,-38.086,-30.762,-41.016,0.000
1714024498.817,-36.133,-38.086,-33.691,-37.598,0.000
1714024498.821,-31.250,-27.344,-30.273,-33.203,0.000
1714024498.825,-28.809,-27.344,-19.531,-34.668,0.000
1714024498.829,-37.598,-28.809,-28.320,-39.062,0.000
1714024498.833,-35.645,-20.996,-35.645,-30.273,0.000
1714024498.837,-27.832,-19.043,-29.785,-29.785,0.000
1714024498.841,-25.391,-19.531,-30.762,-35.156,0.000
1714024498.845,-26.855,-27.344,-29.297,-34.668,0.000
1714024498.849,-32.715,-29.297,-30.762,-34.668,0.000
1714024498.853,-26.855,-23.438,-29.785,-28.809,0.000
1714024498.857,-27.832,-24.414,-22.949,-31.250,0.000
1714024498.861,-31.738,-27.344,-30.273,-41.016,0.000
1714024498.864,-29.297,-26.855,-29.785,-37.109,0.000
1714024498.867,-31.738,-27.344,-24.902,-30.762,0.000
1714024498.871,-32.227,-33.203,-21.973,-32.227,0.000
1714024498.875,-32.715,-24.414,-26.855,-38.574,0.000
1714024498.879,-34.180,-19.043,-28.809,-37.598,0.000
1714024498.883,-34.668,-34.180,-12.695,-29.297,0.000
1714024498.887,-33.691,-39.551,-19.043,-28.809,0.000
1714024498.891,-36.133,-39.062,-46.875,-41.504,0.000
1714024498.895,-35.645,-36.133,-46.387,-46.875,0.000
1714024498.899,-30.762,-35.645,-31.250,-40.527,0.000
1714024498.903,-22.949,-34.668,-30.273,-30.273,0.000
1714024498.906,-20.020,-27.832,-30.762,-27.832,0.000
1714024498.910,-20.996,-17.578,-22.461,-38.574,0.000
1714024498.915,-16.602,-10.254,-16.602,-32.715,0.000
1714024498.919,-23.926,-26.855,-26.855,-29.785,0.000
1714024498.923,-36.621,-41.504,-36.133,-43.945,0.000
1714024498.927,-26.367,-38.574,-26.367,-41.504,0.000
1714024498.930,-10.254,-40.039,-22.461,-21.484,0.000
1714024498.934,-19.531,-35.156,-28.809,-20.996,0.000
1714024498.938,-35.645,-30.273,-31.738,-41.504,0.000
1714024498.942,-30.762,-20.508,-25.879,-43.457,0.000
1714024498.946,-18.066,-19.531,-15.625,-27.832,0.000
1714024498.950,-20.996,-30.762,-15.137,-20.996,0.000
1714024498.954,-20.020,-29.297,-21.973,-29.297,0.000
1714024498.958,-20.508,-20.508,-30.273,-39.062,0.000
1714024498.963,-29.297,-25.391,-33.691,-29.785,0.000
1714024498.967,-24.414,-30.762,-22.949,-21.484,0.000
1714024498.971,-25.879,-30.762,-21.973,-34.668,0.000
1714024498.975,-30.762,-33.691,-25.879,-43.945,0.000
1714024498.979,-21.973,-27.832,-23.438,-35.645,0.000
1714024498.983,-19.043,-20.508,-24.414,-22.461,0.000
1714024498.987,-26.855,-25.391,-29.297,-25.391,0.000
1714024498.991,-31.250,-30.273,-35.156,-33.203,0.000
1714024498.995,-30.273,-29.297,-28.320,-38.086,0.000
1714024498.999,-34.668,-32.227,-28.320,-43.945,0.000
1714024499.002,-34.668,-32.715,-32.227,-42.480,0.000
1714024499.006,-27.344,-31.738,-21.973,-37.598,0.000
1714024499.010,-26.855,-34.668,-24.414,-38.086,0.000
1714024499.014,-26.855,-35.645,-27.832,-42.480,0.000
1714024499.018,-27.344,-30.273,-18.555,-36.621,0.000
1714024499.022,-23.926,-29.297,-18.555,-34.668,0.000
1714024499.026,-25.391,-33.203,-22.461,-34.668,0.000
1714024499.030,-31.250,-22.949,-30.762,-35.156,0.000
1714024499.034,-32.715,-20.996,-29.785,-36.133,0.000
1714024499.038,-31.738,-33.203,-22.461,-27.344,0.000
1714024499.041,-24.902,-34.668,-24.902,-26.855,0.000
1714024499.045,-30.273,-40.039,-22.949,-35.156,0.000
1714024499.049,-32.227,-33.691,-26.367,-36.133,0.000
1714024499.053,-27.832,-25.879,-24.414,-32.715,0.000
1714024499.057,-26.367,-38.086,-21.973,-29.785,0.000
1714024499.061,-26.855,-39.551,-28.320,-32.227,0.000
1714024499.065,-31.250,-23.438,-28.320,-38.574,0.000
1714024499.068,-31.250,-10.254,-27.832,-39.062,0.000
1714024499.072,-25.391,-17.090,-32.227,-39.551,0.000
1714024499.076,-24.414,-25.391,-30.273,-41.016,0.000
1714024499.080,-28.320,-24.414,-24.902,-47.363,0.000
1714024499.084,-23.926,-21.484,-29.785,-39.062,0.000
1714024499.088,-20.996,-26.855,-37.109,-29.785,0.000
1714024499.092,-26.367,-31.250,-38.574,-41.504,0.000
1714024499.096,-20.508,-25.391,-30.762,-36.621,0.000
1714024499.100,-21.973,-30.273,-17.578,-32.715,0.000
1714024499.103,-32.227,-31.738,-26.855,-40.039,0.000
1714024499.107,-32.227,-17.090,-32.715,-40.039,0.000
1714024499.111,-25.391,-17.090,-21.973,-37.109,0.000
1714024499.115,-22.949,-21.973,-20.020,-33.203,0.000
1714024499.119,-23.438,-18.066,-19.531,-30.273,0.000
1714024499.123,-21.973,-18.555,-28.320,-31.738,0.000
1714024499.127,-21.484,-27.832,-32.715,-40.039,0.000
1714024499.130,-23.438,-30.762,-23.926,-33.203,0.000
1714024499.134,-29.297,-31.250,-29.785,-30.273,0.000
1714024499.138,-30.273,-36.133,-29.785,-37.598,0.000
1714024499.142,-28.809,-31.250,-26.367,-32.227,0.000
1714024499.146,-33.203,-21.973,-35.645,-28.320,0.000
1714024499.149,-35.645,-29.297,-31.738,-26.367,0.000
1714024499.153,-33.203,-27.344,-18.066,-28.809,0.000
1714024499.157,-30.273,-27.344,-21.484,-34.668,0.000
1714024499.161,-36.133,-33.203,-31.738,-41.992,0.000
1714024499.165,-39.062,-29.785,-40.527,-39.062,0.000
1714024499.169,-33.203,-32.715,-40.039,-33.691,0.000
1714024499.173,-29.785,-27.832,-30.273,-32.715,0.000
1714024499.177,-33.691,-26.367,-26.367,-37.109,0.000
1714024499.181,-38.574,-36.621,-29.297,-42.969,0.000
1714024499.185,-37.109,-36.621,-32.227,-45.898,0.000
1714024499.189,-36.133,-38.086,-28.320,-39.062,0.000
1714024499.192,-34.180,-35.156,-31.738,-30.273,0.000
1714024499.196,-35.156,-38.574,-34.180,-31.738,0.000
1714024499.199,-36.621,-38.574,-33.203,-29.297,0.000
1714024499.203,-34.180,-28.809,-23.438,-22.949,0.000
1714024499.207,-36.133,-28.809,-13.184,-36.621,0.000
1714024499.211,-29.785,-29.785,-19.043,-43.945,0.000
1714024499.215,-21.973,-32.227,-26.855,-30.762,0.000
1714024499.219,-20.020,-30.762,-31.250,-23.438,0.000
1714024499.223,-10.254,-28.809,-34.180,-25.391,0.000
1714024499.227,-5.371,-27.344,-36.621,-32.715,0.000
1714024499.231,-13.184,-31.738,-31.250,-33.203,0.000
1714024499.235,-25.391,-36.133,-21.973,-31.738,0.000
1714024499.239,-23.438,-33.691,-19.043,-26.367,0.000
1714024499.242,-27.344,-36.621,-30.273,-33.203,0.000
1714024499.245,-40.039,-36.621,-41.016,-37.598,0.000
1714024499.249,-34.180,-30.762,-39.551,-26.367,0.000
1714024499.253,-25.879,-33.203,-35.156,-30.762,0.000
1714024499.257,-31.250,-35.156,-33.203,-38.086,0.000
1714024499.261,-34.180,-29.785,-19.043,-39.551,0.000
1714024499.265,-34.180,-30.762,-15.137,-29.785,0.000
1714024499.269,-36.621,-31.738,-24.414,-21.484,0.000
1714024499.273,-26.367,-20.508,-21.484,-11.719,0.000
1714024499.277,-28.320,-26.855,-34.180,-19.531,0.000
1714024499.281,-37.598,-31.738,-39.062,-37.598,0.000
1714024499.285,-37.109,-22.949,-31.738,-35.645,0.000
1714024499.289,-39.062,-22.461,-35.645,-36.621,0.000
1714024499.293,-32.715,-23.926,-32.227,-39.062,0.000
1714024499.297,-26.367,-27.832,-32.715,-35.645,0.000
1714024499.301,-20.996,-28.809,-35.645,-39.062,0.000
1714024499.305,-19.531,-26.855,-33.691,-44.922,0.000
1714024499.308,-25.879,-19.043,-42.969,-39.551,0.000
1714024499.312,-28.809,-14.160,-40.527,-33.691,0.000
1714024499.316,-31.738,-21.973,-34.180,-32.715,0.000
1714024499.320,-33.691,-37.109,-30.762,-34.180,0.000
1714024499.324,-31.250,-39.062,-30.273,-38.574,0.000
1714024499.328,-32.715,-26.367,-39.062,-48.828,0.000
1714024499.332,-29.785,-21.973,-41.016,-41.992,0.000
1714024499.336,-29.785,-27.832,-36.621,-35.156,0.000
1714024499.340,-37.109,-32.227,-30.273,-45.410,0.000
1714024499.344,-35.645,-21.484,-27.832,-41.992,0.000
1714024499.348,-33.691,-19.531,-31.738,-38.574,0.000
1714024499.352,-36.621,-31.250,-34.668,-43.945,0.000
1714024499.356,-35.645,-30.273,-29.785,-41.504,0.000
1714024499.360,-34.180,-25.879,-22.949,-41.504,0.000
1714024499.363,-31.738,-24.414,-21.973,-42.969,0.000
1714024499.367,-26.855,-28.320,-26.855,-31.738,0.000
1714024499.371,-28.809,-34.180,-35.156,-28.320,0.000
1714024499.375,-31.738,-24.414,-38.086,-46.387,0.000
1714024499.379,-27.344,-24.414,-34.668,-44.434,0.000
1714024499.383,-27.832,-36.133,-25.391,-33.203,0.000
1714024499.387,-22.949,-33.203,-18.066,-31.250,0.000
1714024499.391,-17.578,-30.273,-23.926,-29.297,0.000
1714024499.395,-20.508,-29.785,-35.156,-31.738,0.000
1714024499.399,-19.531,-23.926,-31.250,-31.250,0.000
1714024499.403,-17.090,-29.785,-18.066,-27.344,0.000
1714024499.406,-18.066,-29.297,-21.973,-24.902,0.000
1714024499.410,-26.367,-20.996,-25.391,-29.297,0.000
1714024499.414,-26.367,-34.668,-20.508,-25.391,0.000
1714024499.418,-24.414,-34.180,-26.367,-22.461,0.000
1714024499.422,-27.832,-20.508,-26.855,-31.738,0.000
1714024499.426,-25.879,-25.879,-21.973,-38.086,0.000
1714024499.430,-24.902,-25.879,-25.879,-39.062,0.000
1714024499.434,-26.367,-18.555,-30.273,-41.016,0.000
1714024499.438,-24.902,-17.090,-23.438,-34.180,0.000
1714024499.442,-18.066,-17.090,-23.438,-30.273,0.000
1714024499.445,-15.625,-23.438,-20.996,-33.691,0.000
1714024499.449,-17.090,-31.738,-20.020,-28.320,0.000
1714024499.453,-16.113,-25.879,-24.902,-25.391,0.000
1714024499.457,-16.113,-17.578,-22.949,-23.438,0.000
1714024499.461,-18.066,-19.043,-20.996,-20.996,0.000
1714024499.465,-21.484,-25.391,-17.578,-26.855,0.000
1714024499.469,-17.578,-34.668,-14.648,-22.461,0.000
1714024499.473,-13.184,-29.297,-25.391,-23.438,0.000
1714024499.476,-13.184,-24.902,-29.297,-31.738,0.000
1714024499.480,-17.090,-33.691,-16.113,-32.227,0.000
1714024499.484,-24.414,-35.156,-19.043,-40.527,0.000
1714024499.488,-25.879,-35.156,-22.949,-41.992,0.000
1714024499.492,-26.367,-27.344,-17.578,-41.016,0.000
1714024499.496,-31.738,-21.973,-17.578,-47.852,0.000
1714024499.500,-32.715,-20.020,-20.996,-40.039,0.000
1714024499.504,-29.297,-19.043,-22.461,-27.344,0.000
1714024499.508,-40.527,-29.785,-24.902,-41.504,0.000
1714024499.512,-43.457,-27.344,-31.738,-50.781,0.000
1714024499.515,-35.645,-29.785,-29.785,-40.039,0.000
1714024499.519,-31.738,-29.785,-24.902,-42.969,0.000
1714024499.523,-33.691,-21.973,-26.855,-42.480,0.000
1714024499.527,-34.668,-24.902,-26.367,-38.086,0.000
1714024499.531,-39.062,-27.344,-29.785,-39.551,0.000
1714024499.535,-37.598,-29.297,-28.809,-42.480,0.000
1714024499.538,-31.250,-29.297,-23.926,-33.691,0.000
1714024499.542,-36.621,-30.273,-25.879,-26.367,0.000
1714024499.546,-41.016,-33.691,-22.949,-29.297,0.000
1714024499.550,-36.621,-29.785,-27.832,-27.344,0.000
1714024499.554,-34.668,-21.484,-28.809,-29.785,0.000
1714024499.558,-31.250,-29.785,-22.461,-36.133,0.000
1714024499.562,-31.250,-39.551,-31.738,-37.109,0.000
1714024499.566,-37.598,-36.133,-32.227,-34.668,0.000
1714024499.569,-38.574,-29.785,-12.207,-31.250,0.000
1714024499.573,-33.203,-30.273,-9.766,-30.762,0.000
1714024499.577,-40.039,-34.668,-24.414,-40.527,0.000
1714024499.581,-48.340,-38.574,-28.809,-47.363,0.000
1714024499.585,-40.039,-35.645,-24.902,-43.945,0.000
1714024499.589,-40.039,-33.203,-26.855,-48.340,0.000
1714024499.593,-37.109,-30.762,-25.391,-42.480,0.000
1714024499.596,-33.691,-26.855,-17.090,-35.156,0.000
1714024499.600,-41.016,-26.855,-11.230,-44.922,0.000
1714024499.604,-48.340,-35.645,-23.438,-55.176,0.000
1714024499.608,-48.340,-35.645,-29.785,-53.711,0.000
1714024499.612,-38.574,-27.832,-22.461,-41.992,0.000
1714024499.615,-43.945,-32.227,-20.508,-40.527,0.000
1714024499.619,-46.387,-26.367,-22.949,-45.898,0.000
1714024499.623,-36.621,-17.578,-28.320,-45.410,0.000
1714024499.627,-33.203,-20.508,-29.297,-41.992,0.000
1714024499.631,-32.227,-21.484,-20.508,-39.551,0.000
1714024499.635,-33.203,-28.809,-17.090,-39.062,0.000
1714024499.639,-30.762,-34.180,-23.926,-34.180,0.000
1714024499.643,-33.691,-33.691,-23.438,-35.156,0.000
1714024499.647,-39.551,-25.879,-29.785,-36.621,0.000
1714024499.650,-39.551,-20.996,-33.203,-33.203,0.000
1714024499.654,-35.645,-28.809,-28.320,-30.273,0.000
1714024499.658,-27.344,-24.414,-21.973,-22.949,0.000
1714024499.663,-23.438,-18.555,-16.113,-25.391,0.000
1714024499.667,-26.367,-22.949,-23.926,-28.320,0.000
1714024499.671,-29.297,-24.414,-28.809,-30.273,0.000
1714024499.675,-25.391,-19.531,-18.555,-27.344,0.000
1714024499.679,-17.578,-22.461,-15.625,-17.578,0.000
1714024499.682,-18.066,-19.531,-15.137,-15.625,0.000
1714024499.686,-23.438,-13.672,-23.438,-23.926,0.000
1714024499.690,-28.320,-23.926,-26.367,-33.691,0.000
1714024499.694,-40.039,-29.785,-16.113,-41.016,0.000
1714024499.698,-50.293,-26.367,-23.926,-41.504,0.000
1714024499.702,-52.734,-21.973,-12.207,-50.293,0.000
1714024499.706,-52.246,-21.484,-8.789,-66.406,0.000
1714024499.710,-61.523,-27.344,-32.715,-74.219,0.000
1714024499.714,-75.684,-35.156,-36.621,-86.426,0.000
1714024499.718,-92.773,-38.086,-29.297,-98.633,0.000
1714024499.722,-103.027,-39.062,-25.391,-105.469,0.000
1714024499.726,-103.027,-34.668,-24.414,-112.305,0.000
1714024499.730,-104.980,-32.715,-7.812,-108.398,0.000
1714024499.734,-110.840,-32.715,8.301,-107.910,0.000
1714024499.738,-120.605,-35.645,4.395,-118.652,0.000
1714024499.741,-122.070,-42.969,-13.672,-116.699,0.000
1714024499.745,-122.070,-47.363,-20.508,-115.723,0.000
1714024499.749,-121.094,-44.434,-15.137,-117.188,0.000
1714024499.753,-104.492,-39.551,-25.879,-104.492,0.000
1714024499.757,-87.402,-33.691,-26.367,-90.820,0.000
1714024499.761,-77.148,-24.902,-13.672,-80.078,0.000
1714024499.765,-70.801,-26.855,-14.160,-82.520,0.000
1714024499.769,-67.383,-33.691,-23.926,-83.496,0.000
1714024499.773,-62.012,-42.480,-20.020,-70.801,0.000
1714024499.777,-60.059,-43.457,-26.855,-62.988,0.000
1714024499.781,-56.152,-36.621,-36.621,-64.941,0.000
1714024499.785,-51.758,-37.598,-34.668,-56.641,0.000
1714024499.788,-47.852,-33.691,-37.598,-49.316,0.000
1714024499.792,-40.527,-29.785,-39.062,-43.457,0.000
1714024499.796,-34.180,-31.250,-42.480,-40.039,0.000
1714024499.800,-27.344,-36.133,-37.598,-37.598,0.000
1714024499.804,-20.508,-41.016,-32.715,-34.668,0.000
1714024499.808,-8.789,-34.180,-37.109,-27.344,0.000
1714024499.812,-3.418,-30.273,-37.109,-18.555,0.000
1714024499.816,-5.859,-32.227,-38.086,-16.113,0.000
1714024499.820,-3.418,-27.832,-39.551,-14.160,0.000
1714024499.824,-0.488,-27.832,-42.969,-9.766,0.000
1714024499.828,-4.883,-32.715,-46.875,-14.648,0.000
1714024499.831,0.000,-31.738,-38.574,-11.719,0.000
1714024499.835,6.348,-21.484,-28.320,0.488,0.000
1714024499.839,5.859,-20.508,-25.879,-0.977,0.000
1714024499.843,4.395,-33.203,-38.574,-5.371,0.000
1714024499.847,-1.465,-30.273,-52.246,0.977,0.000
1714024499.851,-3.418,-21.484,-51.758,4.395,0.000
1714024499.855,4.395,-17.090,-39.062,3.418,0.000
1714024499.859,5.371,-19.043,-35.645,0.000,0.000
1714024499.862,0.488,-24.414,-32.227,-1.953,0.000
1714024499.866,-0.488,-27.344,-23.438,-2.441,0.000
1714024499.870,-1.465,-31.738,-23.438,-2.441,0.000
1714024499.874,-10.742,-34.668,-32.227,-10.742,0.000
1714024499.878,-18.066,-26.367,-46.875,-12.207,0.000
1714024499.882,-17.090,-27.344,-47.852,-3.418,0.000
1714024499.886,-9.277,-36.133,-44.434,-6.836,0.000
1714024499.890,-0.488,-29.785,-38.574,-7.324,0.000
1714024499.894,-7.812,-27.832,-31.738,-10.742,0.000
1714024499.897,-3.906,-28.809,-26.855,-8.789,0.000
1714024499.901,1.953,-24.902,-18.066,-6.348,0.000
1714024499.905,-11.230,-27.832,-26.367,-13.672,0.000
1714024499.909,-11.719,-26.367,-34.180,-16.602,0.000
1714024499.913,-6.348,-25.879,-37.598,-14.648,0.000
1714024499.917,-8.301,-24.902,-36.621,-7.324,0.000
1714024499.921,-8.789,-18.555,-26.855,-7.324,0.000
1714024499.925,-11.719,-22.461,-24.902,-9.766,0.000
1714024499.928,-17.578,-29.297,-26.367,-13.672,0.000
1714024499.932,-14.648,-32.227,-25.879,-12.695,0.000
1714024499.936,-9.766,-34.180,-27.344,-9.766,0.000
1714024499.940,-0.977,-31.738,-32.227,-18.066,0.000
1714024499.943,4.883,-23.926,-36.621,-21.973,0.000
1714024499.947,5.371,-21.484,-43.457,-20.508,0.000
1714024499.951,10.254,-19.531,-39.062,-19.531,0.000
1714024499.955,11.230,-19.531,-27.344,-17.090,0.000
1714024499.959,6.836,-25.391,-29.785,-21.973,0.000
1714024499.963,0.977,-23.438,-33.203,-27.344,0.000
1714024499.967,0.488,-20.020,-26.367,-13.672,0.000
1714024499.971,-1.953,-21.973,-28.320,-4.883,0.000
1714024499.975,-13.184,-24.902,-34.668,-14.160,0.000
1714024499.979,-23.438,-37.109,-41.504,-18.555,0.000
1714024499.983,-19.531,-34.668,-36.133,-12.207,0.000
1714024499.986,-13.184,-21.973,-16.113,-9.766,0.000
1714024499.990,-19.043,-27.344,-14.648,-14.160,0.000
1714024499.994,-16.113,-21.484,-30.762,-8.301,0.000
1714024499.998,-19.531,-21.973,-32.715,-19.531,0.000
1714024500.001,-25.391,-32.227,-30.762,-28.809,0.000
1714024500.005,-22.949,-27.832,-37.598,-22.461,0.000
1714024500.009,-24.414,-33.203,-43.945,-21.484,0.000
1714024500.013,-32.227,-35.645,-41.992,-20.508,0.000
1714024500.017,-31.250,-23.926,-29.785,-23.438,0.000
1714024500.021,-30.762,-32.227,-31.250,-28.320,0.000
1714024500.025,-37.598,-46.387,-39.551,-32.715,0.000
1714024500.029,-32.227,-34.180,-31.738,-27.832,0.000
1714024500.033,-26.855,-28.320,-20.508,-30.762,0.000
1714024500.037,-29.297,-36.133,-26.367,-41.504,0.000
1714024500.041,-26.855,-33.203,-33.203,-40.039,0.000
1714024500.045,-25.879,-35.156,-30.273,-35.156,0.000
1714024500.049,-26.367,-41.016,-34.668,-32.227,0.000
1714024500.053,-22.949,-29.297,-43.945,-33.691,0.000
1714024500.057,-32.715,-34.668,-43.457,-35.156,0.000
1714024500.061,-29.297,-47.852,-32.227,-24.902,0.000
1714024500.065,-14.648,-36.621,-21.973,-13.184,0.000
1714024500.069,-16.602,-34.668,-24.902,-16.602,0.000
1714024500.072,-23.926,-36.621,-32.715,-21.484,0.000
1714024500.076,-25.879,-38.086,-23.926,-22.461,0.000
1714024500.080,-32.715,-37.598,-14.648,-27.832,0.000
1714024500.085,-31.738,-37.598,-23.438,-26.855,0.000
1714024500.089,-28.320,-39.062,-39.062,-25.879,0.000
1714024500.093,-28.320,-33.691,-37.598,-30.273,0.000
1714024500.096,-21.973,-28.809,-28.809,-27.832,0.000
1714024500.100,-19.531,-23.926,-29.785,-26.367,0.000
1714024500.104,-15.625,-25.879,-23.438,-26.855,0.000
1714024500.108,-13.672,-27.344,-19.531,-27.832,0.000
1714024500.112,-19.043,-20.996,-28.809,-37.598,0.000
1714024500.116,-23.926,-25.391,-34.180,-41.016,0.000
1714024500.120,-19.531,-24.902,-32.715,-34.668,0.000
1714024500.124,-19.531,-20.020,-20.508,-34.668,0.000
1714024500.128,-23.438,-29.785,-19.531,-38.574,0.000
1714024500.133,-18.066,-31.738,-33.203,-33.203,0.000
1714024500.137,-15.625,-34.180,-28.809,-27.344,0.000
1714024500.141,-18.066,-35.645,-16.602,-27.832,0.000
1714024500.145,-19.043,-34.180,-24.414,-30.273,0.000
1714024500.149,-19.043,-28.320,-30.762,-31.738,0.000
1714024500.153,-20.508,-25.391,-19.531,-33.691,0.000
1714024500.157,-18.555,-24.414,-19.043,-33.691,0.000
1714024500.161,-17.578,-20.996,-20.996,-30.273,0.000
1714024500.165,-23.926,-28.320,-14.648,-28.809,0.000
1714024500.168,-27.832,-24.902,-21.973,-28.320,0.000
1714024500.172,-27.832,-21.973,-24.902,-29.785,0.000
1714024500.176,-31.738,-32.715,-22.461,-30.762,0.000
1714024500.180,-36.133,-34.180,-21.484,-30.273,0.000
1714024500.184,-31.250,-21.973,-27.344,-30.273,0.000
1714024500.188,-23.926,-16.113,-28.809,-30.762,0.000
1714024500.192,-21.973,-30.273,-22.949,-37.109,0.000
1714024500.196,-25.391,-34.180,-16.113,-32.227,0.000
1714024500.200,-28.320,-17.090,-10.254,-26.855,0.000
1714024500.204,-28.320,-17.578,-21.484,-30.762,0.000
1714024500.208,-25.879,-20.020,-28.809,-30.273,0.000
1714024500.211,-27.344,-20.508,-24.414,-34.180,0.000
1714024500.215,-36.621,-25.879,-27.832,-38.574,0.000
1714024500.219,-36.621,-28.320,-33.691,-35.645,0.000
1714024500.223,-26.855,-33.691,-36.621,-25.391,0.000
1714024500.227,-22.949,-34.180,-23.926,-22.461,0.000
1714024500.231,-23.438,-28.809,-16.602,-33.203,0.000
1714024500.235,-23.438,-22.949,-20.508,-32.227,0.000
1714024500.238,-26.855,-22.949,-18.555,-31.250,0.000
1714024500.242,-23.926,-24.414,-28.809,-35.645,0.000
1714024500.246,-18.066,-18.066,-36.621,-31.250,0.000
1714024500.250,-24.414,-23.926,-27.344,-31.250,0.000
1714024500.254,-30.762,-33.203,-23.438,-27.832,0.000
1714024500.258,-31.250,-31.738,-25.879,-24.414,0.000
1714024500.262,-26.367,-29.297,-17.578,-32.715,0.000
1714024500.266,-29.785,-24.414,-21.973,-34.668,0.000
1714024500.270,-33.203,-26.855,-24.414,-36.133,0.000
1714024500.273,-34.180,-37.598,-22.949,-43.945,0.000
1714024500.277,-33.691,-35.645,-29.785,-43.457,0.000
1714024500.281,-29.785,-30.762,-32.715,-36.621,0.000
1714024500.285,-29.297,-28.809,-26.855,-38.574,0.000
1714024500.289,-21.973,-26.855,-14.648,-37.109,0.000
1714024500.293,-21.484,-31.250,-17.090,-39.062,0.000
1714024500.297,-28.320,-27.832,-27.832,-42.969,0.000
1714024500.300,-33.691,-23.926,-31.250,-37.598,0.000
1714024500.304,-33.203,-25.391,-31.250,-37.598,0.000
1714024500.308,-26.855,-22.461,-25.391,-41.016,0.000
1714024500.312,-27.832,-36.133,-19.531,-40.527,0.000
1714024500.316,-25.879,-41.992,-25.879,-34.180,0.000
1714024500.319,-20.508,-29.297,-31.738,-28.809,0.000
1714024500.323,-22.949,-27.344,-28.809,-32.227,0.000
1714024500.327,-27.832,-29.297,-28.320,-35.156,0.000
1714024500.331,-31.738,-34.668,-36.621,-39.062,0.000
1714024500.335,-30.273,-33.203,-37.109,-36.133,0.000
1714024500.339,-31.250,-19.531,-21.484,-33.691,0.000
1714024500.343,-34.668,-25.391,-15.137,-34.180,0.000
1714024500.347,-28.809,-34.668,-17.578,-23.926,0.000
1714024500.351,-27.344,-29.785,-14.160,-28.809,0.000
1714024500.355,-37.109,-35.156,-27.832,-44.434,0.000
1714024500.358,-35.156,-25.879,-34.180,-45.410,0.000
1714024500.362,-28.809,-19.043,-28.809,-41.992,0.000
1714024500.366,-33.691,-27.832,-31.738,-33.203,0.000
1714024500.369,-29.785,-25.879,-23.926,-28.809,0.000
1714024500.373,-20.508,-24.414,-20.020,-27.344,0.000
1714024500.377,-20.996,-21.973,-20.996,-26.855,0.000
1714024500.381,-20.996,-24.902,-19.043,-27.344,0.000
1714024500.385,-24.902,-35.156,-32.227,-30.762,0.000
1714024500.389,-28.809,-37.109,-37.598,-38.086,0.000
1714024500.393,-23.926,-27.832,-30.762,-35.156,0.000
1714024500.397,-20.020,-21.484,-22.949,-34.180,0.000
1714024500.401,-18.066,-16.113,-14.160,-27.344,0.000
1714024500.405,-14.648,-15.137,-11.230,-23.926,0.000
1714024500.409,-27.832,-26.855,-13.184,-42.969,0.000
1714024500.413,-30.762,-26.855,-20.508,-45.410,0.000
1714024500.417,-20.996,-25.391,-30.762,-34.180,0.000
1714024500.421,-22.949,-28.320,-26.367,-38.086,0.000
1714024500.425,-24.902,-25.879,-31.738,-41.504,0.000
1714024500.429,-21.484,-25.879,-33.691,-37.598,0.000
1714024500.433,-17.090,-25.391,-21.484,-32.227,0.000
1714024500.437,-22.949,-17.090,-14.648,-35.156,0.000
1714024500.440,-27.344,-19.043,-14.648,-42.480,0.000
1714024500.444,-25.879,-31.738,-23.438,-33.691,0.000
1714024500.448,-27.832,-33.203,-31.738,-26.855,0.000
1714024500.452,-31.738,-29.785,-33.203,-32.715,0.000
1714024500.456,-34.180,-23.438,-32.715,-41.992,0.000
1714024500.460,-36.621,-28.809,-32.715,-43.457,0.000
1714024500.464,-28.320,-31.250,-19.531,-31.250,0.000
1714024500.468,-25.879,-26.367,-7.812,-30.273,0.000
1714024500.472,-32.715,-22.949,-19.043,-45.410,0.000
1714024500.476,-35.156,-26.367,-35.156,-48.340,0.000
1714024500.480,-40.527,-31.250,-29.785,-46.387,0.000
1714024500.484,-41.992,-30.273,-29.297,-42.969,0.000
1714024500.488,-33.691,-27.344,-30.273,-38.574,0.000
1714024500.492,-36.133,-24.902,-28.809,-41.016,0.000
1714024500.496,-38.086,-23.926,-32.227,-35.156,0.000
1714024500.499,-32.715,-25.391,-25.879,-31.738,0.000
1714024500.503,-32.715,-26.855,-28.320,-42.480,0.000
1714024500.507,-32.227,-27.344,-40.039,-49.316,0.000
1714024500.511,-25.391,-23.438,-41.992,-37.109,0.000
1714024500.515,-23.438,-17.090,-25.391,-23.438,0.000
1714024500.519,-38.086,-25.879,-20.020,-36.133,0.000
1714024500.523,-38.574,-27.832,-21.484,-38.086,0.000
1714024500.527,-26.855,-23.438,-23.438,-31.738,0.000
1714024500.531,-29.785,-32.715,-28.809,-35.645,0.000
1714024500.535,-36.133,-33.203,-29.297,-39.062,0.000
1714024500.539,-29.785,-27.832,-29.297,-31.738,0.000
1714024500.543,-20.508,-23.438,-16.602,-30.273,0.000
1714024500.546,-22.461,-25.391,-10.742,-32.227,0.000
1714024500.550,-27.832,-24.902,-16.602,-29.785,0.000
1714024500.554,-24.414,-18.555,-19.531,-34.668,0.000
1714024500.558,-30.273,-20.996,-24.414,-37.598,0.000
1714024500.562,-34.668,-26.367,-20.020,-35.156,0.000
1714024500.566,-25.879,-34.180,-17.090,-31.250,0.000
1714024500.570,-19.043,-27.832,-14.160,-28.809,0.000
1714024500.574,-12.695,-12.207,-15.625,-29.785,0.000
1714024500.578,-27.832,-28.809,-29.297,-45.898,0.000
1714024500.582,-41.992,-38.574,-34.180,-52.734,0.000
1714024500.585,-40.039,-34.668,-25.391,-42.480,0.000
1714024500.589,-55.176,-31.738,-17.578,-55.176,0.000
1714024500.593,-54.199,-24.902,-27.344,-68.848,0.000
1714024500.597,-53.711,-36.133,-24.902,-70.312,0.000
1714024500.601,-73.242,-35.645,-29.785,-85.938,0.000
1714024500.605,-82.520,-29.785,-24.414,-95.215,0.000
1714024500.609,-87.402,-41.504,-20.508,-98.633,0.000
1714024500.613,-95.703,-48.828,-34.180,-108.398,0.000
1714024500.617,-106.445,-46.387,-30.273,-113.281,0.000
1714024500.620,-116.699,-40.527,-28.809,-125.488,0.000
1714024500.624,-120.605,-33.691,-29.785,-142.090,0.000
1714024500.628,-115.234,-33.203,-8.789,-126.953,0.000
1714024500.632,-119.629,-37.109,2.441,-121.094,0.000
1714024500.636,-127.441,-35.156,-14.160,-137.695,0.000
1714024500.640,-121.582,-33.691,-20.508,-138.184,0.000
1714024500.644,-119.629,-43.945,-15.625,-134.766,0.000
1714024500.647,-125.000,-55.176,-18.555,-129.395,0.000
1714024500.651,-116.211,-44.922,-19.043,-121.094,0.000
1714024500.655,-100.586,-28.809,-13.184,-109.375,0.000
1714024500.659,-95.703,-29.785,-13.184,-106.934,0.000
1714024500.663,-92.285,-32.715,-13.672,-107.422,0.000
1714024500.667,-88.379,-30.273,-14.648,-96.191,0.000
1714024500.671,-83.984,-32.227,-16.113,-91.797,0.000
1714024500.675,-81.543,-27.832,-19.531,-90.332,0.000
1714024500.679,-82.031,-27.832,-15.625,-92.773,0.000
1714024500.683,-76.172,-23.438,-11.719,-89.844,0.000
1714024500.686,-71.777,-19.043,-16.113,-81.055,0.000
1714024500.690,-68.359,-30.273,-14.160,-78.613,0.000
1714024500.694,-60.547,-29.297,-14.648,-74.219,0.000
1714024500.698,-73.242,-35.645,-27.832,-84.473,0.000
1714024500.702,-80.078,-39.062,-28.809,-93.750,0.000
1714024500.706,-67.383,-34.668,-7.812,-91.309,0.000
1714024500.709,-65.430,-28.320,3.418,-98.633,0.000
1714024500.713,-70.312,-23.438,-5.859,-101.562,0.000
1714024500.717,-78.613,-35.645,-12.695,-98.633,0.000
1714024500.721,-93.262,-40.039,-7.812,-100.586,0.000
1714024500.725,-103.027,-36.133,-1.953,-109.375,0.000
1714024500.729,-107.422,-37.598,-10.254,-107.910,0.000
1714024500.733,-114.746,-34.180,-12.695,-104.492,0.000
1714024500.737,-108.887,-30.762,-3.418,-100.586,0.000
1714024500.740,-102.051,-29.297,-4.883,-97.168,0.000
1714024500.744,-94.238,-22.949,-4.395,-92.285,0.000
1714024500.748,-84.473,-23.926,0.977,-81.055,0.000
1714024500.752,-83.984,-33.203,-6.836,-82.520,0.000
1714024500.756,-86.426,-38.086,-18.555,-85.449,0.000
1714024500.760,-87.891,-43.457,-22.461,-82.031,0.000
1714024500.763,-77.148,-50.293,-17.578,-69.336,0.000
1714024500.767,-65.430,-41.016,-12.207,-62.988,0.000
1714024500.771,-56.152,-27.832,-20.508,-63.477,0.000
1714024500.775,-50.781,-27.832,-29.785,-58.105,0.000
1714024500.779,-51.758,-27.832,-29.785,-51.270,0.000
1714024500.783,-45.898,-25.879,-36.621,-49.316,0.000
1714024500.789,-33.691,-26.367,-35.645,-48.340,0.000
1714024500.793,-30.273,-32.227,-32.227,-40.527,0.000
1714024500.797,-27.832,-37.109,-36.133,-28.320,0.000
1714024500.801,-16.602,-38.574,-30.762,-24.902,0.000
1714024500.805,-10.254,-37.109,-19.531,-22.461,0.000
1714024500.809,-9.766,-41.504,-32.227,-14.648,0.000
1714024500.812,-14.160,-41.992,-54.688,-14.648,0.000
1714024500.816,-9.277,-22.949,-63.965,-14.648,0.000
1714024500.820,3.906,-20.508,-63.965,-14.160,0.000
1714024500.824,6.348,-33.203,-54.199,-13.672,0.000
1714024500.828,8.301,-31.738,-52.734,-4.883,0.000
1714024500.832,19.043,-29.297,-52.246,5.371,0.000
1714024500.836,28.320,-23.438,-34.180,14.160,0.000
1714024500.840,22.949,-28.320,-23.926,12.695,0.000
1714024500.844,9.766,-36.621,-40.527,1.953,0.000
1714024500.848,7.812,-29.297,-55.176,2.441,0.000
1714024500.852,18.066,-23.926,-62.012,13.672,0.000
1714024500.856,29.297,-33.203,-57.129,18.066,0.000
1714024500.860,27.832,-38.086,-52.246,12.207,0.000
1714024500.863,25.879,-35.156,-43.945,15.137,0.000
1714024500.867,28.809,-34.180,-30.273,21.484,0.000
1714024500.871,27.832,-29.297,-34.180,21.973,0.000
1714024500.875,23.926,-24.902,-41.504,19.043,0.000
1714024500.879,28.320,-24.902,-41.992,20.020,0.000
1714024500.883,33.691,-30.762,-40.039,25.391,0.000
1714024500.887,25.879,-31.250,-33.203,23.926,0.000
1714024500.891,25.391,-24.414,-27.832,15.625,0.000
1714024500.895,27.832,-27.832,-27.832,11.719,0.000
1714024500.899,27.832,-27.832,-28.809,16.602,0.000
1714024500.903,30.762,-20.996,-29.785,15.625,0.000
1714024500.907,26.367,-20.020,-34.668,5.859,0.000
1714024500.910,21.973,-20.020,-39.551,2.930,0.000
1714024500.914,18.066,-26.855,-46.875,7.324,0.000
1714024500.918,19.043,-37.109,-41.992,11.719,0.000
1714024500.922,25.391,-24.902,-21.973,10.254,0.000
1714024500.926,31.250,-17.578,-11.719,17.090,0.000
1714024500.930,25.879,-21.484,-26.367,16.113,0.000
1714024500.934,19.531,-20.508,-42.969,6.836,0.000
1714024500.938,22.461,-17.578,-40.527,7.812,0.000
1714024500.942,21.973,-14.160,-36.133,8.301,0.000
1714024500.946,14.160,-17.578,-42.969,-1.465,0.000
1714024500.949,13.184,-17.578,-41.992,0.977,0.000
1714024500.953,13.184,-13.672,-34.668,6.348,0.000
1714024500.957,11.719,-17.090,-33.691,-0.488,0.000
1714024500.961,16.602,-20.508,-33.691,5.371,0.000
1714024500.965,17.090,-16.113,-34.180,10.254,0.000
1714024500.969,13.184,-19.043,-27.832,4.395,0.000
1714024500.973,7.324,-31.738,-25.391,-3.418,0.000
1714024500.978,7.812,-27.344,-28.320,-2.441,0.000
1714024500.982,11.719,-20.508,-32.227,-1.465,0.000
1714024500.986,0.488,-20.020,-36.621,-1.465,0.000
1714024500.990,-8.301,-26.855,-37.598,1.465,0.000
1714024500.994,-6.348,-28.809,-33.691,-4.395,0.000
1714024500.998,-11.719,-20.996,-34.668,-12.695,0.000
1714024501.001,-11.230,-22.949,-40.527,-12.695,0.000
1714024501.005,-4.395,-19.043,-38.574,-2.930,0.000
1714024501.009,-9.277,-7.324,-31.250,-5.371,0.000
1714024501.013,-11.230,-6.836,-29.785,-9.766,0.000
1714024501.017,-5.371,-15.137,-29.785,-7.324,0.000
1714024501.021,-9.766,-13.672,-30.762,-18.066,0.000
1714024501.024,-7.324,-15.625,-28.809,-17.578,0.000
1714024501.028,-3.906,-20.508,-29.785,-7.812,0.000
1714024501.032,-17.090,-21.973,-36.621,-10.742,0.000
1714024501.036,-15.137,-25.391,-35.645,-10.254,0.000
1714024501.040,-8.301,-23.438,-33.691,-10.742,0.000
1714024501.044,-17.090,-18.555,-33.691,-26.855,0.000
1714024501.048,-21.484,-23.438,-40.039,-22.461,0.000
1714024501.052,-20.508,-28.320,-44.434,-9.277,0.000
1714024501.055,-11.719,-29.785,-27.832,-10.254,0.000
1714024501.059,-6.836,-27.832,-8.789,-10.742,0.000
1714024501.063,-11.719,-25.391,-19.531,-13.672,0.000
1714024501.067,-22.461,-23.926,-33.691,-20.996,0.000
1714024501.070,-25.391,-18.555,-21.484,-24.414,0.000
1714024501.074,-23.926,-21.973,-21.973,-24.414,0.000
1714024501.078,-27.832,-36.133,-34.668,-30.273,0.000
1714024501.082,-27.832,-41.992,-31.738,-24.414,0.000
1714024501.086,-29.785,-37.598,-29.297,-24.414,0.000
1714024501.090,-29.297,-29.785,-29.297,-33.691,0.000
1714024501.094,-28.809,-30.273,-21.484,-20.020,0.000
1714024501.098,-28.809,-35.645,-17.578,-5.859,0.000
1714024501.102,-29.297,-37.109,-24.414,-17.090,0.000
1714024501.106,-28.809,-30.762,-31.250,-28.809,0.000
1714024501.109,-18.555,-24.902,-27.344,-24.414,0.000
1714024501.113,-19.531,-29.297,-24.902,-23.438,0.000
1714024501.116,-22.949,-26.367,-26.367,-24.414,0.000
1714024501.120,-17.578,-22.461,-31.250,-18.555,0.000
1714024501.124,-21.973,-23.926,-27.832,-22.949,0.000
1714024501.128,-27.344,-22.949,-11.230,-24.414,0.000
1714024501.132,-21.973,-26.367,-6.836,-17.090,0.000
1714024501.136,-21.484,-36.133,-19.531,-22.949,0.000
1714024501.140,-28.320,-41.016,-32.227,-33.203,0.000
1714024501.144,-26.367,-38.574,-29.297,-37.109,0.000
1714024501.148,-23.926,-30.762,-23.438,-30.273,0.000
1714024501.152,-21.484,-27.832,-29.297,-26.367,0.000
1714024501.155,-16.113,-25.879,-30.762,-29.785,0.000
1714024501.159,-22.461,-23.926,-23.438,-36.621,0.000
1714024501.164,-32.715,-27.832,-26.855,-36.133,0.000
1714024501.168,-28.809,-30.273,-31.738,-31.250,0.000
1714024501.172,-29.297,-34.668,-29.297,-41.504,0.000
1714024501.176,-35.156,-35.156,-37.109,-48.828,0.000
1714024501.180,-28.809,-27.832,-37.598,-27.832,0.000
1714024501.183,-32.227,-30.762,-26.855,-21.484,0.000
1714024501.187,-32.227,-24.902,-23.438,-27.344,0.000
1714024501.191,-20.508,-12.695,-26.367,-25.391,0.000
1714024501.195,-15.137,-11.719,-21.973,-28.320,0.000
1714024501.199,-15.137,-21.484,-19.043,-26.367,0.000
1714024501.203,-21.484,-26.367,-22.949,-26.855,0.000
1714024501.207,-18.555,-25.391,-20.508,-29.785,0.000
1714024501.211,-14.160,-26.855,-24.902,-25.879,0.000
1714024501.215,-15.625,-20.996,-28.809,-20.020,0.000
1714024501.219,-16.113,-20.508,-27.344,-23.926,0.000
1714024501.223,-13.184,-33.203,-30.273,-26.367,0.000
1714024501.227,-20.020,-36.133,-32.227,-36.133,0.000
1714024501.231,-27.832,-35.645,-33.203,-36.133,0.000
1714024501.234,-20.996,-34.668,-33.691,-21.973,0.000
1714024501.238,-17.578,-26.367,-22.949,-19.043,0.000
1714024501.242,-23.438,-26.855,-19.531,-18.555,0.000
1714024501.246,-22.949,-31.738,-29.785,-16.602,0.000
1714024501.250,-21.484,-29.785,-30.273,-19.531,0.000
1714024501.254,-25.391,-24.414,-36.133,-23.438,0.000
1714024501.258,-26.855,-22.461,-35.156,-26.855,0.000
1714024501.262,-23.926,-20.020,-26.367,-26.367,0.000
1714024501.266,-20.508,-21.973,-23.926,-29.785,0.000
1714024501.270,-30.273,-25.879,-23.926,-34.180,0.000
1714024501.274,-30.762,-29.785,-17.090,-31.250,0.000
1714024501.278,-20.996,-25.879,-13.184,-24.414,0.000
1714024501.281,-24.902,-20.996,-23.926,-25.391,0.000
1714024501.285,-24.902,-19.043,-32.227,-29.785,0.000
1714024501.289,-28.320,-20.508,-34.668,-30.762,0.000
1714024501.293,-34.668,-25.391,-41.016,-32.715,0.000
1714024501.297,-28.809,-32.715,-28.320,-33.203,0.000
1714024501.301,-26.855,-32.227,-23.438,-32.715,0.000
1714024501.305,-29.785,-33.203,-35.645,-36.133,0.000
1714024501.309,-33.691,-33.691,-36.133,-31.738,0.000
1714024501.313,-31.250,-28.320,-29.297,-33.203,0.000
1714024501.317,-28.320,-27.344,-28.809,-33.691,0.000
1714024501.320,-30.273,-20.996,-35.156,-34.180,0.000
1714024501.324,-32.227,-17.090,-38.574,-40.039,0.000
1714024501.328,-25.879,-11.719,-26.855,-29.297,0.000
1714024501.332,-31.250,-25.391,-29.785,-24.414,0.000
1714024501.336,-34.180,-38.574,-37.109,-25.391,0.000
1714024501.340,-27.832,-33.203,-21.484,-26.855,0.000
1714024501.344,-21.973,-26.855,-19.043,-28.320,0.000
1714024501.348,-20.020,-27.344,-26.855,-24.902,0.000
1714024501.352,-25.391,-24.414,-32.715,-26.367,0.000
1714024501.355,-20.996,-23.438,-26.855,-28.809,0.000
1714024501.359,-18.066,-28.809,-22.949,-26.855,0.000
1714024501.363,-24.414,-24.902,-31.250,-34.668,0.000
1714024501.367,-31.738,-32.227,-27.832,-35.645,0.000
1714024501.371,-33.203,-35.156,-27.344,-31.250,0.000
1714024501.375,-31.250,-29.785,-34.180,-35.156,0.000
1714024501.379,-28.320,-26.855,-35.645,-28.320,0.000
1714024501.383,-26.367,-25.391,-29.297,-16.602,0.000
1714024501.387,-32.227,-31.250,-20.020,-22.949,0.000
1714024501.391,-34.180,-24.414,-25.391,-30.762,0.000
1714024501.394,-32.227,-25.879,-36.133,-29.297,0.000
1714024501.398,-28.809,-34.180,-32.227,-26.367,0.000
1714024501.402,-29.785,-31.738,-20.020,-26.855,0.000
1714024501.406,-29.297,-28.320,-25.391,-30.762,0.000
1714024501.410,-27.832,-29.297,-35.156,-34.180,0.000
1714024501.414,-30.273,-28.809,-29.297,-32.715,0.000
1714024501.417,-26.367,-32.227,-24.414,-31.250,0.000
1714024501.421,-23.438,-39.551,-30.762,-35.156,0.000
1714024501.425,-26.367,-32.715,-38.086,-29.297,0.000
1714024501.429,-30.273,-26.367,-31.250,-37.109,0.000
1714024501.433,-33.691,-27.344,-30.762,-43.945,0.000
1714024501.437,-25.879,-30.273,-39.551,-34.180,0.000
1714024501.441,-20.996,-20.508,-28.809,-30.762,0.000
1714024501.444,-27.832,-17.090,-15.137,-33.203,0.000
1714024501.448,-25.879,-24.902,-24.414,-27.344,0.000
1714024501.452,-18.066,-26.855,-32.715,-27.832,0.000
1714024501.456,-22.461,-29.297,-29.785,-31.250,0.000
1714024501.460,-23.926,-31.738,-25.391,-27.344,0.000
1714024501.464,-23.438,-33.203,-32.715,-29.785,0.000
1714024501.468,-26.855,-36.621,-38.086,-34.668,0.000
1714024501.472,-18.066,-34.180,-27.344,-32.227,0.000
1714024501.476,-14.648,-27.344,-26.367,-32.715,0.000
1714024501.479,-15.625,-28.809,-26.855,-29.297,0.000
1714024501.483,-4.395,-27.344,-22.461,-24.414,0.000
1714024501.487,2.441,-33.203,-31.738,-30.273,0.000
1714024501.491,-2.930,-31.250,-33.691,-29.785,0.000
1714024501.494,-9.277,-29.297,-28.320,-24.902,0.000
1714024501.498,-23.926,-40.527,-35.156,-26.855,0.000
1714024501.502,-25.391,-44.922,-26.855,-22.461,0.000
1714024501.506,-19.043,-40.527,-14.160,-18.066,0.000
1714024501.510,-29.297,-30.762,-32.715,-22.949,0.000
1714024501.514,-34.668,-33.203,-39.062,-26.367,0.000
1714024501.518,-27.344,-34.668,-38.574,-32.227,0.000
1714024501.522,-22.461,-25.391,-38.086,-36.621,0.000
1714024501.526,-29.297,-31.738,-30.273,-33.691,0.000
1714024501.530,-35.156,-35.645,-37.109,-30.762,0.000
1714024501.533,-30.273,-32.227,-29.785,-26.855,0.000
1714024501.538,-25.391,-35.645,-19.531,-28.809,0.000
1714024501.542,-33.203,-39.551,-27.832,-35.156,0.000
1714024501.546,-34.180,-35.645,-31.738,-35.156,0.000
1714024501.550,-31.250,-32.227,-28.809,-31.738,0.000
1714024501.554,-28.809,-30.273,-24.902,-28.320,0.000
1714024501.558,-29.297,-26.367,-26.855,-26.855,0.000
1714024501.561,-32.715,-29.297,-27.832,-24.902,0.000
1714024501.565,-29.297,-31.738,-26.367,-22.461,0.000
1714024501.569,-34.180,-37.598,-33.203,-33.691,0.000
1714024501.573,-35.645,-33.203,-30.273,-37.598,0.000
1714024501.577,-35.156,-25.879,-28.320,-31.738,0.000
1714024501.581,-37.598,-33.203,-37.598,-33.691,0.000
1714024501.585,-36.621,-36.621,-43.457,-31.250,0.000
1714024501.589,-33.691,-27.344,-36.621,-30.273,0.000
1714024501.593,-29.297,-22.461,-22.461,-27.344,0.000
1714024501.597,-32.227,-30.762,-19.531,-30.273,0.000
1714024501.601,-31.250,-34.668,-28.809,-31.250,0.000
1714024501.605,-25.391,-38.574,-35.156,-29.785,0.000
1714024501.609,-22.949,-36.621,-24.902,-26.367,0.000
1714024501.613,-26.855,-32.227,-16.602,-30.273,0.000
1714024501.617,-32.227,-35.645,-30.273,-31.738,0.000
1714024501.620,-24.902,-23.438,-34.180,-21.973,0.000
1714024501.624,-18.555,-13.672,-19.043,-30.762,0.000
1714024501.628,-21.484,-19.531,-20.508,-36.133,0.000
1714024501.632,-25.879,-33.203,-31.250,-28.320,0.000
1714024501.636,-29.785,-36.133,-35.645,-31.738,0.000
1714024501.640,-29.297,-29.297,-29.297,-38.086,0.000
1714024501.644,-25.879,-26.855,-19.531,-36.621,0.000
1714024501.648,-26.855,-29.297,-17.090,-29.297,0.000
1714024501.652,-27.344,-25.879,-14.648,-24.902,0.000
1714024501.656,-28.809,-23.926,-20.508,-30.273,0.000
1714024501.660,-34.180,-31.738,-28.809,-41.016,0.000
1714024501.664,-30.762,-32.715,-31.738,-36.621,0.000
1714024501.667,-30.762,-29.785,-29.785,-34.180,0.000
1714024501.671,-29.785,-33.691,-23.438,-43.457,0.000
1714024501.675,-25.391,-34.180,-23.438,-41.504,0.000
1714024501.679,-26.367,-26.855,-24.902,-41.016,0.000
1714024501.683,-27.832,-17.578,-21.484,-40.039,0.000
1714024501.687,-29.297,-23.926,-23.926,-40.039,0.000
1714024501.691,-28.320,-30.273,-28.809,-45.410,0.000
1714024501.695,-23.926,-25.879,-28.320,-41.992,0.000
1714024501.699,-22.949,-27.344,-29.785,-33.691,0.000
1714024501.703,-26.855,-30.762,-23.438,-36.133,0.000
1714024501.707,-20.508,-29.785,-21.484,-37.598,0.000
1714024501.710,-20.508,-24.902,-31.738,-39.062,0.000
1714024501.714,-31.738,-26.367,-36.133,-42.969,0.000
1714024501.718,-25.879,-38.574,-33.203,-35.645,0.000
1714024501.722,-16.113,-32.715,-27.832,-35.645,0.000
1714024501.726,-23.926,-25.391,-23.926,-48.340,0.000
1714024501.730,-23.926,-25.879,-25.879,-40.527,0.000
1714024501.734,-18.066,-25.391,-32.227,-33.203,0.000
1714024501.738,-28.809,-29.785,-29.297,-41.992,0.000
1714024501.742,-35.156,-25.391,-22.949,-41.504,0.000
1714024501.745,-34.180,-21.484,-18.555,-37.109,0.000
1714024501.749,-34.180,-25.879,-22.461,-41.016,0.000
1714024501.753,-34.668,-30.273,-40.039,-36.621,0.000
1714024501.757,-34.180,-21.484,-36.621,-33.691,0.000
1714024501.761,-29.297,-16.113,-30.273,-35.645,0.000
1714024501.765,-31.738,-25.391,-29.785,-28.809,0.000
1714024501.769,-28.320,-20.508,-21.973,-20.020,0.000
1714024501.772,-24.902,-11.719,-15.137,-21.973,0.000
1714024501.776,-22.461,-19.043,-18.066,-31.250,0.000
1714024501.780,-24.414,-26.855,-17.578,-30.762,0.000
1714024501.784,-35.645,-33.691,-17.090,-32.227,0.000
1714024501.788,-36.621,-31.738,-22.949,-38.574,0.000
1714024501.792,-32.715,-25.879,-30.273,-35.645,0.000
1714024501.796,-30.273,-32.715,-31.738,-27.832,0.000
1714024501.800,-37.598,-34.668,-24.414,-31.250,0.000
1714024501.804,-49.316,-27.832,-19.531,-37.109,0.000
1714024501.808,-42.480,-30.273,-16.113,-36.621,0.000
1714024501.812,-38.574,-35.156,-17.578,-34.668,0.000
1714024501.815,-40.527,-29.297,-20.508,-32.227,0.000
1714024501.819,-35.156,-25.879,-16.602,-32.227,0.000
1714024501.823,-30.762,-22.949,-14.648,-29.785,0.000
1714024501.827,-28.320,-18.066,-13.184,-25.879,0.000
1714024501.831,-27.832,-20.996,-12.695,-25.391,0.000
1714024501.834,-32.715,-28.809,-20.996,-31.250,0.000
1714024501.838,-38.574,-46.875,-33.691,-39.551,0.000
1714024501.842,-39.062,-52.246,-35.645,-33.203,0.000
1714024501.846,-36.133,-36.621,-25.879,-23.926,0.000
1714024501.850,-33.691,-24.902,-20.996,-32.227,0.000
1714024501.854,-37.109,-20.996,-16.113,-40.527,0.000
1714024501.858,-43.457,-25.879,-20.508,-49.805,0.000
1714024501.862,-43.457,-36.133,-34.180,-46.875,0.000
1714024501.865,-35.645,-26.855,-31.250,-32.227,0.000
1714024501.869,-33.691,-30.273,-30.273,-35.645,0.000
1714024501.873,-39.551,-39.551,-31.738,-42.969,0.000
1714024501.877,-38.086,-34.668,-27.832,-44.434,0.000
1714024501.881,-32.227,-35.645,-17.090,-42.969,0.000
1714024501.885,-26.367,-30.273,-17.090,-32.715,0.000
1714024501.889,-27.832,-26.855,-25.879,-30.762,0.000
1714024501.892,-31.738,-29.785,-21.484,-35.645,0.000
1714024501.896,-31.250,-27.344,-32.715,-39.551,0.000
1714024501.900,-29.297,-29.785,-46.387,-37.598,0.000
1714024501.904,-28.320,-33.203,-39.062,-35.645,0.000
1714024501.908,-30.762,-27.832,-26.855,-40.039,0.000
1714024501.913,-27.832,-22.461,-24.902,-34.180,0.000
1714024501.916,-20.996,-22.461,-24.414,-24.414,0.000
1714024501.920,-22.461,-26.855,-20.996,-31.250,0.000
1714024501.924,-32.227,-32.715,-36.621,-39.062,0.000
1714024501.928,-38.574,-39.062,-46.387,-37.598,0.000
1714024501.932,-39.551,-40.039,-36.133,-28.809,0.000
1714024501.936,-32.715,-40.039,-33.203,-27.832,0.000
1714024501.940,-22.461,-35.645,-28.809,-31.250,0.000
1714024501.944,-18.555,-24.414,-20.996,-25.391,0.000
1714024501.948,-22.949,-17.090,-20.996,-18.555,0.000
1714024501.952,-22.461,-13.672,-25.391,-20.508,0.000
1714024501.956,-26.367,-26.855,-28.320,-28.320,0.000
1714024501.960,-30.273,-38.574,-30.273,-32.227,0.000
1714024501.964,-20.508,-32.715,-28.320,-32.227,0.000
1714024501.968,-17.090,-29.785,-20.020,-30.762,0.000
1714024501.972,-23.926,-23.438,-15.625,-35.156,0.000
1714024501.975,-19.531,-22.461,-28.809,-31.250,0.000
1714024501.979,-11.719,-23.926,-35.645,-24.414,0.000
1714024501.983,-19.531,-21.973,-26.367,-29.297,0.000
1714024501.987,-23.926,-28.809,-29.297,-38.086,0.000
1714024501.991,-26.367,-31.738,-38.086,-41.504,0.000
1714024501.995,-29.297,-33.203,-36.621,-34.180,0.000
1714024501.999,-21.484,-24.902,-29.297,-27.344,0.000
1714024502.003,-16.113,-19.043,-17.090,-26.367,0.000
1714024502.007,-20.020,-19.043,-16.602,-30.762,0.000
1714024502.011,-21.484,-18.066,-32.227,-32.715,0.000
1714024502.015,-20.020,-18.066,-32.227,-33.691,0.000
1714024502.019,-17.090,-21.484,-25.391,-28.809,0.000
1714024502.023,-15.137,-27.832,-32.227,-20.996,0.000
1714024502.026,-15.625,-26.855,-31.250,-21.973,0.000
1714024502.030,-21.484,-19.531,-21.484,-27.832,0.000
1714024502.034,-27.344,-18.066,-26.367,-32.715,0.000
1714024502.038,-24.414,-27.832,-27.832,-28.320,0.000
1714024502.042,-31.250,-32.715,-26.855,-29.785,0.000
1714024502.046,-44.434,-28.320,-29.785,-48.828,0.000
1714024502.050,-41.992,-27.344,-34.668,-46.387,0.000
1714024502.054,-39.551,-27.344,-32.715,-44.922,0.000
1714024502.058,-39.062,-20.020,-20.020,-52.734,0.000
1714024502.062,-37.109,-23.438,-17.578,-50.781,0.000
1714024502.066,-41.016,-26.855,-22.461,-52.246,0.000
1714024502.069,-48.340,-30.273,-29.785,-58.594,0.000
1714024502.073,-52.246,-34.668,-21.973,-63.965,0.000
1714024502.077,-55.176,-34.180,-10.254,-68.848,0.000
1714024502.081,-55.664,-30.762,-11.719,-71.289,0.000
1714024502.085,-58.105,-28.320,-16.113,-70.312,0.000
1714024502.089,-72.754,-25.879,-12.207,-85.449,0.000
1714024502.093,-84.473,-25.879,-17.090,-100.586,0.000
1714024502.097,-89.355,-21.973,-25.879,-97.656,0.000
1714024502.101,-93.262,-22.461,-18.066,-95.703,0.000
1714024502.104,-94.727,-27.344,-4.883,-100.586,0.000
1714024502.108,-98.145,-29.785,-12.695,-108.887,0.000
1714024502.112,-103.516,-36.621,-33.203,-116.211,0.000
1714024502.116,-103.516,-35.645,-34.668,-120.117,0.000
1714024502.120,-104.492,-27.832,-29.785,-116.211,0.000
1714024502.124,-109.863,-26.855,-29.785,-121.582,0.000
1714024502.128,-115.723,-34.180,-28.809,-129.395,0.000
1714024502.132,-106.934,-31.738,-11.230,-114.746,0.000
1714024502.136,-101.074,-31.738,0.000,-116.699,0.000
1714024502.140,-112.305,-38.574,-11.230,-126.465,0.000
1714024502.144,-109.863,-31.738,-19.043,-118.164,0.000
1714024502.147,-105.469,-32.715,-23.438,-117.676,0.000
1714024502.151,-103.027,-43.457,-18.555,-118.164,0.000
1714024502.155,-90.332,-33.203,-9.766,-102.051,0.000
1714024502.159,-83.984,-29.785,2.441,-91.309,0.000
1714024502.163,-88.867,-37.109,3.906,-90.332,0.000
1714024502.167,-85.938,-37.109,-11.230,-88.379,0.000
1714024502.171,-73.242,-37.598,-12.695,-80.078,0.000
1714024502.174,-74.219,-33.203,-19.531,-74.707,0.000
1714024502.178,-79.102,-37.109,-20.508,-85.449,0.000
1714024502.182,-72.266,-40.527,-9.766,-85.938,0.000
1714024502.186,-72.754,-29.785,-6.836,-76.660,0.000
1714024502.190,-81.055,-27.832,-8.301,-85.938,0.000
1714024502.194,-88.379,-26.855,-16.602,-96.191,0.000
1714024502.197,-84.961,-29.785,-10.254,-88.379,0.000
1714024502.201,-81.055,-38.086,-7.324,-88.867,0.000
1714024502.205,-73.730,-31.738,-7.812,-93.262,0.000
1714024502.209,-76.172,-26.367,-9.766,-95.215,0.000
1714024502.213,-89.844,-29.297,-20.508,-107.910,0.000
1714024502.217,-94.238,-32.715,-23.926,-99.609,0.000
1714024502.221,-91.797,-30.273,-26.855,-87.891,0.000
1714024502.225,-88.867,-20.996,-22.461,-95.215,0.000
1714024502.229,-84.473,-19.531,-12.207,-92.773,0.000
1714024502.233,-68.359,-20.996,-9.766,-84.961,0.000
1714024502.236,-57.617,-19.043,-8.789,-81.543,0.000
1714024502.241,-56.152,-25.391,-4.395,-86.426,0.000
1714024502.245,-45.898,-31.250,-17.090,-81.055,0.000
1714024502.249,-39.551,-31.250,-30.273,-63.965,0.000
1714024502.253,-45.898,-26.855,-30.762,-61.035,0.000
1714024502.257,-48.340,-24.414,-32.227,-65.430,0.000
1714024502.261,-43.945,-29.297,-33.203,-57.617,0.000
1714024502.265,-39.551,-34.668,-40.039,-39.062,0.000
1714024502.269,-43.945,-40.039,-44.434,-34.668,0.000
1714024502.272,-39.062,-34.668,-33.691,-32.227,0.000
1714024502.276,-31.250,-28.320,-29.785,-24.902,0.000
1714024502.280,-24.902,-30.762,-35.645,-18.555,0.000
1714024502.284,-12.207,-26.367,-41.992,-15.625,0.000
1714024502.290,-15.137,-29.785,-48.828,-27.344,0.000
1714024502.294,-16.602,-35.645,-47.852,-28.320,0.000
1714024502.298,-9.277,-34.180,-45.898,-22.461,0.000
1714024502.302,-5.371,-37.109,-38.086,-19.531,0.000
1714024502.306,2.930,-34.668,-29.297,-15.625,0.000
1714024502.310,5.371,-29.297,-45.410,-15.137,0.000
1714024502.314,4.883,-32.715,-55.176,-14.648,0.000
1714024502.317,7.324,-30.273,-49.805,-14.160,0.000
1714024502.321,17.090,-13.184,-41.992,-8.789,0.000
1714024502.325,20.020,-6.348,-36.621,-0.488,0.000
1714024502.329,7.324,-24.414,-42.969,-2.930,0.000
1714024502.333,10.254,-41.992,-39.551,-2.930,0.000
1714024502.337,16.602,-41.504,-36.621,2.441,0.000
1714024502.341,10.254,-35.645,-42.480,-2.930,0.000
1714024502.345,9.766,-35.645,-47.363,-4.395,0.000
1714024502.349,18.555,-27.832,-42.480,6.836,0.000
1714024502.353,22.461,-21.484,-43.457,12.207,0.000
1714024502.357,20.508,-28.320,-51.758,8.789,0.000
1714024502.361,18.066,-32.715,-50.781,6.836,0.000
1714024502.365,19.531,-30.273,-45.898,7.812,0.000
1714024502.368,20.508,-33.691,-36.621,12.695,0.000
1714024502.372,19.531,-35.156,-40.039,8.301,0.000
1714024502.376,18.066,-29.297,-47.852,2.441,0.000
1714024502.380,17.578,-24.902,-44.922,9.766,0.000
1714024502.384,18.555,-29.297,-41.016,22.461,0.000
1714024502.388,15.137,-37.109,-40.039,23.926,0.000
1714024502.392,20.020,-27.832,-34.668,22.461,0.000
1714024502.396,22.949,-27.832,-37.109,17.578,0.000
1714024502.400,18.066,-38.086,-44.922,4.395,0.000
1714024502.404,22.949,-28.320,-37.598,7.324,0.000
1714024502.407,21.973,-19.043,-29.785,9.766,0.000
1714024502.411,17.578,-19.043,-32.715,6.348,0.000
1714024502.415,19.531,-21.484,-40.039,12.695,0.000
1714024502.419,21.484,-22.949,-39.551,18.066,0.000
1714024502.423,25.879,-21.484,-31.250,14.160,0.000
1714024502.427,30.762,-23.438,-31.738,10.254,0.000
1714024502.431,25.391,-24.902,-47.363,9.277,0.000
1714024502.435,22.461,-24.414,-41.992,16.113,0.000
1714024502.438,23.438,-26.855,-27.344,20.020,0.000
1714024502.442,19.043,-24.902,-27.344,11.230,0.000
1714024502.446,21.484,-18.555,-26.855,7.812,0.000
1714024502.450,19.531,-23.438,-32.715,8.789,0.000
1714024502.454,10.742,-32.227,-32.227,2.930,0.000
1714024502.458,9.277,-23.438,-35.156,0.488,0.000
1714024502.462,8.789,-19.043,-38.574,5.859,0.000
1714024502.466,3.418,-27.344,-37.109,0.977,0.000
1714024502.470,3.906,-23.926,-39.062,-2.441,0.000
1714024502.474,5.859,-21.484,-36.133,-2.930,0.000
1714024502.477,6.348,-24.902,-33.203,-4.395,0.000
1714024502.481,6.348,-15.137,-36.133,-2.441,0.000
1714024502.485,1.953,-16.113,-42.480,-0.488,0.000
1714024502.489,0.977,-22.461,-41.992,0.000,0.000
1714024502.493,-0.977,-22.949,-31.250,-7.812,0.000
1714024502.497,-1.465,-26.367,-33.203,-9.766,0.000
1714024502.501,-2.930,-21.973,-37.598,-8.789,0.000
1714024502.505,3.418,-19.043,-36.621,0.977,0.000
1714024502.508,6.348,-15.137,-31.738,1.953,0.000
1714024502.512,-1.465,-13.184,-28.809,-12.695,0.000
1714024502.516,0.000,-7.324,-27.344,-6.836,0.000
1714024502.520,0.000,-3.418,-24.902,-1.465,0.000
1714024502.524,-1.953,-18.555,-32.227,-6.348,0.000
1714024502.527,-6.348,-29.297,-36.133,-12.695,0.000
1714024502.531,-14.648,-29.785,-28.809,-9.277,0.000
1714024502.535,-8.301,-27.344,-24.902,-1.465,0.000
1714024502.539,-2.441,-23.926,-23.926,-5.371,0.000
1714024502.543,-3.418,-18.555,-17.578,-6.348,0.000
1714024502.547,-4.395,-18.066,-25.879,-11.719,0.000
1714024502.551,-10.254,-25.391,-38.574,-11.719,0.000
1714024502.555,-8.789,-26.367,-33.203,-18.555,0.000
1714024502.559,-9.766,-17.578,-27.832,-26.367,0.000
1714024502.563,-9.766,-18.555,-34.180,-21.973,0.000
1714024502.567,-5.859,-22.461,-33.203,-14.160,0.000
1714024502.570,-6.348,-26.367,-17.090,-7.324,0.000
1714024502.574,-7.324,-27.344,-13.184,-9.277,0.000
1714024502.578,-10.254,-23.926,-24.902,-11.719,0.000
1714024502.582,-13.184,-18.555,-29.785,-15.137,0.000
1714024502.585,-15.625,-16.602,-23.438,-19.531,0.000
1714024502.589,-13.184,-17.090,-24.414,-16.113,0.000
1714024502.593,-14.648,-29.297,-30.273,-10.254,0.000
1714024502.597,-13.672,-39.062,-18.555,-9.766,0.000
1714024502.601,-10.254,-21.973,-10.742,-11.230,0.000
1714024502.605,-15.625,-20.020,-18.555,-17.578,0.000
1714024502.609,-20.996,-21.973,-21.973,-28.320,0.000
1714024502.613,-18.066,-15.137,-29.297,-29.297,0.000
1714024502.616,-18.066,-13.184,-28.320,-27.344,0.000
1714024502.620,-18.066,-17.090,-23.926,-30.762,0.000
1714024502.624,-19.043,-25.391,-22.461,-30.273,0.000
1714024502.628,-21.973,-27.344,-18.066,-22.949,0.000
1714024502.632,-27.344,-25.879,-29.297,-24.414,0.000
1714024502.636,-23.438,-29.297,-38.574,-27.344,0.000
1714024502.639,-19.531,-31.250,-37.109,-25.391,0.000
1714024502.643,-18.555,-24.902,-32.715,-24.414,0.000
1714024502.647,-19.043,-20.996,-29.297,-29.297,0.000
1714024502.651,-17.090,-26.855,-28.320,-30.762,0.000
1714024502.655,-7.812,-18.555,-16.602,-18.066,0.000
1714024502.659,-12.207,-17.578,-10.254,-13.184,0.000
1714024502.664,-18.066,-25.879,-33.691,-19.531,0.000
1714024502.667,-11.719,-20.020,-41.504,-21.484,0.000
1714024502.671,-10.742,-20.508,-30.762,-27.832,0.000
1714024502.675,-17.090,-29.785,-25.879,-33.691,0.000
1714024502.679,-18.066,-22.949,-23.438,-30.273,0.000
1714024502.683,-17.090,-14.648,-27.344,-21.484,0.000
1714024502.687,-22.949,-22.949,-28.320,-27.832,0.000
1714024502.691,-20.508,-26.367,-26.367,-38.086,0.000
1714024502.695,-22.949,-27.344,-30.762,-29.785,0.000
1714024502.699,-28.320,-29.785,-37.598,-19.043,0.000
1714024502.703,-23.926,-27.832,-36.621,-23.438,0.000
1714024502.706,-24.414,-22.461,-23.926,-38.574,0.000
1714024502.711,-24.414,-21.973,-16.602,-40.527,0.000
1714024502.715,-20.508,-26.855,-20.020,-39.062,0.000
1714024502.719,-22.461,-38.574,-32.227,-40.039,0.000
1714024502.722,-30.273,-44.922,-46.387,-41.992,0.000
1714024502.726,-29.297,-37.598,-39.551,-46.875,0.000
1714024502.730,-25.391,-33.203,-33.203,-42.969,0.000
1714024502.734,-30.273,-35.156,-34.180,-36.133,0.000
1714024502.738,-22.949,-34.668,-29.785,-39.062,0.000
1714024502.742,-21.484,-32.227,-28.809,-43.457,0.000
1714024502.746,-30.273,-33.203,-35.156,-33.691,0.000
1714024502.750,-28.320,-26.367,-37.109,-33.691,0.000
1714024502.754,-23.438,-27.344,-26.855,-40.527,0.000
1714024502.758,-21.973,-31.738,-22.461,-38.086,0.000
1714024502.762,-27.344,-30.273,-34.668,-43.457,0.000
1714024502.766,-28.809,-34.180,-42.969,-42.480,0.000
1714024502.769,-25.879,-36.133,-41.992,-32.715,0.000
1714024502.773,-20.020,-25.879,-34.668,-30.762,0.000
1714024502.777,-16.602,-19.043,-24.902,-38.574,0.000
1714024502.781,-26.367,-30.762,-29.785,-41.504,0.000
1714024502.785,-24.414,-34.180,-34.668,-32.715,0.000
1714024502.789,-20.020,-32.715,-31.250,-29.297,0.000
1714024502.793,-26.855,-34.668,-30.762,-29.297,0.000
1714024502.797,-27.344,-27.832,-26.367,-31.738,0.000
1714024502.801,-23.926,-21.484,-17.090,-27.344,0.000
1714024502.806,-26.855,-17.090,-8.301,-23.438,0.000
1714024502.810,-29.785,-8.301,-3.418,-35.156,0.000
1714024502.814,-28.809,-8.301,-9.277,-46.387,0.000
1714024502.818,-37.109,-21.484,-20.508,-51.758,0.000
1714024502.822,-47.852,-19.043,-22.949,-62.500,0.000
1714024502.826,-56.641,-19.531,-26.855,-74.707,0.000
1714024502.829,-63.965,-32.715,-24.414,-76.660,0.000
1714024502.833,-66.406,-34.668,-20.508,-74.707,0.000
1714024502.837,-67.383,-34.668,-14.648,-75.195,0.000
1714024502.841,-76.172,-33.203,2.441,-86.426,0.000
1714024502.845,-87.891,-27.832,-11.230,-100.586,0.000
1714024502.849,-105.469,-36.621,-28.320,-108.887,0.000
1714024502.853,-105.469,-44.922,-21.973,-108.398,0.000
1714024502.857,-104.492,-41.504,-10.742,-117.188,0.000
1714024502.860,-119.141,-38.574,-19.043,-130.859,0.000
1714024502.864,-119.629,-36.621,-22.949,-128.906,0.000
1714024502.868,-116.699,-44.434,-2.441,-125.488,0.000
1714024502.872,-121.094,-51.758,0.488,-131.348,0.000
1714024502.876,-129.395,-46.875,-9.277,-136.230,0.000
1714024502.880,-132.324,-43.457,-12.695,-131.836,0.000
1714024502.884,-129.883,-40.527,-16.602,-125.000,0.000
1714024502.888,-122.559,-29.297,-11.230,-120.117,0.000
1714024502.892,-116.699,-27.832,-7.324,-119.141,0.000
1714024502.896,-111.328,-39.062,-9.277,-107.910,0.000
1714024502.899,-103.027,-45.410,-9.766,-99.121,0.000
1714024502.903,-99.609,-51.758,-5.371,-105.469,0.000
1714024502.907,-99.121,-44.922,-14.648,-107.910,0.000
1714024502.911,-95.703,-36.621,-26.367,-102.539,0.000
1714024502.915,-85.938,-34.668,-20.996,-91.309,0.000
1714024502.918,-66.406,-31.250,-17.578,-77.148,0.000
1714024502.922,-57.129,-31.738,-9.277,-73.242,0.000
1714024502.926,-62.012,-37.598,-12.695,-65.918,0.000
1714024502.930,-61.523,-38.086,-29.297,-59.570,0.000
1714024502.934,-53.711,-41.992,-35.645,-62.988,0.000
1714024502.938,-52.246,-44.922,-27.344,-61.523,0.000
1714024502.942,-53.711,-35.645,-21.973,-60.059,0.000
1714024502.945,-59.570,-32.227,-29.785,-63.477,0.000
1714024502.949,-58.594,-35.645,-28.320,-61.035,0.000
1714024502.953,-47.363,-31.250,-22.461,-49.805,0.000
1714024502.957,-52.246,-37.598,-23.438,-52.734,0.000
1714024502.961,-47.852,-42.480,-31.250,-55.664,0.000
1714024502.965,-44.922,-39.551,-41.992,-58.594,0.000
1714024502.969,-48.828,-40.039,-44.922,-49.316,0.000
1714024502.973,-40.527,-37.109,-43.945,-45.410,0.000
1714024502.976,-36.133,-30.762,-34.668,-55.176,0.000
1714024502.980,-33.691,-31.250,-18.066,-50.781,0.000
1714024502.984,-28.809,-24.902,-20.020,-42.969,0.000
1714024502.988,-26.855,-20.996,-32.227,-38.086,0.000
1714024502.991,-29.297,-28.320,-42.480,-39.062,0.000
1714024502.995,-28.320,-37.109,-55.664,-38.574,0.000
1714024502.999,-32.227,-46.875,-57.617,-36.621,0.000
1714024503.003,-32.227,-46.387,-51.270,-27.832,0.000
1714024503.007,-28.809,-44.434,-39.551,-33.203,0.000
1714024503.011,-28.809,-39.062,-29.297,-38.086,0.000
1714024503.015,-20.996,-29.297,-23.438,-15.625,0.000
1714024503.019,-18.066,-15.625,-25.391,-12.207,0.000
1714024503.023,-24.414,-14.160,-35.645,-24.414,0.000
1714024503.027,-26.367,-25.391,-39.551,-29.785,0.000
1714024503.030,-31.250,-30.762,-35.645,-38.086,0.000
1714024503.034,-36.621,-29.297,-28.809,-40.039,0.000
1714024503.039,-37.598,-25.391,-16.602,-44.922,0.000
1714024503.043,-36.133,-24.902,-13.672,-45.898,0.000
1714024503.047,-34.668,-23.926,-15.137,-45.410,0.000
1714024503.051,-32.715,-26.367,-14.648,-54.688,0.000
1714024503.054,-21.973,-21.973,-28.809,-59.082,0.000
1714024503.058,-17.090,-13.184,-32.227,-60.059,0.000
1714024503.062,-18.066,-21.484,-29.785,-58.105,0.000
1714024503.066,-24.414,-27.344,-32.227,-56.152,0.000
1714024503.070,-33.203,-29.785,-32.715,-57.129,0.000
1714024503.074,-34.668,-34.668,-30.273,-49.316,0.000
1714024503.078,-41.992,-34.668,-24.414,-41.016,0.000
1714024503.082,-48.340,-37.109,-30.273,-42.969,0.000
1714024503.086,-36.133,-28.809,-26.855,-34.180,0.000
1714024503.090,-23.926,-17.578,-11.230,-17.578,0.000
1714024503.094,-22.949,-24.902,-19.043,-19.531,0.000
1714024503.098,-19.531,-27.832,-41.016,-21.484,0.000
1714024503.102,-14.160,-33.691,-47.363,-13.672,0.000
1714024503.106,-7.324,-34.668,-40.527,-12.207,0.000
1714024503.110,-1.465,-32.227,-43.457,-20.508,0.000
1714024503.113,-2.441,-33.691,-48.828,-20.996,0.000
1714024503.117,-4.395,-34.180,-45.898,-3.418,0.000
1714024503.121,5.859,-29.785,-37.109,8.301,0.000
1714024503.125,9.277,-22.949,-30.273,-3.906,0.000
1714024503.129,2.441,-30.762,-32.715,-8.301,0.000
1714024503.133,5.371,-32.715,-46.875,-0.488,0.000
1714024503.137,8.301,-27.832,-53.223,-0.488,0.000
1714024503.141,3.906,-22.461,-46.387,-4.395,0.000
1714024503.145,14.160,-19.043,-37.109,7.812,0.000
1714024503.149,24.414,-18.555,-24.902,14.648,0.000
1714024503.153,16.602,-12.207,-27.832,9.277,0.000
1714024503.157,1.465,-19.531,-39.551,3.418,0.000
1714024503.160,-4.395,-30.762,-39.551,-4.395,0.000
1714024503.164,-11.230,-28.809,-38.086,-12.207,0.000
1714024503.168,-15.625,-28.320,-32.227,-12.207,0.000
1714024503.172,-29.297,-28.320,-26.367,-37.598,0.000
1714024503.176,-61.035,-29.297,-27.832,-74.707,0.000
1714024503.180,-81.055,-33.203,-22.949,-84.473,0.000
1714024503.184,-95.703,-34.180,-14.160,-88.867,0.000
1714024503.188,-108.398,-30.762,-10.742,-105.469,0.000
1714024503.192,-117.676,-26.855,-22.461,-124.512,0.000
1714024503.195,-122.559,-27.344,-21.973,-127.930,0.000
1714024503.199,-123.047,-25.879,-13.672,-122.070,0.000
1714024503.203,-113.770,-16.113,-9.766,-116.699,0.000
1714024503.207,-103.027,-20.996,-9.277,-112.793,0.000
1714024503.211,-105.957,-33.203,-11.719,-113.281,0.000
1714024503.215,-98.633,-21.973,5.371,-104.004,0.000
1714024503.219,-83.008,-24.414,17.090,-92.773,0.000
1714024503.223,-81.543,-35.156,-0.488,-94.238,0.000
1714024503.226,-76.660,-33.691,-14.160,-92.773,0.000
1714024503.230,-69.824,-32.715,-12.207,-82.520,0.000
1714024503.234,-64.453,-26.855,-15.625,-68.848,0.000
1714024503.238,-43.945,-16.602,-18.555,-50.781,0.000
1714024503.242,-23.438,-16.602,-18.066,-40.039,0.000
1714024503.246,-23.438,-26.855,-24.414,-43.945,0.000
1714024503.250,-15.137,-29.297,-20.996,-39.062,0.000
1714024503.254,0.000,-30.762,-15.625,-16.602,0.000
1714024503.258,-4.395,-35.156,-24.902,-14.648,0.000
1714024503.262,-1.953,-37.598,-25.391,-22.949,0.000
1714024503.266,9.277,-38.086,-21.484,-15.137,0.000
1714024503.269,16.602,-35.156,-26.855,-4.883,0.000
1714024503.273,21.484,-36.133,-29.297,1.465,0.000
1714024503.277,26.855,-35.156,-23.438,6.836,0.000
1714024503.281,31.250,-36.133,-25.879,22.461,0.000
1714024503.285,26.367,-39.551,-35.156,22.461,0.000
1714024503.289,22.461,-31.250,-37.598,15.625,0.000
1714024503.293,17.578,-27.832,-36.621,13.184,0.000
1714024503.296,16.113,-29.785,-25.879,19.043,0.000
1714024503.300,19.531,-19.531,-23.926,29.297,0.000
1714024503.304,16.113,-27.832,-39.062,20.508,0.000
1714024503.308,16.602,-36.133,-47.852,13.672,0.000
1714024503.312,22.949,-17.090,-39.062,23.438,0.000
1714024503.316,21.484,-20.020,-33.691,24.902,0.000
1714024503.319,19.531,-28.320,-42.480,22.949,0.000
1714024503.323,26.855,-17.090,-41.992,28.809,0.000
1714024503.327,30.273,-18.555,-41.504,27.832,0.000
1714024503.331,27.344,-23.438,-37.109,28.320,0.000
1714024503.335,25.391,-12.695,-26.367,31.250,0.000
1714024503.339,32.227,-2.441,-33.203,22.949,0.000
1714024503.343,35.156,-12.695,-46.875,24.414,0.000
1714024503.347,28.320,-16.602,-41.992,31.738,0.000
1714024503.351,24.902,-16.113,-41.992,20.996,0.000
1714024503.354,22.461,-25.879,-50.781,16.113,0.000
1714024503.358,14.160,-22.949,-42.969,15.625,0.000
1714024503.362,13.184,-18.555,-35.645,20.020,0.000
1714024503.366,17.090,-22.461,-32.715,20.508,0.000
1714024503.369,16.113,-20.508,-22.949,12.695,0.000
1714024503.373,15.625,-13.184,-33.203,6.348,0.000
1714024503.377,16.113,-6.348,-37.109,3.906,0.000
1714024503.381,17.578,-10.254,-34.180,5.371,0.000
1714024503.385,17.578,-19.531,-43.457,4.883,0.000
1714024503.389,14.160,-16.602,-40.039,13.184,0.000
1714024503.393,6.836,-16.602,-37.109,9.277,0.000
1714024503.397,9.277,-19.531,-34.668,2.441,0.000
1714024503.401,20.020,-15.625,-24.414,12.695,0.000
1714024503.405,15.137,-20.996,-20.996,13.672,0.000
1714024503.408,5.859,-20.508,-29.785,4.883,0.000
1714024503.412,-2.441,-18.066,-41.504,1.953,0.000
1714024503.415,-6.836,-21.484,-41.504,2.930,0.000
1714024503.419,-3.906,-18.555,-26.855,6.348,0.000
1714024503.423,-10.742,-23.438,-21.973,-3.906,0.000
1714024503.427,-14.648,-28.809,-36.621,-15.137,0.000
1714024503.431,-5.371,-16.113,-34.180,-2.441,0.000
1714024503.435,1.953,-7.812,-28.320,-0.488,0.000
1714024503.439,-0.488,-17.578,-37.598,-8.789,0.000
1714024503.443,-1.465,-13.672,-42.969,-6.348,0.000
1714024503.447,3.906,-5.859,-35.156,0.488,0.000
1714024503.451,4.395,-9.277,-17.090,-1.465,0.000
1714024503.455,-0.977,-12.695,-18.555,-14.160,0.000
1714024503.459,-0.488,-13.184,-20.996,-12.207,0.000
1714024503.463,-6.348,-18.555,-17.578,-15.625,0.000
1714024503.467,-14.648,-18.555,-31.738,-16.602,0.000
1714024503.471,-16.113,-20.996,-42.969,-21.973,0.000
1714024503.475,-15.137,-20.020,-39.062,-26.855,0.000
1714024503.478,-14.160,-20.508,-31.250,-12.695,0.000
1714024503.482,-14.648,-22.461,-23.438,-12.695,0.000
1714024503.486,-21.484,-22.949,-20.996,-22.461,0.000
1714024503.490,-18.555,-28.320,-29.297,-20.020,0.000
1714024503.494,-18.555,-27.832,-31.250,-17.578,0.000
1714024503.498,-24.902,-23.926,-22.949,-21.973,0.000
1714024503.502,-15.625,-31.250,-26.367,-17.578,0.000
1714024503.506,-6.348,-27.832,-26.367,-11.230,0.000
1714024503.510,-12.207,-19.531,-18.555,-17.578,0.000
1714024503.514,-15.625,-24.414,-22.461,-24.902,0.000
1714024503.518,-12.695,-8.789,-23.926,-24.902,0.000
1714024503.522,-16.113,-13.184,-24.902,-28.320,0.000
1714024503.526,-18.066,-32.227,-26.855,-32.715,0.000
1714024503.530,-16.602,-31.738,-27.344,-22.461,0.000
1714024503.533,-18.066,-26.367,-23.926,-20.020,0.000
1714024503.537,-17.090,-27.344,-23.926,-21.484,0.000
1714024503.541,-26.367,-30.762,-32.715,-26.855,0.000
1714024503.545,-33.691,-32.227,-38.086,-35.645,0.000
1714024503.549,-25.879,-31.250,-30.273,-31.250,0.000
1714024503.553,-27.832,-36.133,-22.461,-34.180,0.000
1714024503.557,-21.973,-22.949,-28.320,-32.715,0.000
1714024503.561,-11.230,-8.301,-23.438,-26.855,0.000
1714024503.565,-14.648,-23.438,-17.090,-27.344,0.000
1714024503.569,-20.508,-32.227,-22.461,-32.227,0.000
1714024503.573,-16.602,-29.297,-24.902,-35.156,0.000
1714024503.576,-11.230,-27.832,-21.973,-29.785,0.000
1714024503.580,-19.043,-28.809,-17.578,-21.973,0.000
1714024503.584,-21.484,-28.809,-14.648,-20.996,0.000
1714024503.588,-12.695,-22.461,-16.602,-23.926,0.000
1714024503.592,-11.719,-21.484,-20.508,-25.879,0.000
1714024503.596,-12.695,-26.855,-19.043,-20.020,0.000
1714024503.600,-11.230,-17.578,-20.508,-18.066,0.000
1714024503.604,-16.113,-23.926,-23.926,-29.297,0.000
1714024503.608,-21.973,-36.621,-25.391,-34.668,0.000
1714024503.612,-24.902,-32.715,-22.949,-28.320,0.000
1714024503.615,-22.949,-24.902,-19.043,-23.438,0.000
1714024503.619,-22.949,-22.949,-11.230,-23.926,0.000
1714024503.623,-24.414,-24.414,-12.695,-30.762,0.000
1714024503.627,-27.832,-30.273,-32.227,-25.879,0.000
1714024503.631,-32.227,-32.715,-37.109,-19.043,0.000
1714024503.635,-29.297,-25.879,-30.762,-24.902,0.000
1714024503.639,-25.879,-25.391,-24.902,-30.273,0.000
1714024503.643,-27.344,-28.809,-17.090,-32.715,0.000
1714024503.646,-33.203,-33.691,-23.438,-37.598,0.000
1714024503.650,-28.809,-30.762,-25.391,-34.668,0.000
1714024503.654,-26.367,-23.926,-19.043,-33.691,0.000
1714024503.658,-30.762,-21.973,-23.438,-39.551,0.000
1714024503.662,-31.738,-26.367,-30.273,-38.574,0.000
1714024503.666,-34.668,-31.738,-30.273,-26.855,0.000
1714024503.670,-38.086,-43.457,-26.855,-25.391,0.000
1714024503.674,-35.156,-44.434,-26.855,-25.391,0.000
1714024503.678,-31.250,-28.320,-20.020,-22.949,0.000
1714024503.682,-31.738,-25.879,-20.020,-30.273,0.000
1714024503.685,-30.273,-25.879,-24.902,-29.785,0.000
1714024503.689,-28.320,-25.879,-23.438,-33.203,0.000
1714024503.693,-31.738,-22.461,-32.715,-37.598,0.000
1714024503.697,-29.785,-19.043,-35.645,-31.738,0.000
1714024503.701,-18.555,-25.879,-30.762,-23.926,0.000
1714024503.705,-12.695,-25.879,-15.625,-20.996,0.000
1714024503.709,-19.531,-31.250,-1.953,-27.832,0.000
1714024503.712,-24.414,-42.969,-20.508,-29.297,0.000
1714024503.716,-24.902,-36.621,-38.574,-19.043,0.000
1714024503.720,-28.809,-30.273,-30.273,-26.855,0.000
1714024503.724,-26.367,-29.297,-21.484,-35.156,0.000
1714024503.728,-23.438,-23.926,-27.344,-24.902,0.000
1714024503.732,-23.438,-26.367,-30.762,-28.320,0.000
1714024503.736,-23.438,-31.250,-31.250,-31.250,0.000
1714024503.739,-24.902,-31.738,-33.203,-34.668,0.000
1714024503.743,-19.043,-27.832,-23.438,-29.297,0.000
1714024503.747,-21.484,-29.785,-18.555,-24.902,0.000
1714024503.751,-22.949,-28.320,-28.320,-29.785,0.000
1714024503.755,-17.090,-25.879,-29.297,-30.273,0.000
1714024503.759,-12.695,-31.250,-27.344,-27.344,0.000
1714024503.763,-9.766,-32.227,-23.438,-23.926,0.000
1714024503.767,-13.184,-27.344,-20.996,-28.809,0.000
1714024503.770,-16.113,-17.090,-30.762,-33.203,0.000
1714024503.774,-18.066,-19.043,-28.809,-33.203,0.000
1714024503.778,-23.438,-32.715,-23.926,-29.297,0.000
1714024503.782,-25.391,-40.039,-33.691,-25.879,0.000
1714024503.785,-28.320,-41.992,-39.551,-31.738,0.000
1714024503.789,-26.855,-38.086,-36.621,-30.273,0.000
1714024503.793,-24.414,-32.227,-28.320,-25.391,0.000
1714024503.797,-29.297,-26.855,-21.484,-28.320,0.000
1714024503.801,-29.297,-22.461,-32.227,-24.902,0.000
1714024503.805,-25.879,-23.438,-27.832,-23.438,0.000
1714024503.809,-22.461,-20.508,-20.508,-25.879,0.000
1714024503.813,-28.809,-17.090,-30.273,-27.832,0.000
1714024503.817,-23.438,-26.367,-38.574,-25.391,0.000
1714024503.821,-9.766,-28.320,-39.062,-15.137,0.000
1714024503.825,-18.555,-19.043,-29.785,-26.855,0.000
1714024503.828,-22.949,-13.184,-26.855,-33.203,0.000
1714024503.833,-18.066,-13.672,-23.438,-24.414,0.000
1714024503.837,-19.531,-15.625,-25.391,-27.344,0.000
1714024503.841,-20.508,-17.090,-29.785,-27.344,0.000
1714024503.845,-21.484,-17.578,-34.668,-29.785,0.000
1714024503.849,-20.020,-17.578,-43.457,-28.320,0.000
1714024503.852,-14.648,-24.414,-35.156,-17.090,0.000
1714024503.856,-18.066,-31.250,-19.043,-19.043,0.000
1714024503.860,-24.414,-24.902,-18.555,-25.879,0.000
1714024503.864,-20.020,-10.742,-18.555,-18.555,0.000
1714024503.868,-23.926,-11.719,-23.438,-22.949,0.000
1714024503.872,-26.855,-19.043,-32.227,-28.809,0.000
1714024503.876,-22.949,-16.602,-41.016,-25.391,0.000
1714024503.880,-15.625,-18.555,-44.922,-25.879,0.000
1714024503.884,-5.859,-19.043,-32.227,-23.438,0.000
1714024503.888,-1.953,-19.043,-22.461,-31.250,0.000
1714024503.892,-10.742,-27.344,-30.273,-48.340,0.000
1714024503.896,-14.648,-29.297,-40.039,-46.875,0.000
1714024503.900,-7.812,-27.832,-42.969,-33.203,0.000
1714024503.904,-1.953,-25.879,-42.480,-36.621,0.000
1714024503.908,-5.371,-25.391,-37.109,-42.480,0.000
1714024503.911,-14.648,-25.879,-36.621,-26.367,0.000
1714024503.915,-15.137,-20.020,-31.250,-11.230,0.000
1714024503.919,-19.531,-25.879,-17.090,-13.184,0.000
1714024503.923,-33.203,-39.062,-15.625,-28.320,0.000
1714024503.927,-34.180,-41.016,-26.367,-35.156,0.000
1714024503.931,-34.180,-34.668,-36.133,-26.855,0.000
1714024503.935,-36.621,-29.785,-32.227,-28.809,0.000
1714024503.939,-27.344,-19.531,-24.902,-24.902,0.000
1714024503.943,-26.367,-20.020,-21.484,-18.066,0.000
1714024503.947,-37.109,-29.297,-25.879,-24.414,0.000
1714024503.951,-39.062,-34.668,-28.809,-35.645,0.000
1714024503.955,-34.180,-28.809,-20.996,-40.527,0.000
1714024503.959,-31.738,-25.391,-17.578,-32.227,0.000
1714024503.963,-31.250,-24.902,-20.508,-25.391,0.000
1714024503.966,-34.668,-21.484,-22.949,-24.902,0.000
1714024503.970,-32.715,-26.855,-21.484,-26.855,0.000
1714024503.974,-27.344,-32.227,-20.996,-26.367,0.000
1714024503.978,-34.668,-30.273,-26.367,-26.855,0.000
1714024503.982,-33.691,-22.461,-25.879,-30.273,0.000
1714024503.986,-27.344,-22.461,-17.090,-35.645,0.000
1714024503.990,-26.367,-28.809,-11.230,-36.621,0.000
1714024503.994,-29.297,-27.832,-19.531,-35.645,0.000
1714024503.998,-29.785,-28.809,-27.344,-34.180,0.000
1714024504.002,-28.320,-35.645,-24.902,-25.879,0.000
1714024504.005,-27.344,-32.715,-23.438,-21.973,0.000
1714024504.009,-27.344,-24.414,-24.414,-26.367,0.000
1714024504.013,-26.367,-16.602,-23.926,-23.438,0.000
1714024504.017,-29.297,-15.625,-26.367,-25.879,0.000
1714024504.021,-24.902,-14.160,-20.020,-27.832,0.000
1714024504.025,-24.902,-19.531,-20.508,-32.227,0.000
1714024504.029,-31.250,-28.809,-29.785,-36.133,0.000
1714024504.033,-27.344,-30.273,-23.438,-30.273,0.000
1714024504.036,-25.391,-26.367,-20.996,-30.762,0.000
1714024504.040,-30.273,-22.949,-23.926,-36.133,0.000
1714024504.044,-30.762,-25.879,-21.973,-30.273,0.000
1714024504.048,-31.250,-27.344,-22.461,-20.996,0.000
1714024504.052,-36.133,-24.902,-19.531,-22.949,0.000
1714024504.056,-34.668,-28.809,-20.996,-26.855,0.000
1714024504.060,-36.133,-28.320,-26.367,-30.762,0.000
1714024504.064,-39.551,-27.832,-28.320,-31.250,0.000
1714024504.067,-34.180,-29.785,-26.855,-36.621,0.000
1714024504.071,-29.297,-21.973,-18.555,-36.621,0.000
1714024504.075,-29.785,-20.020,-23.438,-30.273,0.000
1714024504.079,-25.391,-25.391,-22.461,-24.902,0.000
1714024504.083,-20.508,-24.902,-12.207,-28.809,0.000
1714024504.087,-27.832,-20.996,-23.926,-37.109,0.000
1714024504.091,-33.203,-20.020,-31.250,-31.250,0.000
1714024504.095,-30.762,-16.113,-24.902,-26.367,0.000
1714024504.099,-32.227,-17.090,-20.996,-32.715,0.000
1714024504.103,-27.344,-22.461,-22.461,-31.738,0.000
1714024504.106,-20.996,-16.113,-15.625,-27.344,0.000
1714024504.110,-19.043,-19.043,-1.465,-25.879,0.000
1714024504.114,-19.043,-30.762,-2.441,-34.180,0.000
1714024504.118,-21.484,-28.809,-24.414,-33.691,0.000
1714024504.122,-23.926,-22.949,-33.691,-28.320,0.000
1714024504.126,-22.949,-22.949,-28.809,-36.133,0.000
1714024504.129,-15.137,-19.531,-25.879,-33.691,0.000
1714024504.133,-15.625,-12.695,-25.879,-27.832,0.000
1714024504.137,-23.438,-16.602,-24.414,-23.438,0.000
1714024504.141,-17.578,-19.043,-6.348,-18.555,0.000
1714024504.145,-16.602,-16.602,0.488,-20.020,0.000
1714024504.149,-26.855,-21.484,-24.902,-24.902,0.000
1714024504.153,-24.902,-23.438,-32.227,-29.785,0.000
1714024504.157,-24.414,-20.508,-26.855,-28.809,0.000
1714024504.160,-32.227,-16.602,-25.391,-35.156,0.000
1714024504.164,-34.180,-14.648,-19.043,-40.527,0.000
1714024504.168,-28.809,-23.438,-15.625,-36.133,0.000
1714024504.172,-21.484,-21.484,-16.602,-39.062,0.000
1714024504.176,-25.391,-20.996,-26.855,-38.574,0.000
1714024504.180,-29.785,-28.320,-40.039,-33.203,0.000
1714024504.184,-17.090,-26.367,-29.785,-27.832,0.000
1714024504.187,-14.648,-20.020,-14.648,-28.809,0.000
1714024504.191,-32.715,-19.531,-19.043,-41.016,0.000
1714024504.195,-33.691,-21.973,-24.902,-39.062,0.000
1714024504.199,-31.250,-20.996,-10.254,-32.715,0.000
1714024504.203,-40.527,-20.508,3.418,-42.969,0.000
1714024504.208,-44.434,-27.344,-7.812,-47.363,0.000
1714024504.211,-54.199,-33.203,-13.672,-50.781,0.000
1714024504.215,-62.988,-37.598,-18.066,-56.152,0.000
1714024504.219,-65.430,-41.504,-17.090,-61.035,0.000
1714024504.223,-73.730,-37.109,-6.836,-73.242,0.000
1714024504.227,-83.496,-36.621,-4.883,-84.473,0.000
1714024504.231,-85.449,-42.480,-9.766,-83.496,0.000
1714024504.235,-89.844,-42.480,-0.488,-87.891,0.000
1714024504.239,-100.586,-41.992,-2.930,-97.168,0.000
1714024504.243,-98.633,-42.969,-5.859,-95.215,0.000
1714024504.247,-104.980,-38.086,6.836,-108.887,0.000
1714024504.250,-120.117,-39.062,17.578,-114.258,0.000
1714024504.255,-123.535,-38.574,14.648,-106.934,0.000
1714024504.259,-136.719,-39.551,12.207,-121.094,0.000
1714024504.263,-139.648,-43.945,21.973,-125.488,0.000
1714024504.267,-127.441,-43.457,18.066,-115.723,0.000
1714024504.271,-137.207,-50.293,9.277,-133.301,0.000
1714024504.274,-147.949,-54.688,4.395,-151.855,0.000
1714024504.278,-134.277,-51.270,2.930,-143.066,0.000
1714024504.282,-130.371,-56.641,8.301,-132.324,0.000
1714024504.286,-138.672,-51.758,11.230,-128.906,0.000
1714024504.290,-137.207,-44.922,15.137,-125.977,0.000
1714024504.294,-125.488,-42.969,26.855,-124.512,0.000
1714024504.298,-125.488,-35.156,20.508,-125.488,0.000
1714024504.302,-126.465,-27.832,16.602,-121.094,0.000
1714024504.306,-114.746,-33.203,15.137,-117.188,0.000
1714024504.310,-110.840,-37.109,13.672,-117.676,0.000
1714024504.314,-116.699,-36.621,9.277,-117.188,0.000
1714024504.318,-109.375,-43.457,1.953,-112.305,0.000
1714024504.322,-91.309,-42.480,7.324,-96.680,0.000
1714024504.325,-88.867,-38.086,11.230,-92.285,0.000
1714024504.329,-98.633,-38.574,6.348,-96.191,0.000
1714024504.333,-89.844,-39.551,-0.488,-89.844,0.000
1714024504.337,-76.172,-32.227,5.371,-75.195,0.000
1714024504.341,-69.824,-29.785,-3.906,-74.707,0.000
1714024504.345,-67.871,-41.992,-21.973,-76.172,0.000
1714024504.349,-56.152,-36.133,-6.348,-73.730,0.000
1714024504.353,-55.664,-29.785,-1.953,-77.637,0.000
1714024504.357,-62.012,-33.691,-18.555,-76.172,0.000
1714024504.361,-52.246,-29.297,-18.066,-59.570,0.000
1714024504.365,-49.316,-30.762,-13.184,-53.711,0.000
1714024504.368,-44.434,-26.367,-6.348,-54.199,0.000
1714024504.372,-41.016,-20.508,-4.395,-54.199,0.000
1714024504.376,-47.852,-27.344,-24.902,-57.617,0.000
1714024504.380,-45.898,-26.367,-34.668,-50.781,0.000
1714024504.384,-41.504,-20.020,-27.832,-56.152,0.000
1714024504.388,-44.922,-25.879,-29.297,-72.266,0.000
1714024504.392,-51.270,-32.227,-35.645,-76.172,0.000
1714024504.396,-55.176,-29.785,-32.227,-70.312,0.000
1714024504.400,-50.781,-21.973,-18.555,-69.824,0.000
1714024504.403,-49.316,-17.090,-17.578,-72.266,0.000
1714024504.407,-62.012,-26.855,-25.391,-83.008,0.000
1714024504.411,-70.312,-26.367,-30.273,-91.797,0.000
1714024504.415,-62.012,-16.113,-24.414,-81.055,0.000
1714024504.419,-62.500,-11.230,-20.508,-74.219,0.000
1714024504.423,-68.848,-20.508,-15.625,-67.383,0.000
1714024504.427,-65.430,-24.902,-19.043,-62.988,0.000
1714024504.431,-64.941,-24.414,-35.645,-72.266,0.000
1714024504.435,-69.336,-32.227,-35.645,-77.148,0.000
1714024504.439,-67.871,-30.273,-37.109,-78.613,0.000
1714024504.442,-56.641,-21.484,-32.715,-73.242,0.000
1714024504.446,-60.059,-24.414,-34.180,-75.195,0.000
1714024504.450,-61.523,-24.414,-40.039,-72.754,0.000
1714024504.454,-49.316,-18.555,-38.086,-64.453,0.000
1714024504.458,-37.109,-19.531,-34.668,-56.152,0.000
1714024504.462,-32.227,-20.996,-20.996,-45.410,0.000
1714024504.466,-37.109,-14.648,-30.273,-43.457,0.000
1714024504.470,-35.645,-16.602,-39.551,-39.551,0.000
1714024504.473,-27.344,-22.949,-41.016,-32.715,0.000
1714024504.477,-13.184,-25.391,-46.875,-21.973,0.000
1714024504.481,-6.348,-24.414,-44.434,-14.160,0.000
1714024504.485,-10.742,-20.020,-46.875,-16.113,0.000
1714024504.489,-7.812,-13.672,-48.340,-25.879,0.000
1714024504.493,-2.930,-13.184,-29.785,-20.508,0.000
1714024504.496,-7.324,-21.973,-21.484,-6.836,0.000
1714024504.500,-6.348,-27.832,-36.621,-7.324,0.000
1714024504.504,-3.418,-29.297,-57.617,-8.789,0.000
1714024504.508,1.953,-30.762,-63.965,0.977,0.000
1714024504.512,6.836,-29.297,-57.129,13.672,0.000
1714024504.516,2.930,-26.855,-55.176,12.207,0.000
1714024504.520,10.254,-26.367,-47.852,8.789,0.000
1714024504.524,15.137,-27.344,-45.898,8.301,0.000
1714024504.528,8.301,-29.785,-47.852,5.371,0.000
1714024504.532,9.766,-25.879,-50.781,3.418,0.000
1714024504.535,19.531,-14.160,-49.805,9.277,0.000
1714024504.539,19.531,-12.695,-53.711,13.184,0.000
1714024504.543,14.648,-24.414,-66.895,8.301,0.000
1714024504.547,14.648,-31.738,-60.059,4.883,0.000
1714024504.551,19.531,-22.949,-48.828,8.301,0.000
1714024504.554,21.973,-22.949,-56.152,13.184,0.000
1714024504.558,18.066,-23.926,-61.035,13.672,0.000
1714024504.562,14.160,-13.184,-48.340,13.184,0.000
1714024504.566,19.531,-16.602,-44.922,15.625,0.000
1714024504.570,24.902,-20.996,-60.547,17.090,0.000
1714024504.574,26.367,-20.508,-65.430,14.648,0.000
1714024504.578,27.832,-29.785,-58.105,10.742,0.000
1714024504.582,25.391,-33.203,-55.176,14.648,0.000
1714024504.586,23.926,-25.391,-53.223,15.625,0.000
1714024504.590,32.715,-20.508,-49.316,16.602,0.000
1714024504.594,34.180,-22.949,-44.922,20.508,0.000
1714024504.598,28.809,-24.414,-52.734,12.207,0.000
1714024504.602,23.438,-25.879,-62.988,9.277,0.000
1714024504.606,17.090,-21.484,-62.012,10.254,0.000
1714024504.610,23.438,-11.230,-57.617,3.906,0.000
1714024504.614,21.973,-13.184,-59.082,7.324,0.000
1714024504.618,22.461,-19.531,-58.105,16.602,0.000
1714024504.622,22.949,-21.973,-50.293,13.184,0.000
1714024504.625,16.602,-26.855,-54.688,8.789,0.000
1714024504.630,17.578,-22.949,-61.523,14.160,0.000
1714024504.634,20.996,-17.090,-52.734,15.137,0.000
1714024504.638,26.855,-16.602,-47.363,13.672,0.000
1714024504.642,25.391,-30.273,-43.945,12.207,0.000
1714024504.646,17.090,-31.250,-40.527,7.812,0.000
1714024504.649,9.766,-24.414,-44.922,12.695,0.000
1714024504.653,9.766,-23.438,-54.199,6.836,0.000
1714024504.657,9.766,-24.902,-55.176,-1.465,0.000
1714024504.661,8.301,-26.855,-43.457,7.812,0.000
1714024504.665,6.348,-27.832,-42.480,7.812,0.000
1714024504.669,5.371,-21.973,-45.410,-2.930,0.000
1714024504.673,10.254,-17.578,-41.016,3.906,0.000
1714024504.677,3.906,-28.320,-37.598,8.789,0.000
1714024504.681,2.441,-25.879,-37.598,6.836,0.000
1714024504.685,12.207,-12.207,-41.016,3.906,0.000
1714024504.689,8.789,-13.184,-41.504,-3.906,0.000
1714024504.693,3.418,-22.461,-41.016,-5.859,0.000
1714024504.696,7.812,-20.020,-42.969,0.977,0.000
1714024504.700,14.160,-14.648,-52.246,1.465,0.000
1714024504.704,17.090,-11.719,-51.270,2.441,0.000
1714024504.708,15.137,-9.766,-40.527,8.301,0.000
1714024504.712,12.207,-10.254,-31.738,5.859,0.000
1714024504.716,12.207,-20.508,-32.715,-0.977,0.000
1714024504.720,13.672,-24.902,-45.898,-8.301,0.000
1714024504.725,16.113,-22.461,-43.457,-9.277,0.000
1714024504.729,10.254,-22.949,-33.691,-3.906,0.000
1714024504.733,-1.953,-24.414,-42.480,-5.371,0.000
1714024504.737,-6.348,-28.809,-55.664,-9.766,0.000
1714024504.741,-9.766,-20.508,-57.617,-14.648,0.000
1714024504.745,-8.301,-13.184,-40.527,-8.789,0.000
1714024504.749,-9.277,-15.625,-29.297,-4.395,0.000
1714024504.753,-13.184,-16.113,-34.180,-5.371,0.000
1714024504.757,-10.254,-14.648,-27.344,-2.930,0.000
1714024504.760,-12.207,-17.578,-23.438,-12.695,0.000
1714024504.764,-15.625,-27.344,-29.297,-17.090,0.000
1714024504.768,-18.555,-30.273,-38.574,-16.113,0.000
1714024504.772,-21.484,-20.996,-42.969,-22.461,0.000
1714024504.776,-20.020,-15.625,-33.691,-27.832,0.000
1714024504.780,-17.090,-11.230,-30.762,-24.414,0.000
1714024504.784,-16.602,-14.648,-34.668,-21.973,0.000
1714024504.788,-20.508,-24.902,-32.227,-23.438,0.000
1714024504.791,-17.578,-25.879,-26.367,-23.438,0.000
1714024504.795,-17.578,-26.367,-35.156,-24.414,0.000
1714024504.799,-23.438,-29.297,-43.945,-22.949,0.000
1714024504.803,-20.020,-20.508,-35.156,-22.949,0.000
1714024504.807,-17.090,-21.484,-28.320,-18.555,0.000
1714024504.811,-14.648,-23.438,-31.250,-19.043,0.000
1714024504.815,-19.531,-21.484,-34.668,-20.996,0.000
1714024504.818,-23.438,-26.855,-25.391,-20.020,0.000
1714024504.822,-14.160,-17.090,-14.160,-12.695,0.000
1714024504.826,-15.137,-22.461,-20.508,-12.695,0.000
1714024504.830,-21.973,-33.691,-29.297,-21.484,0.000
1714024504.834,-13.672,-18.555,-23.926,-14.648,0.000
1714024504.838,-15.625,-12.207,-23.926,-16.602,0.000
1714024504.842,-20.020,-28.809,-33.203,-22.949,0.000
1714024504.846,-18.066,-31.250,-33.203,-17.578,0.000
1714024504.850,-17.578,-20.996,-26.367,-19.531,0.000
1714024504.853,-19.531,-15.137,-16.602,-19.531,0.000
1714024504.857,-22.461,-18.066,-13.184,-15.625,0.000
1714024504.861,-23.438,-24.902,-24.414,-18.066,0.000
1714024504.865,-21.973,-32.227,-33.691,-26.367,0.000
1714024504.869,-21.973,-34.668,-29.297,-24.414,0.000
1714024504.873,-19.531,-23.926,-13.184,-23.926,0.000
1714024504.876,-18.555,-16.602,-18.555,-27.832,0.000
1714024504.880,-24.902,-24.902,-26.367,-27.344,0.000
1714024504.884,-21.484,-25.391,-14.648,-27.832,0.000
1714024504.888,-15.137,-16.113,-15.625,-26.855,0.000
1714024504.892,-23.926,-22.949,-25.879,-30.762,0.000
1714024504.896,-28.809,-34.180,-28.809,-32.715,0.000
1714024504.900,-30.273,-35.645,-29.785,-26.855,0.000
1714024504.904,-29.785,-28.809,-29.297,-30.273,0.000
1714024504.908,-27.344,-19.531,-22.461,-35.156,0.000
1714024504.912,-22.461,-11.719,-10.742,-27.344,0.000
1714024504.916,-12.207,-12.695,-4.883,-19.531,0.000
1714024504.920,-9.277,-10.254,-12.695,-32.227,0.000
1714024504.924,-19.531,-13.672,-23.926,-44.922,0.000
1714024504.928,-23.438,-29.785,-27.344,-29.785,0.000
1714024504.932,-22.949,-38.574,-23.926,-21.484,0.000
1714024504.936,-23.438,-34.668,-18.555,-22.461,0.000
1714024504.940,-22.461,-24.414,-19.043,-27.344,0.000
1714024504.944,-16.602,-20.020,-14.648,-31.250,0.000
1714024504.947,-18.066,-25.391,-12.695,-27.832,0.000
1714024504.951,-26.367,-34.668,-27.832,-31.250,0.000
1714024504.955,-31.250,-36.621,-27.344,-38.574,0.000
1714024504.960,-28.809,-35.156,-17.578,-36.621,0.000
1714024504.964,-21.973,-28.320,-24.902,-29.785,0.000
1714024504.967,-26.855,-22.949,-30.273,-30.273,0.000
1714024504.971,-25.391,-21.484,-19.531,-28.809,0.000
1714024504.975,-23.926,-22.461,-9.277,-21.973,0.000
1714024504.979,-20.996,-17.578,-6.348,-16.602,0.000
1714024504.983,-25.879,-21.973,-20.020,-32.227,0.000
1714024504.987,-28.320,-29.785,-30.762,-41.016,0.000
1714024504.991,-18.555,-26.367,-30.273,-29.785,0.000
1714024504.995,-14.160,-20.996,-29.297,-10.742,0.000
1714024504.999,-16.113,-12.695,-21.484,-4.395,0.000
1714024505.003,-24.902,-20.508,-13.184,-20.996,0.000
1714024505.007,-23.438,-20.996,-2.441,-21.973,0.000
1714024505.011,-29.785,-25.391,-10.254,-30.273,0.000
1714024505.015,-36.621,-27.832,-20.996,-36.621,0.000
1714024505.018,-32.227,-23.438,-14.648,-30.273,0.000
1714024505.022,-29.785,-22.461,-13.184,-35.645,0.000
1714024505.026,-31.250,-19.043,-25.391,-44.434,0.000
1714024505.030,-36.133,-16.113,-12.207,-41.504,0.000
1714024505.034,-52.734,-15.137,-11.719,-49.805,0.000
1714024505.038,-56.641,-20.996,-34.180,-50.293,0.000
1714024505.042,-60.547,-32.227,-14.160,-53.223,0.000
1714024505.046,-78.613,-32.227,-8.789,-78.125,0.000
1714024505.050,-96.680,-35.156,-27.344,-97.656,0.000
1714024505.054,-114.258,-42.480,-11.719,-108.398,0.000
1714024505.058,-119.629,-36.621,-8.301,-116.699,0.000
1714024505.061,-130.859,-34.180,-12.207,-131.836,0.000
1714024505.065,-151.367,-38.086,-6.348,-145.020,0.000
1714024505.069,-166.992,-39.062,-4.395,-158.203,0.000
1714024505.073,-176.758,-41.016,-3.418,-175.293,0.000
1714024505.077,-179.688,-44.434,-2.441,-192.383,0.000
1714024505.081,-178.223,-41.016,-3.418,-188.477,0.000
1714024505.085,-170.410,-40.039,-3.418,-174.805,0.000
1714024505.089,-175.293,-33.691,0.000,-178.711,0.000
1714024505.093,-183.594,-28.809,-2.930,-185.547,0.000
1714024505.097,-179.688,-36.621,0.488,-178.223,0.000
1714024505.100,-166.504,-38.086,10.254,-167.969,0.000
1714024505.104,-162.598,-39.551,6.348,-169.434,0.000
1714024505.108,-160.645,-44.434,0.000,-169.922,0.000
1714024505.112,-145.020,-47.852,-4.883,-147.461,0.000
1714024505.116,-130.859,-41.016,-15.137,-133.789,0.000
1714024505.120,-124.512,-27.832,-16.113,-137.207,0.000
1714024505.124,-111.816,-26.367,-4.883,-128.906,0.000
1714024505.128,-103.027,-24.902,0.977,-107.910,0.000
1714024505.132,-107.422,-18.555,7.812,-103.027,0.000
1714024505.135,-106.445,-25.391,1.465,-105.469,0.000
1714024505.139,-86.914,-34.180,-11.719,-87.891,0.000
1714024505.143,-69.336,-35.645,-7.812,-69.824,0.000
1714024505.147,-69.824,-39.062,-16.113,-65.430,0.000
1714024505.151,-69.824,-40.527,-32.227,-64.941,0.000
1714024505.155,-64.941,-34.180,-32.227,-60.547,0.000
1714024505.159,-56.152,-33.691,-29.785,-55.664,0.000
1714024505.163,-51.270,-39.062,-25.879,-46.875,0.000
1714024505.166,-50.293,-28.809,-26.367,-42.969,0.000
1714024505.170,-46.387,-22.949,-30.762,-44.922,0.000
1714024505.174,-44.922,-33.203,-37.598,-39.062,0.000
1714024505.178,-38.086,-35.645,-37.598,-36.133,0.000
1714024505.182,-27.832,-29.785,-37.109,-34.180,0.000
1714024505.186,-35.156,-27.344,-40.527,-37.598,0.000
1714024505.190,-41.992,-26.855,-40.039,-42.969,0.000
1714024505.193,-31.738,-29.785,-47.852,-31.250,0.000
1714024505.197,-25.391,-27.832,-54.688,-23.438,0.000
1714024505.201,-20.996,-21.484,-55.664,-21.484,0.000
1714024505.205,-13.672,-20.020,-44.434,-15.137,0.000
1714024505.209,-8.301,-21.484,-38.086,-8.789,0.000
1714024505.213,-9.277,-33.691,-45.898,-10.254,0.000
1714024505.217,-14.648,-34.180,-58.105,-11.719,0.000
1714024505.221,-9.766,-23.438,-56.152,-7.324,0.000
1714024505.225,-6.348,-25.391,-39.062,-5.371,0.000
1714024505.228,-6.836,-29.785,-33.203,2.441,0.000
1714024505.232,-0.488,-22.949,-34.668,13.184,0.000
1714024505.236,6.836,-14.160,-25.391,16.602,0.000
1714024505.241,8.789,-12.207,-34.180,8.789,0.000
1714024505.245,6.348,-21.973,-45.898,-1.465,0.000
1714024505.249,5.371,-29.785,-43.457,3.906,0.000
1714024505.253,5.859,-31.738,-48.340,0.977,0.000
1714024505.257,2.441,-32.715,-42.969,-8.301,0.000
1714024505.261,1.953,-31.250,-36.133,-7.812,0.000
1714024505.264,6.348,-25.879,-41.016,0.000,0.000
1714024505.268,11.719,-19.043,-37.109,0.977,0.000
1714024505.272,11.230,-17.090,-26.367,-8.789,0.000
1714024505.276,4.395,-17.090,-28.809,-8.301,0.000
1714024505.280,-6.348,-20.996,-44.434,-14.160,0.000
1714024505.284,-9.766,-26.367,-45.410,-21.973,0.000
1714024505.288,-9.277,-26.367,-35.156,-19.043,0.000
1714024505.292,-15.625,-33.203,-37.109,-23.438,0.000
1714024505.296,-22.461,-25.391,-40.039,-30.273,0.000
1714024505.300,-10.254,-9.766,-38.086,-15.625,0.000
1714024505.304,0.000,-18.066,-35.645,-8.789,0.000
1714024505.308,-18.555,-29.785,-26.855,-28.320,0.000
1714024505.312,-26.367,-27.832,-17.090,-28.809,0.000
1714024505.316,-34.668,-23.926,-12.207,-29.297,0.000
1714024505.320,-48.340,-34.180,-8.301,-49.316,0.000
1714024505.324,-62.012,-44.434,-12.207,-61.523,0.000
1714024505.327,-75.684,-40.527,-15.625,-68.359,0.000
1714024505.331,-88.379,-35.156,-8.301,-80.566,0.000
1714024505.336,-95.215,-33.691,3.418,-79.590,0.000
1714024505.340,-107.910,-42.969,-0.488,-94.727,0.000
1714024505.343,-114.746,-45.898,-1.953,-104.980,0.000
1714024505.347,-115.234,-43.945,1.465,-104.004,0.000
1714024505.351,-115.723,-48.340,8.301,-106.445,0.000
1714024505.355,-108.398,-41.016,18.066,-103.516,0.000
1714024505.359,-103.027,-40.039,12.695,-102.051,0.000
1714024505.363,-95.703,-50.781,7.812,-97.656,0.000
1714024505.367,-101.074,-56.152,4.883,-95.215,0.000
1714024505.371,-95.215,-56.641,-0.977,-88.379,0.000
1714024505.375,-74.219,-53.223,10.254,-73.730,0.000
1714024505.379,-68.359,-56.152,20.020,-62.500,0.000
1714024505.383,-66.895,-59.082,17.578,-53.711,0.000
1714024505.387,-54.688,-58.105,10.742,-39.551,0.000
1714024505.391,-42.969,-64.453,-0.977,-29.785,0.000
1714024505.394,-37.109,-53.711,-6.836,-25.879,0.000
1714024505.398,-34.180,-38.086,-8.301,-16.602,0.000
1714024505.402,-27.344,-37.109,-19.043,-3.418,0.000
1714024505.406,-25.391,-41.504,-20.020,-8.789,0.000
1714024505.410,-25.391,-49.805,-18.555,-16.602,0.000
1714024505.414,-13.184,-55.176,-21.973,-0.488,0.000
1714024505.418,-13.672,-52.246,-18.555,0.977,0.000
1714024505.422,-8.301,-48.340,-16.113,-3.906,0.000
1714024505.426,2.441,-43.457,-29.297,3.906,0.000
1714024505.430,0.488,-33.691,-33.691,4.395,0.000
1714024505.433,3.418,-33.691,-28.320,6.348,0.000
1714024505.437,10.254,-37.109,-41.992,7.324,0.000
1714024505.441,15.137,-29.297,-54.688,8.301,0.000
1714024505.445,15.625,-34.668,-54.199,7.812,0.000
1714024505.449,16.602,-41.504,-56.641,0.977,0.000
1714024505.453,20.020,-36.621,-58.594,0.977,0.000
1714024505.457,24.902,-32.715,-63.477,7.324,0.000
1714024505.461,29.785,-28.320,-64.941,16.602,0.000
1714024505.465,25.879,-22.949,-56.152,15.137,0.000
1714024505.469,26.855,-21.973,-59.570,20.020,0.000
1714024505.472,32.227,-28.809,-66.895,32.227,0.000
1714024505.476,30.273,-33.691,-53.711,33.203,0.000
1714024505.480,28.320,-25.391,-53.711,26.855,0.000
1714024505.484,25.391,-26.367,-71.289,21.973,0.000
1714024505.488,28.320,-29.297,-71.777,24.902,0.000
1714024505.492,38.086,-28.320,-58.105,30.762,0.000
1714024505.496,35.645,-33.203,-51.758,27.344,0.000
1714024505.500,31.250,-28.809,-62.012,16.602,0.000
1714024505.504,41.504,-21.484,-63.965,19.043,0.000
1714024505.507,46.387,-23.926,-65.918,15.137,0.000
1714024505.511,41.992,-22.949,-64.453,4.395,0.000
1714024505.515,34.668,-18.066,-60.547,7.812,0.000
1714024505.519,31.738,-21.484,-62.988,7.324,0.000
1714024505.523,37.109,-15.137,-54.688,8.789,0.000
1714024505.527,29.785,-9.766,-50.293,11.230,0.000
1714024505.531,24.414,-11.719,-51.270,15.137,0.000
1714024505.534,24.902,-19.531,-53.711,19.531,0.000
1714024505.538,26.855,-21.484,-56.641,18.066,0.000
1714024505.542,20.996,-19.043,-62.988,14.160,0.000
1714024505.546,15.625,-20.996,-62.500,10.254,0.000
1714024505.550,13.184,-24.414,-63.477,15.625,0.000
1714024505.554,10.254,-12.695,-63.965,7.812,0.000
1714024505.558,17.090,-4.883,-41.992,8.789,0.000
1714024505.562,14.160,-14.648,-26.367,22.949,0.000
1714024505.566,6.348,-11.719,-41.504,17.578,0.000
1714024505.570,7.812,-7.324,-50.781,7.812,0.000
1714024505.574,10.254,-12.207,-41.016,0.488,0.000
1714024505.578,4.883,-16.113,-35.156,1.465,0.000
1714024505.582,-6.836,-10.254,-38.574,1.465,0.000
1714024505.586,-3.906,-4.883,-38.574,3.418,0.000
1714024505.590,-0.977,-8.789,-37.598,4.395,0.000
1714024505.594,-1.465,-13.184,-41.992,-2.441,0.000
1714024505.598,-1.953,-9.766,-40.527,-3.418,0.000
1714024505.602,-3.906,-8.301,-41.016,-13.184,0.000
1714024505.606,-0.977,-16.602,-45.410,-21.484,0.000
1714024505.610,-6.836,-22.461,-39.551,-27.832,0.000
1714024505.613,-9.277,-18.066,-36.621,-20.508,0.000
1714024505.617,-2.930,-14.648,-37.109,-14.160,0.000
1714024505.621,-6.836,-20.508,-31.250,-13.672,0.000
1714024505.624,-19.043,-29.785,-34.668,-6.348,0.000
1714024505.628,-15.625,-25.391,-30.762,-6.348,0.000
1714024505.632,-10.254,-16.113,-18.555,-9.766,0.000
1714024505.636,-6.836,-24.414,-21.484,-4.395,0.000
1714024505.640,-2.441,-27.832,-29.297,5.859,0.000
1714024505.644,-3.418,-23.438,-25.879,6.348,0.000
1714024505.648,-4.883,-20.020,-19.531,-0.488,0.000
1714024505.652,3.906,-18.555,-14.160,6.836,0.000
1714024505.656,2.930,-23.438,-16.113,16.113,0.000
1714024505.660,-9.766,-18.555,-23.438,-1.465,0.000
1714024505.663,-16.602,-20.996,-32.227,-17.578,0.000
1714024505.667,-17.578,-25.879,-33.203,-20.996,0.000
1714024505.671,-19.531,-11.719,-26.367,-24.902,0.000
1714024505.674,-25.879,-10.254,-31.250,-38.086,0.000
1714024505.678,-27.344,-20.508,-36.621,-44.434,0.000
1714024505.682,-24.902,-18.555,-37.598,-35.645,0.000
1714024505.686,-17.090,-22.461,-38.574,-30.273,0.000
1714024505.690,-15.625,-25.391,-35.156,-35.156,0.000
1714024505.694,-17.578,-19.043,-36.133,-26.367,0.000
1714024505.698,-15.137,-21.484,-32.227,-12.695,0.000
1714024505.702,-12.207,-19.043,-20.508,-17.090,0.000
1714024505.706,-8.789,-12.695,-14.648,-19.531,0.000
1714024505.710,-7.324,-15.137,-23.926,-17.090,0.000
1714024505.714,-11.719,-19.043,-30.762,-15.625,0.000
1714024505.718,-14.648,-23.438,-23.926,-14.648,0.000
1714024505.722,-22.461,-27.344,-21.973,-18.555,0.000
1714024505.726,-22.461,-24.414,-30.273,-16.602,0.000
1714024505.730,-18.555,-28.809,-36.621,-16.602,0.000
1714024505.733,-21.484,-24.414,-28.320,-17.578,0.000
1714024505.737,-17.578,-12.695,-14.160,-22.461,0.000
1714024505.741,-22.461,-15.625,-10.742,-27.832,0.000
1714024505.745,-28.320,-20.020,-23.926,-27.344,0.000
1714024505.749,-32.715,-16.602,-32.715,-32.227,0.000
1714024505.753,-41.016,-20.508,-27.832,-41.992,0.000
1714024505.757,-42.480,-25.879,-23.438,-48.828,0.000
1714024505.761,-33.691,-26.855,-22.949,-46.387,0.000
1714024505.765,-30.273,-22.949,-26.367,-42.969,0.000
1714024505.769,-33.203,-28.320,-26.367,-40.527,0.000
1714024505.773,-30.762,-36.133,-26.855,-39.062,0.000
1714024505.777,-30.273,-27.344,-21.484,-33.691,0.000
1714024505.780,-23.926,-20.996,-14.648,-20.508,0.000
1714024505.784,-17.578,-24.414,-12.207,-11.719,0.000
1714024505.788,-22.461,-26.855,-24.414,-14.160,0.000
1714024505.792,-26.367,-32.715,-32.227,-19.043,0.000
1714024505.796,-28.320,-28.320,-26.367,-23.438,0.000
1714024505.800,-25.879,-28.809,-23.438,-19.531,0.000
1714024505.804,-18.066,-30.762,-20.996,-14.648,0.000
1714024505.808,-20.508,-27.344,-22.461,-15.625,0.000
1714024505.812,-27.344,-25.391,-17.578,-11.719,0.000
1714024505.816,-24.902,-20.996,-4.395,-6.836,0.000
1714024505.820,-25.879,-23.438,-17.090,-20.996,0.000
1714024505.823,-28.320,-31.738,-38.086,-25.879,0.000
1714024505.827,-15.625,-35.645,-37.598,-6.348,0.000
1714024505.831,-24.414,-32.227,-40.527,-16.602,0.000
1714024505.835,-42.969,-23.438,-38.574,-41.016,0.000
1714024505.839,-42.480,-18.066,-32.227,-47.363,0.000
1714024505.843,-40.039,-25.391,-33.203,-48.340,0.000
1714024505.847,-28.320,-21.973,-30.762,-33.203,0.000
1714024505.851,-18.555,-14.648,-27.832,-25.879,0.000
1714024505.855,-25.879,-24.902,-31.250,-41.016,0.000
1714024505.859,-30.762,-24.902,-33.203,-49.805,0.000
1714024505.862,-30.762,-20.996,-39.551,-40.527,0.000
1714024505.866,-19.043,-23.926,-35.645,-24.902,0.000
1714024505.870,-9.766,-25.879,-30.273,-8.789,0.000
1714024505.874,-10.254,-31.250,-33.203,-6.348,0.000
1714024505.878,-1.953,-31.738,-27.832,-0.488,0.000
1714024505.882,-0.488,-23.926,-18.066,8.789,0.000
1714024505.886,-9.766,-12.207,-16.113,-5.859,0.000
1714024505.890,-10.254,-10.742,-18.066,-17.090,0.000
1714024505.894,-18.066,-23.926,-27.832,-18.066,0.000
1714024505.897,-23.926,-24.902,-29.297,-9.766,0.000
1714024505.901,-16.113,-25.879,-21.973,-6.836,0.000
1714024505.905,-14.160,-28.320,-29.297,-14.648,0.000
1714024505.909,-16.602,-19.043,-31.738,-21.973,0.000
1714024505.913,-14.648,-18.555,-25.391,-21.973,0.000
1714024505.917,-14.648,-26.855,-17.578,-26.367,0.000
1714024505.921,-20.508,-26.367,-20.996,-32.715,0.000
1714024505.925,-20.508,-24.902,-32.227,-27.344,0.000
1714024505.929,-20.020,-24.902,-33.203,-30.273,0.000
1714024505.932,-23.438,-26.855,-25.391,-34.180,0.000
1714024505.936,-23.438,-22.461,-28.809,-29.785,0.000
1714024505.940,-22.461,-17.578,-36.621,-21.484,0.000
1714024505.944,-20.508,-27.344,-38.574,-10.254,0.000
1714024505.948,-16.113,-37.598,-30.762,-10.254,0.000
1714024505.952,-9.277,-36.133,-20.508,-10.254,0.000
1714024505.955,-8.789,-19.043,-22.949,-8.789,0.000
1714024505.959,-12.695,-16.113,-30.273,-12.207,0.000
1714024505.963,-18.066,-27.832,-28.320,-16.602,0.000
1714024505.967,-24.414,-24.902,-21.973,-17.578,0.000
1714024505.971,-27.344,-20.996,-23.438,-21.973,0.000
1714024505.975,-30.762,-22.949,-25.391,-29.297,0.000
1714024505.979,-24.902,-20.508,-25.879,-23.438,0.000
1714024505.983,-25.391,-14.160,-24.902,-23.438,0.000
1714024505.987,-34.668,-15.625,-20.508,-28.809,0.000
1714024505.990,-28.809,-20.020,-17.578,-26.367,0.000
1714024505.994,-28.809,-23.926,-26.367,-30.762,0.000
1714024505.998,-33.203,-25.879,-30.273,-27.344,0.000
1714024506.002,-29.785,-27.344,-22.949,-24.414,0.000
1714024506.006,-23.438,-28.809,-14.648,-29.297,0.000
1714024506.010,-25.879,-22.461,-28.809,-41.504,0.000
1714024506.013,-23.926,-24.414,-37.598,-42.969,0.000
1714024506.017,-17.578,-23.438,-26.855,-38.574,0.000
1714024506.021,-17.090,-22.461,-27.344,-36.621,0.000
1714024506.025,-16.602,-31.250,-25.879,-31.738,0.000
1714024506.029,-20.020,-28.320,-18.555,-27.832,0.000
1714024506.033,-21.484,-30.273,-24.414,-19.531,0.000
1714024506.036,-18.555,-34.668,-27.832,-19.043,0.000
1714024506.040,-20.996,-28.809,-22.949,-26.367,0.000
1714024506.044,-25.391,-25.391,-21.484,-29.297,0.000
1714024506.048,-25.879,-27.344,-25.879,-25.391,0.000
1714024506.052,-22.949,-30.273,-30.762,-24.902,0.000
1714024506.056,-26.367,-33.691,-33.691,-21.973,0.000
1714024506.060,-32.715,-34.180,-36.133,-26.855,0.000
1714024506.064,-33.203,-24.414,-25.391,-36.133,0.000
1714024506.067,-35.156,-22.949,-18.555,-36.133,0.000
1714024506.071,-30.762,-29.297,-26.367,-32.715,0.000
1714024506.075,-27.832,-32.227,-21.973,-31.250,0.000
1714024506.079,-38.086,-29.297,-26.367,-43.457,0.000
1714024506.085,-40.039,-24.902,-43.945,-47.363,0.000
1714024506.089,-33.691,-19.043,-41.504,-38.574,0.000
1714024506.093,-33.203,-23.926,-31.738,-45.410,0.000
1714024506.097,-35.645,-32.227,-27.832,-49.805,0.000
1714024506.101,-36.133,-27.344,-25.879,-40.039,0.000
1714024506.105,-37.109,-28.320,-21.973,-30.273,0.000
1714024506.108,-34.180,-31.738,-21.484,-28.809,0.000
1714024506.112,-25.879,-31.250,-26.367,-35.645,0.000
1714024506.116,-24.414,-34.180,-33.203,-33.691,0.000
1714024506.120,-24.902,-32.227,-35.156,-32.227,0.000
1714024506.124,-24.902,-31.738,-29.785,-35.645,0.000
1714024506.128,-24.414,-21.973,-23.438,-33.691,0.000
1714024506.132,-20.996,-15.625,-20.508,-24.902,0.000
1714024506.136,-20.996,-20.508,-22.949,-18.555,0.000
1714024506.140,-18.066,-19.043,-25.879,-22.949,0.000
1714024506.144,-22.949,-24.414,-23.438,-29.785,0.000
1714024506.148,-31.738,-32.715,-24.902,-26.367,0.000
1714024506.152,-35.645,-32.227,-26.367,-25.879,0.000
1714024506.156,-36.133,-28.320,-19.043,-28.320,0.000
1714024506.159,-35.645,-31.738,-21.973,-29.785,0.000
1714024506.163,-36.621,-34.180,-28.320,-27.344,0.000
1714024506.167,-36.621,-30.762,-25.391,-28.320,0.000
1714024506.171,-40.527,-23.438,-20.508,-38.086,0.000
1714024506.175,-41.016,-27.832,-20.508,-44.434,0.000
1714024506.179,-36.133,-30.762,-26.367,-36.621,0.000
1714024506.183,-30.762,-22.949,-22.949,-27.832,0.000
1714024506.187,-25.391,-16.113,-18.066,-24.902,0.000
1714024506.191,-24.414,-20.020,-19.043,-22.949,0.000
1714024506.195,-23.438,-24.414,-13.184,-21.973,0.000
1714024506.199,-19.043,-23.926,-19.531,-17.578,0.000
1714024506.202,-12.207,-19.043,-26.855,-14.648,0.000
1714024506.206,-14.160,-17.578,-25.391,-24.902,0.000
1714024506.210,-16.602,-29.297,-32.227,-24.902,0.000
1714024506.214,-21.973,-36.133,-27.344,-20.996,0.000
1714024506.218,-27.832,-39.551,-19.531,-28.320,0.000
1714024506.222,-20.020,-38.086,-20.020,-22.461,0.000
1714024506.226,-19.043,-28.320,-20.996,-28.320,0.000
1714024506.230,-25.879,-25.391,-20.020,-30.762,0.000
1714024506.234,-31.738,-39.062,-32.227,-28.320,0.000
1714024506.237,-35.156,-42.480,-45.410,-37.109,0.000
1714024506.241,-39.062,-29.785,-38.574,-37.598,0.000
1714024506.245,-47.852,-21.484,-33.691,-36.621,0.000
1714024506.249,-48.828,-23.438,-30.273,-40.527,0.000
1714024506.253,-37.598,-34.180,-20.996,-36.621,0.000
1714024506.257,-34.668,-34.668,-20.996,-38.086,0.000
1714024506.261,-32.227,-26.855,-18.555,-41.504,0.000
1714024506.265,-21.484,-14.648,-20.508,-35.645,0.000
1714024506.269,-25.391,-16.602,-23.926,-32.227,0.000
1714024506.272,-26.855,-28.320,-19.531,-30.762,0.000
1714024506.276,-26.367,-34.180,-20.508,-30.273,0.000
1714024506.280,-29.785,-37.598,-18.555,-23.926,0.000
1714024506.284,-30.762,-40.527,-16.113,-20.508,0.000
1714024506.288,-23.438,-33.691,-20.996,-17.578,0.000
1714024506.292,-19.043,-26.367,-23.926,-20.508,0.000
1714024506.296,-19.531,-26.855,-32.227,-26.855,0.000
1714024506.300,-12.207,-30.762,-37.109,-20.508,0.000
