timestamps,TP9,AF7,AF8,TP10,Right AUX
1714024298.561,-24.414,-25.879,-43.457,-32.227,0.000
1714024298.565,-12.695,-21.973,-41.504,-22.461,0.000
1714024298.569,-8.301,-18.555,-41.504,-17.578,0.000
1714024298.573,-14.648,-22.461,-40.039,-23.926,0.000
1714024298.577,-15.625,-26.367,-28.320,-27.344,0.000
1714024298.581,-9.277,-19.043,-32.227,-36.621,0.000
1714024298.585,-15.625,-21.973,-47.852,-41.992,0.000
1714024298.589,-24.902,-25.391,-47.363,-42.969,0.000
1714024298.593,-21.484,-16.113,-40.527,-40.039,0.000
1714024298.597,-17.090,-17.090,-35.156,-35.645,0.000
1714024298.600,-16.602,-22.949,-33.203,-41.504,0.000
1714024298.604,-20.508,-21.973,-42.969,-45.898,0.000
1714024298.608,-17.090,-16.113,-41.016,-37.109,0.000
1714024298.612,-13.672,-17.578,-27.344,-30.273,0.000
1714024298.616,-20.508,-20.996,-28.320,-39.551,0.000
1714024298.619,-16.602,-16.113,-28.320,-37.109,0.000
1714024298.623,-20.508,-15.137,-34.668,-34.180,0.000
1714024298.627,-22.949,-21.484,-35.645,-28.809,0.000
1714024298.631,-20.508,-18.555,-32.227,-26.855,0.000
1714024298.635,-26.367,-18.555,-33.203,-39.062,0.000
1714024298.639,-27.832,-14.160,-29.785,-42.480,0.000
1714024298.643,-28.809,-10.742,-23.438,-28.320,0.000
1714024298.647,-23.438,-24.902,-19.043,-17.090,0.000
1714024298.651,-6.836,-27.832,-27.832,-20.020,0.000
1714024298.655,-13.184,-23.926,-41.992,-28.320,0.000
1714024298.659,-32.715,-20.020,-36.133,-41.992,0.000
1714024298.663,-29.297,-17.090,-26.855,-43.945,0.000
1714024298.667,-29.785,-15.625,-38.574,-49.805,0.000
1714024298.671,-41.504,-15.137,-49.316,-64.941,0.000
1714024298.675,-36.621,-16.113,-46.387,-56.641,0.000
1714024298.679,-26.367,-12.695,-36.133,-45.410,0.000
1714024298.683,-21.973,-12.695,-27.832,-43.457,0.000
1714024298.686,-21.484,-15.625,-32.715,-43.457,0.000
1714024298.690,-21.484,-17.090,-42.969,-37.109,0.000
1714024298.694,-20.020,-19.531,-36.621,-31.738,0.000
1714024298.698,-25.391,-18.066,-34.668,-44.434,0.000
1714024298.702,-29.785,-19.043,-41.016,-51.270,0.000
1714024298.706,-31.738,-16.113,-38.574,-51.758,0.000
1714024298.710,-27.344,-10.254,-35.645,-43.945,0.000
1714024298.714,-20.996,-13.184,-34.180,-38.086,0.000
1714024298.718,-23.926,-20.020,-30.762,-44.922,0.000
1714024298.722,-26.367,-22.949,-35.156,-46.387,0.000
1714024298.726,-25.879,-23.438,-43.457,-41.992,0.000
1714024298.730,-25.391,-20.996,-37.598,-41.504,0.000
1714024298.734,-25.879,-19.043,-36.133,-39.551,0.000
1714024298.738,-26.367,-17.578,-40.039,-34.668,0.000
1714024298.741,-24.902,-13.672,-29.297,-38.086,0.000
1714024298.745,-21.973,-8.789,-17.578,-36.133,0.000
1714024298.749,-18.066,-12.207,-13.672,-34.180,0.000
1714024298.753,-18.066,-19.531,-14.160,-38.086,0.000
1714024298.757,-22.949,-21.484,-27.832,-31.738,0.000
1714024298.761,-22.461,-24.902,-30.273,-30.762,0.000
1714024298.765,-20.996,-26.855,-27.832,-37.598,0.000
1714024298.769,-22.949,-23.926,-34.668,-41.016,0.000
1714024298.773,-26.855,-24.414,-26.855,-37.109,0.000
1714024298.777,-25.391,-23.926,-20.020,-29.297,0.000
1714024298.781,-16.602,-14.648,-17.578,-16.602,0.000
1714024298.785,-22.949,-5.371,-23.926,-25.391,0.000
1714024298.788,-34.668,-12.695,-33.691,-45.898,0.000
1714024298.792,-34.180,-26.367,-31.738,-49.805,0.000
1714024298.796,-27.832,-25.879,-30.762,-45.410,0.000
1714024298.800,-24.902,-24.902,-28.809,-42.969,0.000
1714024298.804,-22.949,-24.414,-24.414,-44.434,0.000
1714024298.808,-24.414,-20.508,-29.297,-39.551,0.000
1714024298.812,-19.531,-16.602,-25.391,-33.691,0.000
1714024298.816,-15.625,-10.742,-15.137,-34.668,0.000
1714024298.820,-23.926,-15.137,-22.949,-41.504,0.000
1714024298.824,-27.344,-26.855,-37.598,-36.621,0.000
1714024298.828,-25.879,-30.762,-39.062,-25.879,0.000
1714024298.831,-24.902,-22.949,-25.879,-30.273,0.000
1714024298.835,-27.832,-20.996,-20.020,-36.621,0.000
1714024298.839,-35.156,-26.367,-29.785,-41.504,0.000
1714024298.843,-33.203,-23.926,-31.738,-50.293,0.000
1714024298.847,-22.949,-15.625,-26.855,-46.387,0.000
1714024298.851,-21.973,-18.555,-32.715,-45.898,0.000
1714024298.855,-25.879,-22.461,-34.180,-45.898,0.000
1714024298.859,-24.414,-20.996,-28.809,-41.992,0.000
1714024298.863,-22.949,-22.949,-26.367,-48.828,0.000
1714024298.866,-24.902,-27.832,-19.531,-46.387,0.000
1714024298.870,-28.809,-31.250,-21.973,-39.551,0.000
1714024298.874,-32.715,-29.785,-32.227,-49.316,0.000
1714024298.878,-33.203,-25.391,-33.203,-51.270,0.000
1714024298.882,-34.668,-29.297,-31.738,-53.711,0.000
1714024298.886,-41.504,-34.668,-34.180,-57.129,0.000
1714024298.890,-37.598,-30.273,-31.738,-51.270,0.000
1714024298.894,-25.879,-30.273,-27.344,-36.621,0.000
1714024298.897,-27.344,-37.109,-29.785,-32.227,0.000
1714024298.901,-35.645,-34.668,-31.250,-33.691,0.000
1714024298.905,-31.250,-30.273,-31.250,-34.668,0.000
1714024298.909,-26.367,-33.203,-29.297,-35.156,0.000
1714024298.913,-20.996,-34.668,-21.484,-30.273,0.000
1714024298.917,-28.320,-27.344,-26.855,-38.086,0.000
1714024298.921,-39.551,-26.367,-37.109,-44.434,0.000
1714024298.925,-40.039,-31.250,-37.598,-46.387,0.000
1714024298.929,-36.133,-29.297,-27.832,-48.828,0.000
1714024298.933,-32.227,-23.438,-17.578,-41.992,0.000
1714024298.936,-39.551,-28.320,-26.367,-39.551,0.000
1714024298.940,-35.645,-33.691,-30.762,-39.062,0.000
1714024298.944,-27.832,-27.344,-23.438,-39.551,0.000
1714024298.948,-26.855,-26.367,-9.766,-36.133,0.000
1714024298.952,-25.391,-29.785,-6.836,-28.809,0.000
1714024298.956,-33.203,-28.809,-19.043,-28.320,0.000
1714024298.960,-42.969,-31.738,-22.949,-33.203,0.000
1714024298.963,-43.945,-32.227,-24.414,-43.945,0.000
1714024298.967,-46.387,-30.273,-23.438,-51.270,0.000
1714024298.971,-44.922,-27.344,-33.691,-45.410,0.000
1714024298.975,-33.691,-28.809,-38.086,-35.156,0.000
1714024298.979,-28.320,-33.203,-16.113,-38.086,0.000
1714024298.984,-27.344,-34.668,-14.648,-44.922,0.000
1714024298.987,-38.574,-41.016,-36.621,-48.340,0.000
1714024298.991,-39.062,-35.645,-43.457,-41.992,0.000
1714024298.995,-36.133,-29.297,-38.574,-40.039,0.000
1714024298.999,-35.645,-25.879,-29.785,-49.805,0.000
1714024299.003,-30.762,-20.020,-23.926,-41.016,0.000
1714024299.007,-36.621,-21.484,-30.273,-38.086,0.000
1714024299.011,-39.551,-25.391,-32.227,-49.316,0.000
1714024299.015,-17.090,-16.602,-25.879,-39.062,0.000
1714024299.019,0.488,-17.578,-19.531,-13.672,0.000
1714024299.023,-28.809,-28.809,-18.555,-24.902,0.000
1714024299.027,-55.176,-33.203,-22.461,-44.434,0.000
1714024299.031,-43.457,-27.344,-19.531,-32.715,0.000
1714024299.035,-35.645,-30.762,-14.160,-26.855,0.000
1714024299.039,-35.645,-36.133,-18.555,-32.715,0.000
1714024299.043,-41.016,-39.062,-19.531,-36.133,0.000
1714024299.047,-39.551,-42.480,-23.438,-42.969,0.000
1714024299.050,-30.273,-34.180,-21.484,-42.480,0.000
1714024299.054,-26.855,-31.738,-12.207,-35.645,0.000
1714024299.058,-17.090,-30.762,-17.090,-26.367,0.000
1714024299.062,-16.113,-29.297,-25.879,-24.902,0.000
1714024299.066,-21.484,-37.598,-27.832,-28.320,0.000
1714024299.070,-22.461,-35.156,-21.484,-35.645,0.000
1714024299.074,-25.879,-30.273,-22.461,-35.645,0.000
1714024299.078,-25.391,-30.762,-25.879,-31.250,0.000
1714024299.082,-27.832,-29.297,-26.855,-39.062,0.000
1714024299.086,-27.832,-24.414,-21.973,-42.480,0.000
1714024299.090,-25.879,-22.949,-20.996,-38.574,0.000
1714024299.094,-22.949,-19.043,-32.715,-39.062,0.000
1714024299.098,-31.738,-28.809,-38.086,-48.828,0.000
1714024299.101,-36.133,-41.992,-36.133,-46.387,0.000
1714024299.105,-30.762,-32.227,-36.133,-37.109,0.000
1714024299.109,-28.809,-29.785,-35.156,-32.715,0.000
1714024299.113,-24.902,-33.203,-27.832,-31.738,0.000
1714024299.117,-25.391,-32.227,-28.320,-36.133,0.000
1714024299.121,-21.973,-29.297,-20.020,-32.715,0.000
1714024299.125,-20.996,-23.926,-11.719,-24.414,0.000
1714024299.129,-26.367,-28.809,-19.043,-24.414,0.000
1714024299.133,-28.809,-29.297,-27.344,-35.156,0.000
1714024299.137,-29.297,-23.926,-27.832,-34.180,0.000
1714024299.141,-34.180,-26.855,-28.809,-36.621,0.000
1714024299.145,-31.250,-29.785,-31.250,-41.016,0.000
1714024299.148,-25.391,-23.926,-27.344,-42.969,0.000
1714024299.152,-24.902,-21.973,-20.508,-43.945,0.000
1714024299.156,-26.367,-22.461,-20.508,-33.691,0.000
1714024299.160,-24.414,-24.902,-22.949,-30.762,0.000
1714024299.164,-23.926,-30.762,-25.391,-29.297,0.000
1714024299.168,-24.414,-28.809,-28.809,-34.668,0.000
1714024299.172,-20.996,-22.461,-27.832,-41.504,0.000
1714024299.176,-23.926,-26.855,-22.461,-37.598,0.000
1714024299.180,-26.855,-34.668,-25.391,-44.434,0.000
1714024299.184,-26.367,-28.320,-25.391,-47.363,0.000
1714024299.187,-27.832,-23.926,-23.926,-39.062,0.000
1714024299.191,-21.973,-26.367,-31.250,-36.621,0.000
1714024299.195,-17.090,-21.484,-39.551,-40.527,0.000
1714024299.199,-17.090,-26.855,-39.062,-41.016,0.000
1714024299.203,-20.508,-31.250,-34.180,-44.922,0.000
1714024299.207,-22.461,-27.832,-29.297,-46.387,0.000
1714024299.211,-17.090,-25.391,-30.273,-43.945,0.000
1714024299.215,-20.996,-26.367,-39.062,-48.340,0.000
1714024299.219,-30.273,-27.832,-33.691,-49.805,0.000
1714024299.222,-30.762,-33.691,-25.391,-42.969,0.000
1714024299.226,-25.391,-27.832,-29.297,-33.203,0.000
1714024299.230,-22.461,-16.602,-34.180,-35.645,0.000
1714024299.234,-31.250,-28.320,-38.086,-45.898,0.000
1714024299.238,-41.504,-42.969,-40.527,-43.945,0.000
1714024299.242,-37.598,-38.574,-39.062,-36.133,0.000
1714024299.246,-31.250,-34.180,-26.367,-35.156,0.000
1714024299.250,-30.762,-31.250,-20.020,-40.527,0.000
1714024299.254,-30.762,-27.344,-22.949,-40.039,0.000
1714024299.258,-33.691,-27.344,-30.762,-38.086,0.000
1714024299.262,-35.645,-29.297,-36.133,-43.945,0.000
1714024299.265,-32.715,-31.738,-29.297,-44.922,0.000
1714024299.269,-35.645,-34.668,-28.809,-41.992,0.000
1714024299.273,-33.203,-40.527,-29.297,-24.902,0.000
1714024299.277,-37.109,-44.434,-29.785,-20.508,0.000
1714024299.281,-45.898,-36.621,-36.621,-41.016,0.000
1714024299.285,-43.457,-31.250,-36.133,-47.363,0.000
1714024299.289,-41.016,-38.086,-36.133,-39.551,0.000
1714024299.293,-46.387,-42.480,-36.133,-42.969,0.000
1714024299.296,-41.016,-33.203,-36.133,-49.805,0.000
1714024299.300,-36.133,-25.391,-31.250,-49.316,0.000
1714024299.304,-35.645,-27.344,-22.949,-45.410,0.000
1714024299.308,-33.691,-28.320,-18.066,-40.039,0.000
1714024299.312,-27.832,-25.879,-15.625,-34.668,0.000
1714024299.315,-25.879,-20.508,-20.996,-33.691,0.000
1714024299.319,-35.645,-28.320,-32.227,-37.598,0.000
1714024299.323,-41.016,-38.086,-41.016,-33.203,0.000
1714024299.327,-37.598,-30.273,-33.691,-33.691,0.000
1714024299.331,-34.668,-32.227,-31.738,-35.156,0.000
1714024299.335,-28.809,-27.832,-39.062,-27.344,0.000
1714024299.339,-29.297,-27.832,-29.297,-32.715,0.000
1714024299.343,-30.273,-30.762,-15.625,-27.344,0.000
1714024299.347,-19.043,-22.461,-15.137,-20.996,0.000
1714024299.351,-20.996,-25.391,-26.367,-27.832,0.000
1714024299.355,-29.297,-29.297,-31.738,-26.367,0.000
1714024299.359,-28.809,-29.785,-27.344,-26.855,0.000
1714024299.363,-26.855,-26.367,-28.320,-30.762,0.000
1714024299.367,-24.414,-26.367,-27.344,-30.762,0.000
1714024299.371,-25.391,-26.367,-19.531,-27.832,0.000
1714024299.375,-31.738,-25.391,-17.578,-25.391,0.000
1714024299.379,-32.715,-37.598,-37.109,-31.250,0.000
1714024299.382,-28.320,-40.527,-42.969,-40.527,0.000
1714024299.386,-27.832,-35.156,-22.949,-34.668,0.000
1714024299.390,-25.391,-29.297,-20.996,-24.902,0.000
1714024299.394,-22.461,-27.832,-27.832,-19.531,0.000
1714024299.398,-17.578,-23.438,-22.949,-28.809,0.000
1714024299.402,-16.113,-26.855,-23.438,-36.133,0.000
1714024299.406,-18.555,-31.738,-23.438,-22.461,0.000
1714024299.410,-27.344,-28.320,-31.738,-24.902,0.000
1714024299.414,-31.738,-29.785,-36.621,-32.715,0.000
1714024299.418,-33.691,-35.645,-26.367,-32.715,0.000
1714024299.422,-37.109,-32.715,-21.973,-35.156,0.000
1714024299.426,-31.738,-22.461,-17.090,-30.762,0.000
1714024299.430,-24.902,-22.949,-18.066,-25.879,0.000
1714024299.434,-34.180,-23.926,-21.973,-43.945,0.000
1714024299.438,-41.504,-23.926,-23.926,-50.781,0.000
1714024299.441,-41.504,-31.250,-33.203,-40.527,0.000
1714024299.445,-58.594,-41.504,-36.621,-64.453,0.000
1714024299.449,-64.941,-38.086,-13.184,-76.660,0.000
1714024299.453,-58.105,-26.367,-9.277,-62.988,0.000
1714024299.457,-70.312,-28.809,-17.090,-76.172,0.000
1714024299.461,-74.707,-34.668,-0.488,-80.566,0.000
1714024299.465,-85.938,-35.645,-0.488,-92.773,0.000
1714024299.469,-101.562,-40.039,-9.277,-108.887,0.000
1714024299.473,-110.840,-41.016,-5.371,-111.816,0.000
1714024299.477,-122.559,-42.480,-3.906,-117.676,0.000
1714024299.481,-127.441,-38.574,4.395,-128.418,0.000
1714024299.485,-120.117,-39.062,11.719,-121.582,0.000
1714024299.489,-117.676,-38.086,12.695,-118.164,0.000
1714024299.492,-116.699,-33.203,8.789,-120.117,0.000
1714024299.496,-103.516,-41.504,1.953,-106.445,0.000
1714024299.500,-90.820,-42.969,-5.371,-99.121,0.000
1714024299.504,-88.379,-30.762,-10.254,-94.238,0.000
1714024299.508,-84.961,-31.250,-7.812,-81.543,0.000
1714024299.512,-78.613,-37.109,-3.418,-74.219,0.000
1714024299.516,-64.941,-41.016,-18.066,-71.289,0.000
1714024299.520,-48.828,-40.039,-20.508,-62.012,0.000
1714024299.524,-48.828,-34.668,-13.184,-59.570,0.000
1714024299.528,-47.852,-34.180,-28.809,-59.082,0.000
1714024299.532,-39.062,-39.551,-36.621,-47.363,0.000
1714024299.536,-34.180,-29.297,-31.738,-42.480,0.000
1714024299.539,-26.855,-14.648,-33.203,-40.039,0.000
1714024299.543,-18.066,-20.020,-38.574,-32.227,0.000
1714024299.547,-12.207,-27.832,-38.574,-27.832,0.000
1714024299.551,-10.742,-32.227,-27.344,-27.832,0.000
1714024299.555,-17.578,-34.180,-28.809,-29.785,0.000
1714024299.559,-22.461,-37.109,-42.480,-31.250,0.000
1714024299.563,-20.996,-34.180,-41.016,-28.809,0.000
1714024299.567,-17.578,-23.438,-36.133,-26.367,0.000
1714024299.571,-8.789,-12.207,-30.762,-17.578,0.000
1714024299.575,-10.254,-21.973,-40.039,-11.230,0.000
1714024299.578,-24.414,-27.344,-47.363,-24.902,0.000
1714024299.582,-22.461,-17.090,-21.484,-31.738,0.000
1714024299.586,-25.391,-22.949,-26.367,-36.133,0.000
1714024299.590,-41.992,-30.762,-36.133,-52.734,0.000
1714024299.594,-56.641,-29.297,-29.297,-67.383,0.000
1714024299.598,-63.965,-26.367,-29.785,-78.125,0.000
1714024299.602,-79.102,-26.367,-25.391,-92.773,0.000
1714024299.606,-100.098,-27.832,-18.066,-111.328,0.000
1714024299.610,-106.934,-24.902,-12.695,-117.676,0.000
1714024299.613,-110.840,-24.902,-8.789,-121.582,0.000
1714024299.617,-113.281,-24.902,-8.789,-123.535,0.000
1714024299.621,-111.816,-20.996,-10.742,-121.094,0.000
1714024299.625,-105.957,-12.695,-5.859,-122.070,0.000
1714024299.629,-100.098,-7.324,0.488,-117.188,0.000
1714024299.633,-97.168,-2.441,0.000,-113.281,0.000
1714024299.637,-96.680,-4.395,3.906,-109.863,0.000
1714024299.640,-96.680,-14.160,5.859,-99.121,0.000
1714024299.644,-94.727,-17.090,-4.395,-93.262,0.000
1714024299.648,-81.543,-15.137,-17.578,-89.844,0.000
1714024299.652,-72.754,-15.625,-23.926,-81.543,0.000
1714024299.656,-72.754,-26.855,-25.391,-79.102,0.000
1714024299.660,-62.012,-25.391,-26.855,-73.242,0.000
1714024299.664,-47.852,-19.043,-21.484,-56.641,0.000
1714024299.668,-41.504,-27.344,-17.578,-49.805,0.000
1714024299.672,-37.109,-26.855,-23.438,-41.504,0.000
1714024299.676,-33.203,-23.438,-31.738,-35.645,0.000
1714024299.679,-25.879,-25.879,-32.227,-32.227,0.000
1714024299.683,-18.066,-29.297,-30.273,-21.973,0.000
1714024299.687,-12.695,-29.785,-41.504,-20.020,0.000
1714024299.691,-10.254,-30.273,-47.363,-20.508,0.000
1714024299.695,0.000,-27.832,-38.086,-9.766,0.000
1714024299.699,3.906,-23.438,-37.109,-6.836,0.000
1714024299.702,-0.977,-23.926,-39.551,-10.254,0.000
1714024299.706,0.000,-28.320,-44.922,-2.930,0.000
1714024299.710,14.648,-26.855,-50.781,11.230,0.000
1714024299.714,24.414,-25.391,-42.480,9.277,0.000
1714024299.718,14.648,-30.273,-48.828,1.465,0.000
1714024299.722,14.160,-27.344,-54.688,7.812,0.000
1714024299.726,20.996,-24.414,-43.457,13.184,0.000
1714024299.730,18.066,-27.832,-42.480,8.301,0.000
1714024299.734,20.020,-29.785,-41.992,0.977,0.000
1714024299.738,21.484,-26.367,-37.598,7.812,0.000
1714024299.742,14.160,-28.809,-42.969,13.184,0.000
1714024299.746,16.602,-28.809,-48.340,6.836,0.000
1714024299.750,18.555,-29.785,-45.410,5.859,0.000
1714024299.754,14.160,-31.250,-36.621,13.184,0.000
1714024299.758,10.742,-25.879,-33.691,13.672,0.000
1714024299.762,8.789,-21.484,-41.016,4.883,0.000
1714024299.766,12.695,-18.066,-41.016,-1.465,0.000
1714024299.769,6.348,-21.484,-35.645,1.465,0.000
1714024299.773,-1.465,-32.227,-41.016,0.488,0.000
1714024299.777,2.930,-29.785,-42.969,0.977,0.000
1714024299.782,3.418,-20.508,-46.387,-2.441,0.000
1714024299.785,-3.906,-21.973,-41.992,-5.371,0.000
1714024299.789,-2.930,-21.973,-28.320,3.906,0.000
1714024299.793,-3.906,-25.391,-37.598,0.488,0.000
1714024299.797,-13.672,-29.785,-54.688,-8.789,0.000
1714024299.801,-10.742,-26.367,-46.875,-7.324,0.000
1714024299.805,-5.371,-25.879,-37.109,-3.418,0.000
1714024299.809,-8.301,-30.273,-41.504,-4.883,0.000
1714024299.813,-5.859,-28.320,-41.504,-9.766,0.000
1714024299.817,-1.953,-20.996,-34.668,-4.883,0.000
1714024299.821,-3.418,-16.602,-29.297,-13.672,0.000
1714024299.824,-10.742,-24.414,-35.645,-27.832,0.000
1714024299.829,-6.836,-28.809,-40.527,-20.508,0.000
1714024299.833,-8.789,-23.438,-40.039,-17.090,0.000
1714024299.837,-15.625,-24.902,-36.621,-22.949,0.000
1714024299.840,-13.672,-32.715,-32.715,-22.461,0.000
1714024299.844,-5.371,-30.273,-32.715,-17.090,0.000
1714024299.848,0.488,-23.438,-31.738,-19.531,0.000
1714024299.852,-8.301,-30.762,-39.062,-32.227,0.000
1714024299.856,-12.695,-38.574,-41.992,-30.762,0.000
1714024299.860,-2.441,-32.227,-32.715,-14.160,0.000
1714024299.864,1.465,-24.902,-22.461,-10.742,0.000
1714024299.868,-5.859,-26.367,-25.879,-18.066,0.000
1714024299.872,-5.371,-29.297,-27.832,-13.184,0.000
1714024299.876,-4.883,-33.691,-25.391,-13.672,0.000
1714024299.880,-9.766,-30.273,-35.645,-23.438,0.000
1714024299.883,-12.695,-29.785,-39.062,-26.855,0.000
1714024299.887,-15.625,-30.762,-36.133,-24.414,0.000
1714024299.891,-14.160,-24.414,-37.109,-16.602,0.000
1714024299.895,-15.137,-29.785,-38.574,-20.020,0.000
1714024299.899,-9.277,-26.367,-34.180,-31.738,0.000
1714024299.903,-8.789,-24.902,-28.809,-28.320,0.000
1714024299.907,-17.090,-31.738,-37.109,-20.996,0.000
1714024299.911,-20.020,-24.902,-47.363,-30.273,0.000
1714024299.915,-17.090,-17.090,-45.898,-32.227,0.000
1714024299.919,-18.555,-20.508,-43.945,-31.250,0.000
1714024299.922,-21.973,-25.879,-39.062,-38.086,0.000
1714024299.926,-21.973,-22.949,-33.691,-35.156,0.000
1714024299.930,-11.230,-12.695,-26.855,-23.438,0.000
1714024299.934,-13.184,-22.461,-26.367,-32.227,0.000
1714024299.938,-24.902,-27.832,-33.691,-43.457,0.000
1714024299.942,-28.320,-23.926,-40.039,-39.062,0.000
1714024299.946,-27.832,-26.855,-43.457,-36.621,0.000
1714024299.950,-23.926,-27.344,-39.062,-34.180,0.000
1714024299.954,-29.785,-21.484,-30.273,-38.574,0.000
1714024299.958,-28.320,-19.043,-16.602,-31.250,0.000
1714024299.961,-20.020,-21.973,-12.207,-21.973,0.000
1714024299.965,-20.996,-16.602,-19.531,-29.785,0.000
1714024299.969,-19.043,-16.602,-28.809,-35.156,0.000
1714024299.973,-16.602,-18.066,-41.016,-35.156,0.000
1714024299.977,-13.672,-17.090,-39.551,-37.598,0.000
1714024299.981,-7.324,-22.461,-33.203,-41.504,0.000
1714024299.985,-2.441,-24.414,-30.762,-37.598,0.000
1714024299.989,-0.488,-18.066,-22.949,-36.133,0.000
1714024299.993,-0.977,-18.555,-20.020,-32.715,0.000
1714024299.996,0.977,-20.020,-25.879,-20.020,0.000
1714024300.000,-5.371,-12.695,-31.738,-26.855,0.000
1714024300.004,-17.578,-18.066,-35.156,-36.621,0.000
1714024300.008,-20.508,-26.367,-34.668,-29.785,0.000
1714024300.012,-19.043,-25.391,-27.344,-25.391,0.000
1714024300.016,-20.020,-24.414,-15.137,-27.344,0.000
1714024300.020,-25.879,-30.762,-23.438,-29.297,0.000
1714024300.023,-32.715,-36.621,-40.039,-36.133,0.000
1714024300.027,-32.715,-29.785,-38.086,-40.039,0.000
1714024300.031,-26.367,-28.809,-41.016,-38.574,0.000
1714024300.035,-22.949,-26.855,-40.039,-38.086,0.000
1714024300.039,-13.672,-13.672,-25.391,-23.438,0.000
1714024300.043,-20.508,-21.484,-27.344,-23.438,0.000
1714024300.047,-33.203,-29.785,-31.738,-40.527,0.000
1714024300.051,-34.668,-23.438,-36.133,-42.969,0.000
1714024300.055,-35.156,-21.973,-41.992,-38.086,0.000
1714024300.059,-31.738,-27.832,-38.574,-30.273,0.000
1714024300.062,-28.809,-32.715,-35.156,-31.250,0.000
1714024300.066,-24.902,-33.691,-38.086,-38.086,0.000
1714024300.070,-23.438,-32.227,-30.762,-36.621,0.000
1714024300.074,-30.762,-37.598,-22.461,-35.156,0.000
1714024300.078,-33.691,-36.133,-27.832,-37.598,0.000
1714024300.082,-32.715,-36.133,-32.715,-42.480,0.000
1714024300.085,-32.227,-36.621,-34.180,-36.621,0.000
1714024300.089,-35.645,-27.344,-35.645,-39.062,0.000
1714024300.093,-38.086,-21.484,-41.016,-37.109,0.000
1714024300.097,-28.809,-23.438,-36.621,-27.344,0.000
1714024300.101,-25.391,-28.809,-36.133,-30.273,0.000
1714024300.105,-32.227,-34.668,-41.504,-34.668,0.000
1714024300.109,-35.645,-39.062,-35.156,-38.086,0.000
1714024300.113,-33.203,-41.016,-37.598,-41.016,0.000
1714024300.117,-31.738,-37.598,-39.062,-44.922,0.000
1714024300.121,-37.598,-30.273,-31.250,-47.852,0.000
1714024300.125,-35.156,-25.879,-25.879,-41.504,0.000
1714024300.129,-28.320,-31.738,-21.484,-30.762,0.000
1714024300.133,-30.762,-29.785,-28.809,-39.062,0.000
1714024300.137,-33.203,-23.438,-35.156,-45.898,0.000
1714024300.141,-37.109,-27.344,-29.297,-39.551,0.000
1714024300.145,-36.621,-30.762,-33.691,-35.645,0.000
1714024300.149,-32.715,-27.832,-35.156,-41.992,0.000
1714024300.152,-36.621,-25.879,-27.832,-48.340,0.000
1714024300.157,-36.133,-20.996,-24.902,-49.316,0.000
1714024300.161,-32.227,-15.137,-25.391,-50.781,0.000
1714024300.165,-25.879,-17.090,-29.297,-45.898,0.000
1714024300.168,-21.973,-20.996,-27.344,-42.480,0.000
1714024300.172,-25.879,-25.879,-24.414,-41.016,0.000
1714024300.176,-33.691,-29.785,-31.738,-45.410,0.000
1714024300.180,-34.668,-27.344,-34.180,-50.781,0.000
1714024300.184,-27.832,-23.438,-28.809,-52.734,0.000
1714024300.188,-23.438,-22.461,-20.508,-53.223,0.000
1714024300.192,-25.391,-22.949,-22.461,-44.922,0.000
1714024300.196,-27.344,-25.879,-36.621,-54.199,0.000
1714024300.200,-27.344,-33.691,-41.992,-67.383,0.000
1714024300.204,-26.367,-32.227,-36.133,-64.453,0.000
1714024300.208,-21.973,-20.508,-32.715,-51.270,0.000
1714024300.212,-15.137,-15.137,-31.250,-50.293,0.000
1714024300.216,-13.184,-14.648,-22.461,-48.828,0.000
1714024300.219,-17.090,-21.484,-19.531,-47.852,0.000
1714024300.223,-20.508,-23.438,-25.879,-47.852,0.000
1714024300.227,-26.855,-22.461,-32.715,-51.758,0.000
1714024300.231,-18.555,-22.949,-34.668,-57.129,0.000
1714024300.235,-10.742,-27.344,-30.762,-49.316,0.000
1714024300.239,-20.020,-29.297,-33.691,-53.223,0.000
1714024300.243,-22.461,-30.762,-34.668,-58.594,0.000
1714024300.247,-16.602,-29.297,-24.414,-47.363,0.000
1714024300.251,-15.625,-20.020,-20.020,-42.969,0.000
1714024300.255,-17.578,-21.484,-18.555,-48.340,0.000
1714024300.258,-28.809,-33.203,-18.555,-48.340,0.000
1714024300.262,-32.715,-35.645,-32.227,-46.875,0.000
1714024300.266,-27.344,-25.391,-41.016,-47.852,0.000
1714024300.270,-28.809,-21.973,-33.203,-45.898,0.000
1714024300.274,-26.367,-25.879,-22.949,-40.527,0.000
1714024300.278,-19.043,-26.367,-20.508,-34.180,0.000
1714024300.282,-19.531,-23.438,-23.926,-28.809,0.000
1714024300.286,-22.461,-19.531,-27.344,-37.109,0.000
1714024300.290,-22.461,-20.996,-27.344,-34.668,0.000
1714024300.294,-24.414,-28.809,-27.832,-35.645,0.000
1714024300.297,-23.438,-30.762,-36.621,-41.504,0.000
1714024300.301,-19.531,-16.602,-38.574,-30.762,0.000
1714024300.305,-21.484,-14.160,-37.598,-25.879,0.000
1714024300.309,-20.996,-25.391,-27.832,-26.367,0.000
1714024300.313,-19.043,-28.320,-21.484,-27.344,0.000
1714024300.317,-25.879,-30.762,-33.203,-38.574,0.000
1714024300.321,-29.297,-29.785,-33.203,-41.016,0.000
1714024300.325,-28.809,-24.902,-30.273,-33.691,0.000
1714024300.329,-30.273,-26.367,-34.668,-37.598,0.000
1714024300.333,-28.320,-27.832,-37.109,-49.316,0.000
1714024300.336,-29.297,-29.297,-36.621,-47.363,0.000
1714024300.340,-28.320,-25.391,-33.691,-35.156,0.000
1714024300.344,-29.297,-20.508,-23.926,-29.297,0.000
1714024300.348,-28.809,-26.855,-14.648,-30.762,0.000
1714024300.352,-22.461,-25.879,-15.625,-29.297,0.000
1714024300.356,-23.438,-19.043,-19.043,-29.297,0.000
1714024300.360,-26.855,-23.926,-22.949,-25.879,0.000
1714024300.364,-22.461,-23.438,-27.832,-24.902,0.000
1714024300.368,-24.902,-24.902,-28.320,-27.832,0.000
1714024300.371,-31.738,-27.344,-28.320,-24.414,0.000
1714024300.375,-21.973,-19.531,-16.602,-21.973,0.000
1714024300.379,-11.719,-13.672,-7.324,-19.531,0.000
1714024300.383,-18.555,-21.484,-11.719,-24.902,0.000
1714024300.387,-22.949,-29.297,-16.113,-29.297,0.000
1714024300.391,-19.531,-28.320,-16.602,-27.344,0.000
1714024300.395,-24.414,-34.180,-21.973,-29.297,0.000
1714024300.398,-21.484,-32.227,-27.832,-23.926,0.000
1714024300.402,-4.883,-23.438,-25.879,-16.113,0.000
1714024300.406,-9.277,-20.996,-21.484,-20.508,0.000
1714024300.410,-19.043,-20.020,-14.160,-29.785,0.000
1714024300.414,-19.531,-25.879,-14.160,-28.320,0.000
1714024300.418,-27.832,-32.227,-15.137,-34.668,0.000
1714024300.422,-31.738,-34.180,-14.160,-41.016,0.000
1714024300.426,-27.832,-33.691,-20.508,-41.016,0.000
1714024300.430,-25.391,-32.715,-30.762,-42.480,0.000
1714024300.434,-20.020,-34.668,-36.133,-44.434,0.000
1714024300.437,-19.531,-29.785,-35.645,-42.480,0.000
1714024300.441,-20.508,-28.320,-34.180,-33.203,0.000
1714024300.445,-22.949,-24.414,-33.203,-34.668,0.000
1714024300.449,-23.926,-18.555,-26.855,-40.527,0.000
1714024300.453,-20.996,-16.113,-18.066,-38.574,0.000
1714024300.457,-19.043,-18.555,-23.438,-34.668,0.000
1714024300.461,-24.902,-25.391,-31.738,-32.715,0.000
1714024300.464,-31.738,-24.902,-31.738,-40.527,0.000
1714024300.468,-25.879,-20.996,-34.668,-40.039,0.000
1714024300.472,-18.066,-22.461,-41.504,-30.273,0.000
1714024300.476,-20.020,-24.414,-31.250,-26.855,0.000
1714024300.480,-18.066,-17.578,-17.578,-28.809,0.000
1714024300.485,-18.555,-20.996,-24.414,-28.809,0.000
1714024300.488,-22.461,-27.832,-35.156,-26.367,0.000
1714024300.492,-19.531,-23.926,-29.297,-29.297,0.000
1714024300.496,-19.043,-23.438,-23.438,-34.180,0.000
1714024300.500,-25.879,-28.320,-32.227,-41.504,0.000
1714024300.504,-28.320,-29.785,-40.527,-43.457,0.000
1714024300.508,-24.414,-29.297,-39.551,-33.691,0.000
1714024300.512,-25.391,-25.391,-25.879,-31.250,0.000
1714024300.516,-26.855,-26.855,-17.090,-32.227,0.000
1714024300.520,-30.762,-30.762,-34.668,-36.621,0.000
1714024300.524,-34.668,-35.156,-49.316,-44.922,0.000
1714024300.527,-34.180,-40.039,-39.551,-35.156,0.000
1714024300.532,-27.344,-36.133,-32.227,-31.250,0.000
1714024300.536,-24.414,-32.715,-39.062,-35.645,0.000
1714024300.540,-26.855,-31.738,-40.039,-25.879,0.000
1714024300.544,-23.438,-25.879,-32.715,-23.438,0.000
1714024300.547,-19.531,-24.902,-23.926,-30.762,0.000
1714024300.551,-31.250,-35.156,-28.320,-39.551,0.000
1714024300.555,-35.645,-33.691,-38.086,-38.086,0.000
1714024300.559,-28.320,-22.949,-35.156,-37.109,0.000
1714024300.563,-29.297,-27.832,-33.691,-40.039,0.000
1714024300.567,-34.180,-34.668,-40.527,-43.945,0.000
1714024300.571,-33.691,-27.832,-30.762,-48.340,0.000
1714024300.575,-31.250,-20.508,-20.996,-44.922,0.000
1714024300.579,-29.297,-26.367,-24.414,-40.527,0.000
1714024300.583,-35.156,-32.227,-32.227,-49.805,0.000
1714024300.587,-36.621,-32.715,-37.109,-52.734,0.000
1714024300.591,-32.227,-34.668,-32.227,-49.805,0.000
1714024300.594,-23.926,-37.598,-31.250,-44.922,0.000
1714024300.598,-20.996,-34.668,-30.762,-41.504,0.000
1714024300.602,-30.762,-35.156,-26.367,-51.270,0.000
1714024300.606,-35.156,-32.715,-26.855,-56.152,0.000
1714024300.610,-35.645,-31.738,-26.855,-50.781,0.000
1714024300.614,-32.227,-36.621,-26.855,-48.828,0.000
1714024300.618,-31.738,-28.320,-36.621,-58.594,0.000
1714024300.622,-36.621,-30.762,-40.527,-55.176,0.000
1714024300.626,-31.738,-37.109,-36.621,-39.551,0.000
1714024300.630,-26.367,-32.227,-35.156,-41.016,0.000
1714024300.634,-26.367,-28.809,-26.367,-40.527,0.000
1714024300.637,-23.926,-24.414,-20.020,-36.133,0.000
1714024300.641,-24.414,-20.996,-24.414,-28.809,0.000
1714024300.645,-23.926,-24.414,-29.297,-24.414,0.000
1714024300.649,-20.996,-24.414,-30.762,-36.133,0.000
1714024300.653,-24.902,-26.367,-31.250,-42.969,0.000
1714024300.657,-30.273,-32.227,-30.273,-30.762,0.000
1714024300.661,-31.250,-20.996,-24.902,-30.762,0.000
1714024300.665,-27.344,-21.484,-19.531,-29.297,0.000
1714024300.669,-24.414,-27.344,-14.160,-25.879,0.000
1714024300.673,-29.297,-19.531,-15.625,-31.738,0.000
1714024300.676,-29.785,-23.926,-27.344,-32.227,0.000
1714024300.680,-25.879,-27.344,-31.738,-28.809,0.000
1714024300.684,-26.367,-27.344,-23.438,-25.879,0.000
1714024300.688,-29.785,-26.855,-21.973,-27.832,0.000
1714024300.692,-30.273,-24.902,-27.832,-27.832,0.000
1714024300.696,-23.438,-21.973,-29.785,-23.438,0.000
1714024300.700,-21.484,-26.367,-33.691,-22.949,0.000
1714024300.704,-30.762,-32.227,-24.902,-29.297,0.000
1714024300.708,-33.203,-33.203,-20.996,-36.133,0.000
1714024300.712,-26.855,-31.738,-32.715,-33.691,0.000
1714024300.715,-32.227,-32.227,-36.621,-38.086,0.000
1714024300.719,-39.551,-35.645,-32.715,-45.898,0.000
1714024300.723,-33.203,-35.156,-29.785,-41.504,0.000
1714024300.727,-26.855,-26.367,-37.109,-34.180,0.000
1714024300.731,-24.414,-19.531,-34.180,-32.715,0.000
1714024300.735,-20.508,-20.508,-21.973,-31.738,0.000
1714024300.739,-29.297,-26.855,-27.344,-40.039,0.000
1714024300.743,-36.133,-30.762,-40.527,-42.480,0.000
1714024300.747,-34.180,-34.668,-38.086,-31.250,0.000
1714024300.750,-30.273,-31.250,-27.344,-36.133,0.000
1714024300.754,-28.320,-23.438,-24.902,-46.875,0.000
1714024300.758,-25.391,-25.879,-23.926,-45.410,0.000
1714024300.762,-14.160,-24.902,-20.020,-44.434,0.000
1714024300.766,-2.930,-16.113,-22.949,-43.945,0.000
1714024300.770,-2.930,-15.625,-31.250,-46.387,0.000
1714024300.774,-9.766,-24.414,-39.062,-45.898,0.000
1714024300.777,-10.742,-29.297,-39.551,-37.598,0.000
1714024300.781,-20.508,-28.320,-33.203,-35.156,0.000
1714024300.785,-27.344,-24.414,-30.762,-34.180,0.000
1714024300.789,-30.762,-25.391,-37.598,-26.367,0.000
1714024300.793,-36.133,-26.367,-28.809,-23.438,0.000
1714024300.797,-31.738,-24.414,-15.137,-28.320,0.000
1714024300.801,-30.273,-19.531,-20.996,-37.598,0.000
1714024300.805,-38.574,-20.996,-32.227,-43.457,0.000
1714024300.809,-41.016,-27.832,-35.156,-41.992,0.000
1714024300.812,-35.156,-24.414,-29.785,-36.133,0.000
1714024300.816,-37.598,-23.438,-27.832,-44.922,0.000
1714024300.820,-42.480,-27.832,-26.367,-54.199,0.000
1714024300.824,-36.621,-22.949,-23.926,-41.504,0.000
1714024300.828,-31.738,-19.531,-26.855,-33.691,0.000
1714024300.832,-34.180,-21.484,-30.762,-37.598,0.000
1714024300.836,-33.203,-18.066,-28.809,-40.039,0.000
1714024300.840,-35.645,-13.184,-24.902,-41.016,0.000
1714024300.843,-35.645,-17.578,-33.203,-40.527,0.000
1714024300.847,-32.715,-16.113,-36.133,-40.527,0.000
1714024300.851,-35.645,-15.625,-34.180,-40.039,0.000
1714024300.855,-32.715,-18.066,-29.785,-38.086,0.000
1714024300.860,-27.344,-23.926,-32.227,-35.156,0.000
1714024300.864,-27.832,-29.785,-40.039,-34.180,0.000
1714024300.867,-30.273,-27.344,-34.668,-40.527,0.000
1714024300.871,-32.715,-26.367,-20.508,-39.062,0.000
1714024300.875,-36.621,-21.484,-21.973,-28.320,0.000
1714024300.879,-38.574,-16.113,-30.273,-30.762,0.000
1714024300.883,-35.156,-23.926,-31.250,-39.551,0.000
1714024300.887,-32.227,-27.344,-32.715,-37.109,0.000
1714024300.891,-36.621,-26.855,-29.297,-32.715,0.000
1714024300.895,-32.715,-29.785,-26.367,-26.855,0.000
1714024300.899,-30.273,-25.879,-24.902,-34.180,0.000
1714024300.903,-33.691,-25.879,-28.320,-44.922,0.000
1714024300.907,-28.320,-25.391,-23.438,-33.203,0.000
1714024300.911,-28.320,-24.414,-13.672,-28.320,0.000
1714024300.915,-30.762,-26.367,-16.113,-38.086,0.000
1714024300.919,-36.133,-31.250,-25.391,-42.480,0.000
1714024300.923,-35.645,-27.344,-33.691,-36.621,0.000
1714024300.926,-34.668,-27.832,-32.227,-38.086,0.000
1714024300.930,-35.156,-32.715,-28.320,-41.016,0.000
1714024300.934,-30.273,-29.297,-27.344,-34.668,0.000
1714024300.938,-33.691,-26.367,-26.367,-25.879,0.000
1714024300.942,-35.645,-25.391,-28.320,-19.531,0.000
1714024300.946,-34.668,-20.020,-27.344,-21.484,0.000
1714024300.950,-30.762,-15.625,-18.066,-26.855,0.000
1714024300.954,-31.738,-18.555,-13.672,-32.715,0.000
1714024300.958,-34.668,-24.414,-16.602,-30.273,0.000
1714024300.962,-36.133,-23.926,-28.320,-31.738,0.000
1714024300.966,-41.504,-23.926,-33.203,-39.551,0.000
1714024300.970,-36.133,-26.367,-24.902,-43.457,0.000
1714024300.973,-30.762,-24.902,-23.438,-40.527,0.000
1714024300.977,-28.809,-24.414,-23.438,-39.062,0.000
1714024300.981,-21.973,-21.484,-21.973,-36.621,0.000
1714024300.985,-22.461,-20.508,-17.578,-37.598,0.000
1714024300.989,-35.156,-26.367,-13.184,-48.828,0.000
1714024300.993,-30.762,-22.461,-14.648,-46.875,0.000
1714024300.997,-23.926,-17.090,-20.508,-40.039,0.000
1714024301.001,-27.344,-22.949,-30.762,-44.434,0.000
1714024301.005,-33.203,-27.832,-30.273,-48.828,0.000
1714024301.009,-33.691,-28.809,-24.414,-41.016,0.000
1714024301.013,-26.855,-27.344,-26.367,-34.668,0.000
1714024301.017,-30.273,-28.809,-22.461,-39.551,0.000
1714024301.020,-35.645,-26.855,-14.160,-42.969,0.000
1714024301.024,-27.832,-23.926,-13.672,-42.969,0.000
1714024301.028,-20.508,-24.902,-14.160,-39.551,0.000
1714024301.032,-22.461,-26.367,-23.926,-41.992,0.000
1714024301.036,-29.297,-21.973,-30.273,-53.711,0.000
1714024301.040,-30.762,-26.367,-27.832,-54.688,0.000
1714024301.044,-30.273,-33.691,-23.926,-53.711,0.000
1714024301.048,-37.109,-41.016,-24.414,-58.594,0.000
1714024301.052,-41.992,-41.504,-28.320,-62.988,0.000
1714024301.056,-31.738,-35.645,-27.832,-62.012,0.000
1714024301.059,-30.273,-39.062,-22.461,-52.734,0.000
1714024301.063,-30.762,-34.668,-15.137,-50.293,0.000
1714024301.067,-30.762,-25.391,-18.555,-55.664,0.000
1714024301.071,-38.574,-26.855,-20.508,-57.617,0.000
1714024301.075,-39.551,-31.738,-25.391,-53.711,0.000
1714024301.079,-38.574,-27.832,-30.273,-52.734,0.000
1714024301.083,-38.086,-24.902,-30.273,-59.082,0.000
1714024301.087,-36.621,-24.902,-27.832,-59.082,0.000
1714024301.091,-36.621,-22.949,-24.902,-49.316,0.000
1714024301.094,-34.668,-27.344,-24.902,-45.898,0.000
1714024301.098,-31.250,-27.832,-26.855,-49.805,0.000
1714024301.102,-34.668,-23.438,-23.926,-51.270,0.000
1714024301.106,-33.203,-18.555,-14.160,-44.434,0.000
1714024301.110,-25.391,-19.531,-22.949,-41.504,0.000
1714024301.114,-31.250,-27.832,-39.551,-49.316,0.000
1714024301.118,-32.227,-28.809,-43.945,-57.129,0.000
1714024301.122,-21.973,-23.926,-42.969,-46.875,0.000
1714024301.126,-24.414,-22.461,-34.180,-45.898,0.000
1714024301.130,-31.738,-25.391,-29.785,-50.293,0.000
1714024301.133,-28.809,-30.273,-31.738,-49.805,0.000
1714024301.137,-16.602,-29.297,-32.715,-42.969,0.000
1714024301.141,-12.695,-22.949,-18.555,-34.668,0.000
1714024301.145,-26.367,-23.438,-19.531,-52.734,0.000
1714024301.149,-32.227,-24.902,-38.574,-64.453,0.000
1714024301.153,-34.180,-31.250,-39.062,-63.477,0.000
1714024301.157,-34.668,-31.738,-43.945,-62.500,0.000
1714024301.160,-36.621,-29.297,-48.340,-60.059,0.000
1714024301.164,-39.551,-31.250,-39.062,-59.082,0.000
1714024301.168,-40.039,-29.297,-33.203,-58.594,0.000
1714024301.172,-40.039,-25.391,-34.668,-60.059,0.000
1714024301.176,-31.250,-21.484,-28.320,-52.246,0.000
1714024301.180,-23.438,-21.484,-19.531,-43.457,0.000
1714024301.184,-24.902,-20.020,-19.043,-49.805,0.000
1714024301.187,-31.250,-20.996,-27.344,-60.059,0.000
1714024301.191,-37.598,-29.297,-36.133,-60.547,0.000
1714024301.195,-42.480,-39.062,-40.527,-61.035,0.000
1714024301.199,-41.504,-41.016,-43.945,-68.848,0.000
1714024301.203,-36.621,-36.133,-41.992,-69.336,0.000
1714024301.207,-34.180,-35.156,-39.062,-65.918,0.000
1714024301.211,-33.691,-31.250,-35.645,-64.453,0.000
1714024301.215,-30.273,-23.926,-29.785,-66.406,0.000
1714024301.219,-24.414,-21.973,-24.414,-68.359,0.000
1714024301.222,-20.996,-23.926,-19.043,-53.711,0.000
1714024301.226,-22.461,-16.602,-20.996,-44.922,0.000
1714024301.230,-31.738,-15.137,-31.250,-59.570,0.000
1714024301.235,-27.832,-26.367,-38.086,-64.453,0.000
1714024301.239,-26.855,-34.668,-40.039,-61.035,0.000
1714024301.243,-35.645,-36.621,-38.574,-64.941,0.000
1714024301.246,-32.227,-35.645,-28.320,-68.359,0.000
1714024301.250,-25.879,-36.133,-17.578,-64.453,0.000
1714024301.254,-28.320,-36.621,-27.344,-64.453,0.000
1714024301.258,-25.879,-28.320,-36.621,-63.965,0.000
1714024301.262,-20.996,-21.484,-26.855,-62.988,0.000
1714024301.266,-22.949,-24.414,-20.996,-63.477,0.000
1714024301.270,-20.996,-28.320,-30.762,-55.176,0.000
1714024301.274,-24.902,-26.855,-32.715,-55.664,0.000
1714024301.278,-31.738,-29.297,-32.715,-63.477,0.000
1714024301.282,-31.250,-32.227,-37.598,-59.082,0.000
1714024301.286,-29.297,-27.344,-33.203,-58.105,0.000
1714024301.290,-30.273,-24.414,-20.508,-60.547,0.000
1714024301.294,-30.273,-28.809,-23.926,-58.594,0.000
1714024301.298,-27.344,-33.203,-29.297,-60.547,0.000
1714024301.301,-22.949,-25.391,-22.461,-61.523,0.000
1714024301.305,-27.832,-19.043,-30.273,-67.871,0.000
1714024301.309,-32.715,-26.367,-34.668,-70.312,0.000
1714024301.313,-29.785,-36.133,-30.762,-64.941,0.000
1714024301.317,-36.133,-36.621,-35.156,-65.918,0.000
1714024301.321,-37.109,-25.879,-30.762,-70.801,0.000
1714024301.325,-31.250,-24.902,-20.020,-67.383,0.000
1714024301.329,-28.320,-29.297,-15.625,-63.477,0.000
1714024301.333,-31.250,-30.762,-18.066,-70.312,0.000
1714024301.337,-33.691,-29.785,-18.066,-68.848,0.000
1714024301.341,-32.227,-22.461,-23.438,-62.012,0.000
1714024301.345,-32.715,-24.414,-33.203,-61.523,0.000
1714024301.349,-33.203,-31.738,-35.156,-61.523,0.000
1714024301.352,-31.250,-33.691,-31.250,-66.895,0.000
1714024301.356,-33.691,-30.273,-33.203,-75.195,0.000
1714024301.360,-37.598,-27.832,-31.738,-71.777,0.000
1714024301.364,-30.762,-28.809,-16.602,-65.918,0.000
1714024301.368,-24.414,-22.461,-15.625,-68.359,0.000
1714024301.372,-22.461,-21.973,-20.508,-69.336,0.000
1714024301.376,-29.785,-20.996,-21.484,-67.383,0.000
1714024301.380,-32.715,-16.602,-30.273,-63.965,0.000
1714024301.384,-28.809,-24.902,-36.133,-63.477,0.000
1714024301.388,-32.227,-26.367,-33.691,-65.918,0.000
1714024301.392,-35.645,-30.762,-32.227,-68.359,0.000
1714024301.395,-24.902,-34.668,-25.879,-59.082,0.000
1714024301.399,-21.973,-24.902,-23.438,-55.664,0.000
1714024301.403,-31.738,-20.996,-27.832,-56.641,0.000
1714024301.407,-35.645,-28.809,-23.438,-50.293,0.000
1714024301.411,-38.574,-30.273,-23.926,-60.547,0.000
1714024301.415,-32.715,-21.973,-26.367,-62.500,0.000
1714024301.419,-28.320,-21.484,-25.879,-59.570,0.000
1714024301.423,-27.344,-19.531,-20.508,-51.758,0.000
1714024301.427,-31.250,-19.043,-14.648,-44.434,0.000
1714024301.431,-30.762,-24.414,-18.555,-47.363,0.000
1714024301.434,-25.879,-25.879,-15.137,-48.828,0.000
1714024301.438,-29.785,-22.949,-7.324,-46.387,0.000
1714024301.442,-36.133,-20.020,-19.043,-54.688,0.000
1714024301.446,-32.227,-20.508,-27.344,-55.176,0.000
1714024301.450,-28.809,-18.555,-22.949,-48.340,0.000
1714024301.454,-37.109,-19.043,-24.902,-55.664,0.000
1714024301.458,-31.738,-21.484,-26.855,-54.199,0.000
1714024301.462,-27.344,-17.090,-21.973,-50.781,0.000
1714024301.466,-25.391,-21.973,-18.555,-56.641,0.000
1714024301.469,-22.949,-27.832,-20.508,-57.129,0.000
1714024301.473,-33.203,-31.250,-21.484,-60.059,0.000
1714024301.477,-34.180,-37.109,-23.438,-59.082,0.000
1714024301.481,-27.344,-31.738,-22.949,-54.199,0.000
1714024301.485,-26.855,-22.949,-24.902,-57.617,0.000
1714024301.489,-28.320,-22.949,-24.414,-54.688,0.000
1714024301.493,-29.785,-29.785,-21.973,-45.410,0.000
1714024301.497,-33.691,-34.180,-26.855,-41.992,0.000
1714024301.501,-36.133,-36.621,-31.738,-53.223,0.000
1714024301.505,-31.250,-36.621,-32.715,-56.641,0.000
1714024301.508,-33.203,-36.133,-36.621,-53.711,0.000
1714024301.512,-35.645,-35.645,-32.227,-54.199,0.000
1714024301.516,-27.832,-33.691,-21.973,-57.129,0.000
1714024301.520,-23.926,-37.598,-18.066,-55.664,0.000
1714024301.524,-18.555,-36.133,-24.414,-51.270,0.000
1714024301.528,-12.695,-21.973,-34.668,-55.664,0.000
1714024301.532,-15.137,-23.438,-28.809,-56.152,0.000
1714024301.535,-8.789,-34.180,-15.625,-53.223,0.000
1714024301.539,-11.230,-36.133,-23.438,-51.758,0.000
1714024301.543,-18.555,-36.621,-26.855,-52.246,0.000
1714024301.547,-22.461,-37.598,-21.973,-52.734,0.000
1714024301.551,-27.832,-35.156,-23.438,-55.664,0.000
1714024301.555,-32.715,-38.086,-21.973,-51.270,0.000
1714024301.559,-35.645,-33.691,-30.762,-46.387,0.000
1714024301.563,-35.156,-22.461,-32.227,-48.828,0.000
1714024301.567,-31.250,-21.973,-20.996,-55.664,0.000
1714024301.571,-32.715,-22.461,-18.555,-62.500,0.000
1714024301.575,-37.598,-24.414,-27.832,-61.035,0.000
1714024301.579,-38.086,-29.297,-31.250,-56.641,0.000
1714024301.583,-31.250,-31.738,-26.855,-56.641,0.000
1714024301.587,-32.227,-31.738,-27.832,-56.152,0.000
1714024301.591,-41.992,-26.367,-36.133,-60.059,0.000
1714024301.595,-36.133,-24.414,-31.738,-55.664,0.000
1714024301.599,-26.855,-26.367,-17.578,-55.176,0.000
1714024301.603,-28.320,-19.043,-22.949,-63.965,0.000
1714024301.606,-27.344,-19.043,-40.039,-60.547,0.000
1714024301.611,-27.832,-27.344,-38.574,-54.688,0.000
1714024301.615,-27.832,-25.879,-31.738,-51.758,0.000
1714024301.619,-24.414,-21.484,-28.320,-52.246,0.000
1714024301.623,-21.484,-21.484,-22.461,-51.270,0.000
1714024301.626,-19.531,-21.973,-19.531,-46.875,0.000
1714024301.630,-21.484,-24.414,-13.672,-46.387,0.000
1714024301.634,-16.113,-29.297,-20.996,-48.340,0.000
1714024301.638,-10.254,-26.855,-36.133,-46.387,0.000
1714024301.642,-17.578,-27.344,-35.156,-39.062,0.000
1714024301.646,-40.039,-36.133,-32.227,-54.199,0.000
1714024301.650,-44.434,-36.621,-29.297,-56.152,0.000
1714024301.654,-36.133,-36.621,-25.391,-48.340,0.000
1714024301.658,-34.668,-36.621,-27.832,-40.039,0.000
1714024301.662,-26.367,-28.320,-24.902,-34.180,0.000
1714024301.666,-23.438,-25.391,-17.090,-35.156,0.000
1714024301.670,-24.414,-22.949,-16.113,-32.715,0.000
1714024301.674,-23.438,-25.879,-18.555,-32.227,0.000
1714024301.678,-26.367,-26.855,-20.996,-36.621,0.000
1714024301.681,-29.785,-24.902,-22.461,-42.969,0.000
1714024301.685,-29.297,-24.414,-20.020,-44.922,0.000
1714024301.689,-28.320,-30.273,-19.531,-43.945,0.000
1714024301.693,-29.297,-31.738,-18.066,-38.574,0.000
1714024301.697,-31.250,-27.832,-19.043,-39.062,0.000
1714024301.701,-31.738,-23.926,-22.949,-48.340,0.000
1714024301.706,-36.133,-24.414,-24.414,-49.805,0.000
1714024301.710,-35.156,-33.691,-29.297,-41.992,0.000
1714024301.714,-37.109,-37.598,-30.273,-39.551,0.000
1714024301.718,-36.133,-31.250,-20.508,-42.480,0.000
1714024301.722,-30.273,-27.832,-20.508,-49.316,0.000
1714024301.726,-36.133,-34.180,-31.250,-57.129,0.000
1714024301.730,-38.086,-34.180,-30.273,-54.199,0.000
1714024301.733,-29.785,-27.832,-28.809,-53.711,0.000
1714024301.737,-25.391,-31.250,-36.621,-55.176,0.000
1714024301.741,-17.578,-22.461,-27.832,-44.922,0.000
1714024301.745,-7.812,-18.555,-15.137,-38.574,0.000
1714024301.749,-20.508,-29.297,-17.578,-41.016,0.000
1714024301.753,-23.438,-22.949,-21.973,-32.227,0.000
1714024301.757,-17.090,-19.043,-23.926,-30.273,0.000
1714024301.761,-17.578,-23.926,-32.715,-35.645,0.000
1714024301.765,-20.996,-25.391,-37.109,-37.598,0.000
1714024301.769,-22.461,-22.949,-34.668,-42.480,0.000
1714024301.772,-22.461,-18.555,-30.273,-35.645,0.000
1714024301.776,-22.949,-21.973,-26.367,-31.250,0.000
1714024301.780,-24.902,-26.855,-29.785,-35.156,0.000
1714024301.784,-24.414,-28.809,-24.414,-34.668,0.000
1714024301.788,-21.973,-25.879,-16.602,-37.598,0.000
1714024301.792,-24.414,-23.438,-21.973,-44.922,0.000
1714024301.796,-26.855,-26.367,-24.902,-41.504,0.000
1714024301.800,-30.273,-29.297,-28.809,-41.992,0.000
1714024301.803,-37.109,-33.203,-33.691,-61.035,0.000
1714024301.807,-40.527,-34.180,-32.715,-64.453,0.000
1714024301.811,-39.062,-33.691,-26.855,-52.734,0.000
1714024301.815,-35.645,-29.785,-20.508,-49.316,0.000
1714024301.819,-40.039,-30.273,-23.926,-53.223,0.000
1714024301.823,-48.828,-33.203,-36.621,-62.012,0.000
1714024301.827,-43.945,-25.879,-37.598,-56.641,0.000
1714024301.831,-36.133,-17.578,-30.273,-46.387,0.000
1714024301.835,-36.621,-20.996,-28.809,-53.223,0.000
1714024301.839,-36.621,-30.762,-35.156,-59.082,0.000
1714024301.843,-37.109,-32.227,-40.527,-58.594,0.000
1714024301.846,-35.645,-28.809,-35.156,-54.199,0.000
1714024301.850,-29.297,-24.902,-25.391,-48.828,0.000
1714024301.854,-25.391,-23.926,-22.461,-42.480,0.000
1714024301.858,-27.344,-23.926,-24.902,-40.039,0.000
1714024301.862,-30.273,-22.949,-22.461,-47.363,0.000
1714024301.866,-27.344,-21.973,-24.902,-45.898,0.000
1714024301.870,-21.973,-18.066,-32.715,-43.945,0.000
1714024301.873,-24.902,-22.461,-37.598,-41.992,0.000
1714024301.877,-26.855,-23.438,-28.320,-40.527,0.000
1714024301.881,-20.996,-22.949,-26.855,-41.992,0.000
1714024301.885,-17.090,-24.414,-28.320,-45.410,0.000
1714024301.889,-22.949,-25.391,-24.414,-48.828,0.000
1714024301.892,-24.902,-25.879,-23.926,-45.410,0.000
1714024301.896,-25.879,-29.785,-31.250,-37.598,0.000
1714024301.900,-21.484,-32.227,-35.645,-38.574,0.000
1714024301.904,-25.879,-27.344,-31.738,-42.480,0.000
1714024301.908,-31.738,-26.367,-28.320,-41.016,0.000
1714024301.912,-25.391,-23.438,-27.832,-38.574,0.000
1714024301.916,-28.320,-23.438,-26.855,-34.180,0.000
1714024301.920,-36.133,-25.879,-17.090,-34.180,0.000
1714024301.924,-38.574,-29.297,-15.625,-40.527,0.000
1714024301.928,-35.156,-31.738,-20.996,-35.645,0.000
1714024301.931,-33.203,-35.156,-25.879,-38.086,0.000
1714024301.935,-37.109,-40.527,-24.902,-46.387,0.000
1714024301.939,-38.086,-34.668,-20.020,-39.551,0.000
1714024301.943,-38.086,-28.809,-27.344,-37.598,0.000
1714024301.946,-40.039,-33.691,-35.645,-43.945,0.000
1714024301.950,-32.227,-30.273,-22.949,-40.039,0.000
1714024301.954,-27.832,-29.785,-15.137,-44.434,0.000
1714024301.958,-35.156,-42.969,-23.438,-43.457,0.000
1714024301.962,-38.574,-46.387,-26.367,-26.367,0.000
1714024301.966,-35.645,-33.691,-21.484,-38.086,0.000
1714024301.970,-34.180,-31.738,-22.461,-51.758,0.000
1714024301.974,-36.133,-37.109,-21.973,-38.086,0.000
1714024301.978,-38.574,-33.691,-23.438,-31.738,0.000
1714024301.982,-36.621,-25.879,-26.367,-36.621,0.000
1714024301.986,-36.621,-21.973,-28.809,-37.598,0.000
1714024301.990,-39.062,-24.902,-26.367,-34.668,0.000
1714024301.994,-32.227,-22.461,-21.484,-33.203,0.000
1714024301.998,-31.738,-22.461,-17.578,-39.551,0.000
1714024302.002,-34.180,-27.832,-24.902,-47.852,0.000
1714024302.006,-31.738,-29.785,-37.109,-48.340,0.000
1714024302.009,-25.879,-27.832,-32.227,-40.527,0.000
1714024302.013,-25.391,-28.809,-28.809,-41.016,0.000
1714024302.017,-29.297,-32.227,-35.156,-45.410,0.000
1714024302.021,-25.391,-27.832,-30.762,-41.504,0.000
1714024302.025,-23.926,-23.926,-24.414,-35.645,0.000
1714024302.029,-24.414,-24.414,-24.902,-36.621,0.000
1714024302.033,-24.902,-27.832,-23.438,-40.527,0.000
1714024302.037,-28.320,-25.391,-26.855,-45.410,0.000
1714024302.041,-28.809,-23.926,-29.297,-44.434,0.000
1714024302.045,-21.484,-29.297,-30.762,-42.480,0.000
1714024302.049,-24.414,-33.203,-36.621,-46.387,0.000
1714024302.053,-27.344,-30.762,-29.785,-47.852,0.000
1714024302.057,-28.809,-25.391,-19.043,-48.828,0.000
1714024302.061,-33.203,-19.531,-21.484,-45.898,0.000
1714024302.064,-26.855,-16.602,-23.926,-38.086,0.000
1714024302.068,-30.273,-25.879,-15.137,-37.598,0.000
1714024302.072,-38.086,-34.668,-9.766,-43.945,0.000
1714024302.076,-33.691,-31.250,-20.996,-41.992,0.000
1714024302.080,-33.203,-29.297,-30.762,-41.504,0.000
1714024302.084,-34.668,-33.691,-35.156,-49.316,0.000
1714024302.088,-32.715,-28.320,-29.297,-49.805,0.000
1714024302.092,-35.156,-27.832,-20.996,-47.363,0.000
1714024302.096,-35.645,-29.785,-30.273,-46.875,0.000
1714024302.100,-35.645,-28.809,-39.551,-45.410,0.000
1714024302.104,-34.668,-28.320,-33.691,-52.246,0.000
1714024302.108,-32.227,-27.344,-30.273,-50.781,0.000
1714024302.111,-29.297,-31.250,-29.297,-42.480,0.000
1714024302.115,-27.832,-33.203,-25.391,-50.781,0.000
1714024302.119,-31.250,-33.203,-24.902,-62.012,0.000
1714024302.123,-33.691,-29.785,-22.949,-55.176,0.000
1714024302.127,-26.367,-27.344,-22.461,-48.828,0.000
1714024302.131,-20.996,-28.320,-25.879,-43.945,0.000
1714024302.135,-28.320,-25.879,-33.203,-48.340,0.000
1714024302.139,-31.250,-26.367,-35.645,-53.223,0.000
1714024302.143,-27.832,-28.809,-29.785,-44.922,0.000
1714024302.147,-27.344,-31.250,-25.879,-46.387,0.000
1714024302.150,-24.414,-29.297,-25.879,-46.875,0.000
1714024302.154,-22.949,-26.855,-27.832,-47.363,0.000
1714024302.158,-25.879,-26.367,-30.273,-45.898,0.000
1714024302.162,-25.391,-22.461,-21.484,-45.410,0.000
1714024302.166,-21.484,-22.461,-20.020,-47.852,0.000
1714024302.170,-24.414,-19.531,-20.020,-52.734,0.000
1714024302.174,-22.949,-20.996,-16.113,-52.734,0.000
1714024302.178,-20.020,-20.020,-20.996,-46.875,0.000
1714024302.181,-22.949,-18.066,-27.832,-48.828,0.000
1714024302.185,-20.996,-26.367,-31.250,-45.898,0.000
1714024302.189,-22.949,-28.809,-32.715,-43.945,0.000
1714024302.193,-25.391,-24.414,-31.250,-43.945,0.000
1714024302.197,-23.438,-20.020,-24.414,-41.016,0.000
1714024302.201,-16.113,-19.531,-21.484,-34.668,0.000
1714024302.205,-20.996,-17.090,-17.578,-34.668,0.000
1714024302.209,-32.715,-19.043,-20.508,-43.457,0.000
1714024302.213,-35.645,-29.297,-36.133,-45.898,0.000
1714024302.217,-33.691,-23.926,-41.016,-47.363,0.000
1714024302.220,-30.273,-15.625,-33.203,-42.969,0.000
1714024302.224,-38.574,-29.785,-27.832,-41.016,0.000
1714024302.228,-46.875,-37.109,-29.785,-46.875,0.000
1714024302.232,-43.945,-31.250,-24.414,-48.828,0.000
1714024302.236,-35.645,-29.785,-15.625,-40.039,0.000
1714024302.240,-34.180,-35.645,-20.508,-37.598,0.000
1714024302.244,-36.621,-36.133,-26.855,-42.480,0.000
1714024302.248,-33.691,-31.250,-24.902,-40.039,0.000
1714024302.252,-34.180,-24.902,-26.855,-50.781,0.000
1714024302.255,-31.738,-25.879,-27.344,-54.199,0.000
1714024302.259,-31.250,-34.180,-22.949,-51.758,0.000
1714024302.263,-21.973,-29.297,-15.625,-45.898,0.000
1714024302.267,-16.602,-26.367,-4.883,-42.969,0.000
1714024302.271,-24.902,-24.902,-15.625,-50.293,0.000
1714024302.275,-18.066,-20.508,-30.762,-46.387,0.000
1714024302.278,-7.812,-19.531,-25.391,-37.598,0.000
1714024302.282,-12.207,-22.949,-22.949,-39.062,0.000
1714024302.286,-16.602,-27.344,-26.855,-41.992,0.000
1714024302.290,-22.949,-29.785,-32.227,-41.504,0.000
1714024302.294,-30.273,-29.785,-32.227,-47.363,0.000
1714024302.298,-29.297,-25.879,-30.762,-54.688,0.000
1714024302.302,-24.414,-22.949,-23.926,-52.734,0.000
1714024302.306,-31.738,-26.855,-25.391,-51.758,0.000
1714024302.310,-38.574,-31.250,-38.574,-57.129,0.000
1714024302.313,-36.133,-29.785,-39.062,-55.664,0.000
1714024302.317,-32.227,-20.508,-33.691,-50.781,0.000
1714024302.321,-33.203,-23.926,-36.133,-50.293,0.000
1714024302.325,-33.203,-28.809,-33.691,-49.805,0.000
1714024302.329,-25.391,-20.020,-20.020,-44.434,0.000
1714024302.333,-24.414,-23.438,-22.949,-45.898,0.000
1714024302.336,-26.367,-23.926,-38.086,-44.922,0.000
1714024302.340,-33.203,-21.484,-42.480,-53.711,0.000
1714024302.344,-29.297,-26.367,-33.691,-47.363,0.000
1714024302.348,-20.508,-29.785,-27.344,-42.969,0.000
1714024302.352,-21.973,-25.391,-20.996,-53.711,0.000
1714024302.356,-20.020,-17.578,-20.508,-51.758,0.000
1714024302.361,-15.137,-16.602,-28.320,-46.387,0.000
1714024302.365,-16.113,-24.902,-28.320,-47.363,0.000
1714024302.369,-16.602,-24.414,-32.227,-51.758,0.000
1714024302.373,-15.137,-19.043,-37.109,-53.711,0.000
1714024302.377,-19.043,-18.066,-25.879,-45.898,0.000
1714024302.381,-22.461,-20.020,-19.043,-39.551,0.000
1714024302.385,-19.531,-27.344,-19.531,-48.340,0.000
1714024302.389,-20.508,-29.297,-21.484,-55.176,0.000
1714024302.393,-21.484,-29.297,-24.902,-57.129,0.000
1714024302.397,-18.555,-26.855,-26.367,-53.223,0.000
1714024302.401,-19.531,-19.043,-19.531,-54.688,0.000
1714024302.404,-21.484,-16.602,-20.508,-61.523,0.000
1714024302.409,-25.391,-28.320,-31.738,-58.594,0.000
1714024302.412,-33.203,-36.133,-32.227,-54.688,0.000
1714024302.416,-30.762,-31.250,-29.297,-56.641,0.000
1714024302.420,-31.250,-32.715,-35.645,-63.477,0.000
1714024302.424,-37.598,-35.645,-42.480,-63.477,0.000
1714024302.428,-32.715,-26.855,-43.945,-55.176,0.000
1714024302.432,-21.484,-28.809,-31.738,-56.152,0.000
1714024302.436,-21.973,-35.645,-32.715,-59.082,0.000
1714024302.440,-30.762,-30.762,-46.875,-59.570,0.000
1714024302.444,-28.809,-29.785,-41.016,-52.246,0.000
1714024302.448,-25.391,-28.809,-26.855,-46.875,0.000
1714024302.452,-23.926,-25.391,-25.391,-52.246,0.000
1714024302.456,-19.531,-28.320,-35.156,-41.504,0.000
1714024302.459,-11.719,-24.902,-38.574,-28.809,0.000
1714024302.463,-14.160,-15.137,-27.344,-43.945,0.000
1714024302.467,-25.391,-22.949,-24.414,-57.617,0.000
1714024302.471,-24.902,-26.367,-36.133,-59.570,0.000
1714024302.475,-20.508,-21.484,-37.598,-52.246,0.000
1714024302.479,-17.090,-20.996,-27.832,-44.434,0.000
1714024302.483,-13.184,-13.672,-23.438,-41.016,0.000
1714024302.487,-15.137,-16.602,-29.297,-39.551,0.000
1714024302.491,-17.578,-20.996,-29.297,-41.992,0.000
1714024302.495,-12.207,-12.695,-16.113,-33.691,0.000
1714024302.499,-10.742,-13.672,-9.766,-35.156,0.000
1714024302.502,-19.043,-23.438,-24.902,-49.805,0.000
1714024302.506,-24.902,-20.508,-35.645,-53.711,0.000
1714024302.510,-28.320,-24.414,-32.715,-45.410,0.000
1714024302.514,-31.738,-34.668,-38.086,-44.434,0.000
1714024302.518,-32.227,-34.668,-41.016,-53.711,0.000
1714024302.522,-30.762,-34.180,-40.039,-55.176,0.000
1714024302.526,-28.809,-34.180,-34.668,-43.457,0.000
1714024302.530,-29.297,-26.855,-27.832,-38.574,0.000
1714024302.534,-33.691,-25.391,-25.391,-39.551,0.000
1714024302.538,-38.574,-28.320,-23.438,-41.016,0.000
1714024302.541,-41.504,-27.832,-31.250,-42.480,0.000
1714024302.545,-43.457,-33.203,-40.527,-41.504,0.000
1714024302.549,-47.852,-35.645,-41.504,-45.410,0.000
1714024302.553,-45.410,-35.156,-41.992,-49.805,0.000
1714024302.557,-40.039,-33.691,-42.480,-49.316,0.000
1714024302.561,-39.062,-33.691,-31.250,-37.109,0.000
1714024302.565,-34.180,-29.297,-21.973,-32.227,0.000
1714024302.569,-30.762,-24.414,-28.809,-40.039,0.000
1714024302.573,-28.320,-25.879,-30.762,-43.457,0.000
1714024302.576,-26.367,-23.438,-33.691,-36.621,0.000
1714024302.580,-27.832,-22.949,-41.016,-34.668,0.000
1714024302.584,-28.320,-25.879,-40.039,-44.922,0.000
1714024302.588,-31.738,-30.273,-38.086,-48.828,0.000
1714024302.592,-31.738,-31.738,-32.715,-37.598,0.000
1714024302.596,-31.738,-27.344,-27.344,-33.203,0.000
1714024302.600,-30.762,-23.926,-28.320,-37.598,0.000
1714024302.603,-27.832,-23.438,-26.367,-40.527,0.000
1714024302.607,-28.320,-13.184,-26.855,-47.852,0.000
1714024302.611,-26.855,-13.672,-30.273,-48.828,0.000
1714024302.615,-27.832,-20.996,-29.297,-48.340,0.000
1714024302.619,-29.785,-23.926,-35.645,-48.340,0.000
1714024302.623,-31.738,-25.879,-39.062,-40.039,0.000
1714024302.627,-36.621,-17.090,-31.738,-46.387,0.000
1714024302.631,-32.715,-13.184,-27.344,-54.688,0.000
1714024302.635,-29.785,-18.066,-27.344,-54.688,0.000
1714024302.639,-31.250,-18.066,-31.738,-54.199,0.000
1714024302.642,-31.250,-16.113,-28.320,-53.223,0.000
1714024302.646,-36.621,-14.160,-27.832,-51.758,0.000
1714024302.650,-34.668,-18.555,-30.273,-49.805,0.000
1714024302.654,-32.227,-25.879,-32.715,-55.664,0.000
1714024302.658,-42.480,-33.203,-37.109,-57.617,0.000
1714024302.662,-42.480,-36.133,-37.598,-48.828,0.000
1714024302.666,-33.203,-29.785,-33.691,-38.086,0.000
1714024302.669,-33.203,-27.344,-29.297,-42.480,0.000
1714024302.673,-45.410,-25.391,-32.227,-50.293,0.000
1714024302.677,-46.875,-24.414,-29.785,-41.504,0.000
1714024302.681,-41.504,-29.785,-21.973,-40.527,0.000
1714024302.685,-44.434,-29.785,-28.320,-49.316,0.000
1714024302.688,-44.922,-23.438,-41.016,-47.363,0.000
1714024302.692,-51.270,-23.926,-40.039,-47.363,0.000
1714024302.696,-58.105,-29.297,-34.668,-53.711,0.000
1714024302.700,-49.805,-27.832,-28.809,-47.363,0.000
1714024302.704,-47.852,-26.855,-31.250,-45.410,0.000
1714024302.708,-55.664,-28.809,-35.156,-49.805,0.000
1714024302.712,-51.270,-25.391,-23.926,-38.574,0.000
1714024302.716,-48.340,-28.320,-15.625,-42.480,0.000
1714024302.720,-52.734,-30.762,-27.344,-54.688,0.000
1714024302.724,-40.039,-24.414,-29.785,-41.992,0.000
1714024302.727,-19.531,-17.578,-19.043,-19.043,0.000
1714024302.731,-23.438,-23.438,-19.531,-23.926,0.000
1714024302.736,-41.504,-34.668,-25.391,-40.039,0.000
1714024302.740,-48.340,-37.109,-29.297,-36.621,0.000
1714024302.744,-41.016,-36.133,-25.879,-23.438,0.000
1714024302.748,-32.715,-32.227,-21.484,-26.855,0.000
1714024302.751,-35.156,-33.203,-25.879,-34.180,0.000
1714024302.755,-36.133,-41.992,-26.855,-32.227,0.000
1714024302.759,-33.203,-31.738,-22.949,-31.250,0.000
1714024302.763,-29.297,-20.508,-21.484,-35.645,0.000
1714024302.767,-26.367,-27.344,-26.855,-36.133,0.000
1714024302.771,-26.855,-28.320,-30.762,-30.273,0.000
1714024302.775,-33.691,-27.344,-33.203,-34.668,0.000
1714024302.779,-39.062,-33.691,-35.645,-38.086,0.000
1714024302.783,-34.180,-32.715,-28.320,-30.273,0.000
1714024302.787,-29.785,-25.391,-18.555,-34.180,0.000
1714024302.791,-31.250,-21.973,-15.625,-36.133,0.000
1714024302.795,-33.691,-25.391,-19.531,-32.715,0.000
1714024302.799,-35.156,-33.691,-23.926,-40.527,0.000
1714024302.803,-38.086,-33.203,-32.227,-46.387,0.000
1714024302.806,-38.574,-26.855,-41.016,-41.504,0.000
1714024302.810,-37.109,-28.809,-40.527,-36.133,0.000
1714024302.814,-38.574,-30.762,-37.598,-36.621,0.000
1714024302.818,-38.086,-30.273,-35.156,-39.551,0.000
1714024302.822,-38.574,-27.344,-40.527,-47.363,0.000
1714024302.826,-38.574,-38.574,-36.133,-46.875,0.000
1714024302.830,-32.715,-43.945,-23.438,-36.133,0.000
1714024302.834,-27.832,-27.832,-23.438,-34.668,0.000
1714024302.838,-31.250,-31.250,-29.785,-42.969,0.000
1714024302.842,-34.668,-34.180,-30.762,-41.016,0.000
1714024302.846,-31.250,-27.344,-19.043,-34.180,0.000
1714024302.850,-23.926,-23.926,-9.277,-32.715,0.000
1714024302.853,-29.297,-31.738,-19.043,-40.039,0.000
1714024302.857,-38.086,-37.598,-38.086,-48.828,0.000
1714024302.861,-35.156,-31.250,-41.992,-34.180,0.000
1714024302.865,-31.738,-28.809,-32.715,-25.391,0.000
1714024302.869,-28.320,-27.344,-28.809,-32.715,0.000
1714024302.873,-32.227,-27.344,-26.855,-31.738,0.000
1714024302.877,-39.062,-33.203,-26.367,-30.273,0.000
1714024302.881,-33.691,-28.809,-18.066,-28.809,0.000
1714024302.885,-34.180,-25.879,-4.883,-34.668,0.000
1714024302.889,-44.434,-27.344,-8.301,-41.016,0.000
1714024302.892,-35.645,-23.438,-15.137,-31.738,0.000
1714024302.896,-27.344,-23.926,-4.883,-28.320,0.000
1714024302.900,-38.574,-21.484,-6.348,-43.945,0.000
1714024302.904,-46.875,-23.438,-22.949,-51.758,0.000
1714024302.908,-53.711,-33.691,-22.461,-47.852,0.000
1714024302.912,-66.406,-35.645,-21.484,-64.453,0.000
1714024302.916,-67.383,-31.738,-19.531,-72.266,0.000
1714024302.920,-63.477,-30.762,-9.766,-73.730,0.000
1714024302.924,-86.426,-30.273,-14.160,-88.867,0.000
1714024302.927,-101.562,-43.457,-15.137,-95.703,0.000
1714024302.931,-101.074,-44.434,-8.301,-101.562,0.000
1714024302.935,-111.328,-33.691,-8.301,-115.723,0.000
1714024302.939,-122.559,-31.738,-12.695,-123.047,0.000
1714024302.943,-121.582,-30.762,-8.301,-119.629,0.000
1714024302.947,-122.559,-33.691,13.672,-124.512,0.000
1714024302.951,-131.348,-37.109,16.113,-134.277,0.000
1714024302.955,-137.695,-34.668,8.789,-136.230,0.000
1714024302.959,-142.578,-36.621,11.719,-133.301,0.000
1714024302.963,-136.230,-47.363,2.930,-126.465,0.000
1714024302.966,-124.023,-40.527,-2.930,-115.234,0.000
1714024302.970,-121.582,-33.203,-0.488,-118.652,0.000
1714024302.974,-104.492,-31.738,9.766,-105.957,0.000
1714024302.978,-97.168,-35.156,2.930,-91.797,0.000
1714024302.982,-100.586,-40.527,-7.812,-99.121,0.000
1714024302.986,-86.914,-41.992,-6.348,-95.703,0.000
1714024302.990,-72.754,-37.109,-11.230,-81.055,0.000
1714024302.994,-61.523,-26.855,-19.043,-71.289,0.000
1714024302.997,-54.199,-27.344,-25.879,-61.035,0.000
1714024303.001,-53.711,-32.227,-16.602,-55.664,0.000
1714024303.005,-51.270,-37.109,-17.090,-57.129,0.000
1714024303.009,-41.016,-35.156,-23.438,-51.758,0.000
1714024303.013,-32.715,-32.227,-20.020,-50.781,0.000
1714024303.016,-32.227,-36.621,-27.832,-50.781,0.000
1714024303.020,-32.227,-38.574,-43.457,-43.457,0.000
1714024303.024,-31.738,-38.086,-47.363,-38.086,0.000
1714024303.028,-25.391,-36.621,-48.340,-39.062,0.000
1714024303.032,-16.113,-34.180,-46.387,-32.715,0.000
1714024303.036,-13.184,-27.832,-39.551,-28.320,0.000
1714024303.040,-15.137,-28.809,-41.504,-24.414,0.000
1714024303.044,-11.230,-31.250,-44.922,-14.160,0.000
1714024303.048,0.000,-20.996,-41.016,-9.766,0.000
1714024303.052,8.789,-20.020,-39.551,-5.859,0.000
1714024303.056,12.207,-22.949,-41.504,-5.371,0.000
1714024303.059,16.602,-22.461,-38.574,-4.395,0.000
1714024303.063,21.484,-22.461,-38.574,-1.953,0.000
1714024303.067,22.461,-25.391,-39.551,-6.836,0.000
1714024303.071,13.184,-21.484,-47.363,-3.418,0.000
1714024303.075,2.930,-20.508,-59.082,-6.348,0.000
1714024303.078,1.953,-24.902,-56.641,-11.719,0.000
1714024303.082,-0.488,-24.902,-49.805,-7.812,0.000
1714024303.086,-0.977,-20.996,-50.293,-2.930,0.000
1714024303.090,-7.812,-21.484,-43.945,-6.348,0.000
1714024303.094,-4.883,-26.367,-37.598,-5.371,0.000
1714024303.098,-2.441,-31.250,-41.504,-6.836,0.000
1714024303.102,-6.836,-24.902,-35.645,-6.836,0.000
1714024303.106,-6.836,-16.602,-29.785,-10.254,0.000
1714024303.109,-7.812,-20.508,-36.621,-7.324,0.000
1714024303.113,-3.906,-23.438,-32.227,0.000,0.000
1714024303.117,-5.371,-19.531,-20.996,-7.324,0.000
1714024303.121,-7.812,-21.973,-31.738,-11.230,0.000
1714024303.125,-11.230,-29.297,-46.875,-12.695,0.000
1714024303.129,-10.742,-31.738,-41.992,-11.719,0.000
1714024303.133,-9.277,-27.832,-35.156,-8.789,0.000
1714024303.136,-11.719,-29.785,-42.480,-18.066,0.000
1714024303.140,-9.277,-35.156,-42.480,-17.090,0.000
1714024303.144,-1.953,-33.203,-37.598,-6.348,0.000
1714024303.148,-7.324,-30.273,-35.645,-15.625,0.000
1714024303.152,-10.742,-24.902,-28.809,-25.879,0.000
1714024303.156,-10.254,-21.484,-39.551,-22.461,0.000
1714024303.160,-15.137,-25.879,-49.805,-24.414,0.000
1714024303.164,-16.113,-30.273,-36.133,-27.832,0.000
1714024303.168,-17.578,-31.250,-38.086,-36.133,0.000
1714024303.172,-18.555,-32.715,-46.875,-39.551,0.000
1714024303.176,-16.113,-29.297,-37.598,-31.250,0.000
1714024303.180,-15.625,-22.461,-26.367,-30.762,0.000
1714024303.184,-17.578,-21.973,-24.902,-31.250,0.000
1714024303.188,-18.555,-26.855,-37.109,-30.273,0.000
1714024303.192,-23.438,-30.273,-43.945,-22.949,0.000
1714024303.195,-30.273,-29.785,-37.109,-28.320,0.000
1714024303.199,-29.785,-26.367,-32.715,-32.715,0.000
1714024303.203,-27.344,-28.809,-30.273,-27.344,0.000
1714024303.207,-25.879,-26.855,-25.879,-24.414,0.000
1714024303.211,-19.531,-24.902,-18.555,-19.043,0.000
1714024303.215,-16.113,-24.902,-16.113,-25.879,0.000
1714024303.219,-23.438,-18.066,-30.762,-38.574,0.000
1714024303.223,-27.344,-19.531,-39.062,-39.551,0.000
1714024303.227,-16.602,-21.973,-25.879,-31.250,0.000
1714024303.231,-17.090,-23.438,-17.578,-32.715,0.000
1714024303.235,-21.484,-25.879,-28.320,-38.574,0.000
1714024303.239,-15.137,-19.043,-26.855,-32.227,0.000
1714024303.243,-15.137,-18.066,-15.137,-25.391,0.000
1714024303.246,-20.020,-27.832,-18.066,-36.133,0.000
1714024303.251,-19.043,-29.297,-30.762,-44.434,0.000
1714024303.254,-19.043,-27.344,-32.227,-39.062,0.000
1714024303.258,-17.090,-24.414,-18.066,-31.738,0.000
1714024303.262,-14.160,-22.949,-17.090,-30.762,0.000
1714024303.266,-13.184,-23.926,-27.344,-29.297,0.000
1714024303.270,-20.020,-22.949,-28.809,-29.297,0.000
1714024303.274,-23.438,-24.414,-29.297,-31.250,0.000
1714024303.278,-17.090,-25.391,-26.855,-25.391,0.000
1714024303.282,-19.043,-25.879,-30.273,-25.879,0.000
1714024303.286,-25.391,-25.879,-27.344,-31.738,0.000
1714024303.290,-20.996,-24.902,-21.484,-24.414,0.000
1714024303.293,-17.578,-23.438,-29.785,-20.996,0.000
1714024303.297,-20.020,-25.391,-30.273,-24.902,0.000
1714024303.301,-22.461,-30.273,-36.621,-28.320,0.000
1714024303.305,-23.438,-24.902,-41.992,-28.809,0.000
1714024303.309,-20.996,-22.949,-31.738,-20.996,0.000
1714024303.313,-17.578,-23.926,-19.531,-18.066,0.000
1714024303.317,-19.531,-20.996,-18.066,-25.879,0.000
1714024303.321,-19.531,-20.996,-25.391,-30.273,0.000
1714024303.325,-19.531,-25.391,-24.414,-22.949,0.000
1714024303.329,-21.484,-19.531,-28.320,-19.531,0.000
1714024303.332,-20.020,-13.184,-32.227,-27.832,0.000
1714024303.336,-21.973,-19.043,-28.809,-31.250,0.000
1714024303.340,-26.367,-24.902,-33.203,-32.227,0.000
1714024303.344,-26.367,-23.438,-26.367,-30.762,0.000
1714024303.348,-26.855,-19.043,-16.113,-28.320,0.000
1714024303.352,-30.273,-22.949,-21.484,-26.367,0.000
1714024303.356,-25.391,-26.367,-17.090,-21.973,0.000
1714024303.360,-24.414,-22.461,-23.438,-23.438,0.000
1714024303.364,-29.785,-25.879,-40.527,-35.645,0.000
1714024303.367,-28.320,-26.855,-41.992,-34.180,0.000
1714024303.371,-26.367,-19.043,-40.527,-21.484,0.000
1714024303.375,-29.297,-20.996,-33.203,-27.344,0.000
1714024303.379,-24.414,-27.832,-16.602,-25.879,0.000
1714024303.383,-23.926,-26.855,-12.207,-23.926,0.000
1714024303.387,-32.715,-21.973,-20.996,-32.715,0.000
1714024303.391,-33.203,-20.020,-32.227,-37.109,0.000
1714024303.394,-26.367,-20.508,-37.598,-34.180,0.000
1714024303.398,-26.855,-18.066,-33.691,-40.527,0.000
1714024303.402,-29.785,-19.531,-26.855,-47.363,0.000
1714024303.406,-31.250,-17.090,-31.250,-45.898,0.000
1714024303.410,-26.367,-15.137,-29.297,-41.504,0.000
1714024303.414,-19.531,-22.949,-19.043,-37.109,0.000
1714024303.418,-26.855,-26.367,-15.625,-35.156,0.000
1714024303.422,-32.715,-22.949,-27.832,-41.016,0.000
1714024303.426,-29.297,-21.973,-35.156,-41.016,0.000
1714024303.430,-32.227,-20.508,-30.273,-37.109,0.000
1714024303.433,-32.227,-19.531,-26.367,-36.133,0.000
1714024303.437,-27.832,-26.855,-26.855,-32.227,0.000
1714024303.441,-29.785,-28.320,-23.438,-36.133,0.000
1714024303.445,-26.367,-21.484,-22.461,-40.039,0.000
1714024303.449,-21.973,-19.531,-31.250,-40.039,0.000
1714024303.453,-28.320,-23.438,-38.086,-46.875,0.000
1714024303.456,-32.715,-29.297,-39.062,-39.551,0.000
1714024303.460,-33.203,-33.203,-39.551,-37.598,0.000
1714024303.464,-34.668,-26.855,-31.250,-46.875,0.000
1714024303.468,-30.273,-20.508,-20.996,-42.969,0.000
1714024303.472,-21.484,-19.531,-9.277,-26.855,0.000
1714024303.476,-20.020,-20.996,-8.789,-22.461,0.000
1714024303.480,-27.344,-20.020,-20.020,-29.785,0.000
1714024303.483,-32.715,-22.949,-28.320,-31.250,0.000
1714024303.487,-26.855,-20.508,-28.320,-31.250,0.000
1714024303.491,-28.320,-19.531,-27.832,-35.156,0.000
1714024303.495,-33.691,-28.809,-31.250,-38.574,0.000
1714024303.499,-29.785,-26.855,-27.832,-43.457,0.000
1714024303.503,-30.273,-29.297,-17.090,-40.039,0.000
1714024303.507,-35.645,-30.273,-18.066,-43.457,0.000
1714024303.511,-37.109,-20.020,-31.250,-50.293,0.000
1714024303.515,-36.621,-20.996,-35.156,-53.223,0.000
1714024303.518,-37.109,-31.250,-33.203,-51.270,0.000
1714024303.522,-37.109,-32.715,-32.227,-43.945,0.000
1714024303.526,-35.645,-33.203,-29.297,-36.621,0.000
1714024303.532,-35.645,-38.574,-14.648,-39.062,0.000
1714024303.536,-34.180,-35.645,0.977,-37.109,0.000
1714024303.540,-32.715,-31.250,-9.766,-34.668,0.000
1714024303.544,-32.227,-32.715,-22.949,-36.133,0.000
1714024303.547,-35.156,-31.738,-30.273,-38.086,0.000
1714024303.551,-38.086,-28.809,-34.668,-46.387,0.000
1714024303.555,-42.480,-39.551,-33.203,-51.270,0.000
1714024303.559,-40.039,-42.969,-30.762,-47.852,0.000
1714024303.563,-36.133,-31.250,-17.578,-36.133,0.000
1714024303.567,-35.645,-31.250,-14.648,-31.250,0.000
1714024303.571,-31.738,-35.156,-33.203,-37.598,0.000
1714024303.575,-32.227,-35.156,-44.434,-35.645,0.000
1714024303.579,-37.109,-36.621,-34.668,-38.574,0.000
1714024303.583,-33.203,-30.273,-31.250,-38.574,0.000
1714024303.587,-32.715,-22.461,-33.691,-39.551,0.000
1714024303.591,-35.156,-23.438,-29.785,-37.598,0.000
1714024303.594,-26.367,-24.414,-21.484,-24.902,0.000
1714024303.598,-24.902,-30.273,-20.020,-29.297,0.000
1714024303.602,-23.438,-32.227,-33.203,-38.574,0.000
1714024303.606,-26.367,-31.738,-43.945,-37.109,0.000
1714024303.610,-27.344,-28.320,-43.945,-37.598,0.000
1714024303.614,-25.879,-21.484,-38.086,-38.574,0.000
1714024303.618,-19.043,-14.648,-34.180,-33.203,0.000
1714024303.622,-20.020,-12.207,-31.738,-37.598,0.000
1714024303.626,-29.297,-17.578,-27.344,-32.715,0.000
1714024303.630,-22.949,-20.508,-13.672,-27.344,0.000
1714024303.634,-20.508,-20.996,-20.996,-40.039,0.000
1714024303.638,-27.832,-22.949,-38.086,-48.340,0.000
1714024303.641,-27.344,-27.344,-33.691,-42.480,0.000
1714024303.645,-32.715,-29.785,-32.715,-43.945,0.000
1714024303.649,-41.504,-27.344,-39.551,-51.758,0.000
1714024303.653,-34.180,-24.414,-38.086,-47.363,0.000
1714024303.657,-25.391,-23.438,-22.461,-29.297,0.000
1714024303.661,-31.250,-22.949,-20.508,-33.203,0.000
1714024303.665,-28.809,-22.461,-33.691,-49.805,0.000
1714024303.669,-24.414,-27.832,-36.133,-49.805,0.000
1714024303.673,-26.855,-28.320,-36.133,-49.316,0.000
1714024303.677,-29.297,-28.320,-31.738,-47.363,0.000
1714024303.680,-18.555,-30.762,-32.227,-38.086,0.000
1714024303.684,-10.742,-23.438,-34.668,-34.668,0.000
1714024303.688,-22.461,-17.578,-23.438,-40.527,0.000
1714024303.692,-33.203,-17.090,-17.578,-43.457,0.000
1714024303.696,-37.109,-16.602,-19.043,-41.016,0.000
1714024303.700,-40.039,-28.809,-36.621,-41.992,0.000
1714024303.704,-36.621,-33.203,-40.527,-37.598,0.000
1714024303.708,-39.062,-30.273,-35.645,-41.504,0.000
1714024303.712,-39.551,-26.855,-43.457,-45.410,0.000
1714024303.716,-35.645,-24.414,-40.527,-42.969,0.000
1714024303.719,-34.180,-22.949,-30.273,-49.316,0.000
1714024303.723,-25.879,-16.602,-20.996,-44.922,0.000
1714024303.727,-25.879,-16.113,-24.414,-41.016,0.000
1714024303.731,-32.715,-23.438,-39.062,-48.828,0.000
1714024303.735,-36.621,-32.715,-37.109,-53.223,0.000
1714024303.739,-35.645,-29.785,-27.832,-51.270,0.000
1714024303.743,-30.762,-22.461,-34.180,-45.898,0.000
1714024303.747,-31.738,-27.344,-43.945,-41.504,0.000
1714024303.751,-37.598,-30.762,-41.016,-46.875,0.000
1714024303.754,-30.273,-23.438,-33.203,-47.852,0.000
1714024303.758,-27.344,-23.926,-28.320,-45.898,0.000
1714024303.762,-29.785,-22.461,-28.809,-46.387,0.000
1714024303.766,-25.391,-21.484,-31.738,-47.852,0.000
1714024303.770,-26.855,-26.855,-39.551,-52.734,0.000
1714024303.774,-32.227,-24.414,-48.828,-51.270,0.000
1714024303.778,-39.062,-23.438,-46.875,-52.734,0.000
1714024303.781,-40.039,-25.391,-38.574,-57.129,0.000
1714024303.785,-34.668,-22.461,-28.320,-53.711,0.000
1714024303.789,-31.250,-21.973,-26.367,-39.551,0.000
1714024303.793,-28.320,-18.066,-19.043,-33.691,0.000
1714024303.797,-25.391,-12.695,-20.996,-39.551,0.000
1714024303.801,-31.250,-18.555,-35.156,-47.852,0.000
1714024303.805,-39.551,-21.973,-24.902,-55.176,0.000
1714024303.809,-45.898,-20.996,-31.738,-64.941,0.000
1714024303.812,-55.664,-27.832,-34.668,-77.148,0.000
1714024303.816,-60.059,-35.156,-22.949,-84.473,0.000
1714024303.820,-73.242,-38.574,-28.320,-97.168,0.000
1714024303.824,-81.055,-24.414,-28.809,-101.074,0.000
1714024303.828,-89.355,-23.926,-10.742,-104.004,0.000
1714024303.832,-111.328,-34.180,-12.695,-121.582,0.000
1714024303.836,-128.906,-41.992,-25.391,-142.090,0.000
1714024303.840,-134.766,-41.504,-20.508,-146.973,0.000
1714024303.843,-139.160,-35.645,-17.578,-151.367,0.000
1714024303.847,-142.090,-33.203,-18.555,-160.645,0.000
1714024303.851,-145.020,-30.762,-5.371,-170.898,0.000
1714024303.855,-152.832,-27.832,5.859,-179.199,0.000
1714024303.859,-140.625,-21.484,9.277,-170.410,0.000
1714024303.862,-125.488,-21.973,10.254,-164.062,0.000
1714024303.866,-126.953,-32.227,10.254,-170.410,0.000
1714024303.870,-122.070,-34.668,4.883,-162.109,0.000
1714024303.874,-110.352,-32.715,-8.301,-141.113,0.000
1714024303.878,-108.887,-34.668,-15.137,-137.207,0.000
1714024303.882,-108.887,-34.668,-7.812,-139.160,0.000
1714024303.886,-101.074,-33.203,3.418,-127.930,0.000
1714024303.890,-87.402,-27.832,0.000,-111.328,0.000
1714024303.894,-76.660,-30.273,-10.742,-93.262,0.000
1714024303.898,-73.242,-39.551,-20.020,-87.891,0.000
1714024303.902,-73.730,-45.410,-34.668,-93.750,0.000
1714024303.906,-63.477,-45.898,-41.504,-78.125,0.000
1714024303.910,-48.828,-40.527,-40.527,-62.012,0.000
1714024303.914,-39.551,-34.668,-32.227,-59.082,0.000
1714024303.918,-24.902,-36.621,-26.855,-57.129,0.000
1714024303.922,-18.066,-33.203,-38.574,-44.922,0.000
1714024303.925,-19.531,-30.273,-47.363,-38.574,0.000
1714024303.929,-20.020,-31.250,-45.898,-36.621,0.000
1714024303.933,-15.137,-33.203,-39.551,-35.156,0.000
1714024303.937,-5.859,-33.691,-41.016,-32.227,0.000
1714024303.941,-1.953,-31.738,-47.852,-23.438,0.000
1714024303.945,-2.441,-34.668,-49.316,-28.809,0.000
1714024303.949,5.859,-33.691,-43.945,-29.297,0.000
1714024303.953,10.254,-32.715,-35.156,-17.090,0.000
1714024303.957,3.906,-34.180,-41.992,-18.555,0.000
1714024303.961,-1.953,-34.180,-50.781,-25.879,0.000
1714024303.965,-0.977,-27.832,-49.805,-19.531,0.000
1714024303.969,2.441,-26.367,-45.898,-16.113,0.000
1714024303.973,-2.930,-31.738,-47.852,-21.484,0.000
1714024303.977,-2.441,-30.762,-49.316,-19.531,0.000
1714024303.980,3.906,-26.367,-51.270,-21.973,0.000
1714024303.984,6.348,-28.809,-54.199,-21.973,0.000
1714024303.988,3.418,-28.809,-49.805,-19.043,0.000
1714024303.992,8.301,-20.508,-36.621,-20.996,0.000
1714024303.996,13.184,-20.996,-34.180,-21.484,0.000
1714024304.000,10.254,-23.438,-40.527,-21.973,0.000
1714024304.004,6.348,-19.043,-42.969,-15.625,0.000
1714024304.008,5.859,-20.508,-41.504,-10.254,0.000
1714024304.012,-0.488,-25.391,-45.898,-10.742,0.000
1714024304.016,-3.418,-25.879,-49.316,-10.742,0.000
1714024304.020,5.859,-21.973,-40.039,-13.672,0.000
1714024304.024,9.766,-15.625,-31.738,-18.555,0.000
1714024304.027,9.766,-18.066,-31.738,-14.160,0.000
1714024304.031,12.695,-17.578,-31.738,-7.812,0.000
1714024304.035,16.602,-6.348,-22.461,-10.254,0.000
1714024304.039,11.719,-5.371,-20.020,-14.648,0.000
1714024304.043,8.301,-14.160,-29.297,-16.602,0.000
1714024304.047,6.348,-18.555,-32.715,-13.184,0.000
1714024304.051,2.441,-24.902,-36.133,-16.602,0.000
1714024304.055,5.371,-21.973,-35.645,-18.066,0.000
1714024304.059,9.277,-11.230,-26.855,-10.254,0.000
1714024304.063,12.695,-11.230,-18.555,-2.930,0.000
1714024304.067,7.324,-13.672,-19.531,-9.277,0.000
1714024304.070,3.906,-8.301,-20.508,-9.766,0.000
1714024304.074,9.277,-6.836,-20.996,1.953,0.000
1714024304.078,3.906,-13.672,-26.367,-5.371,0.000
1714024304.082,-4.395,-20.508,-28.809,-16.113,0.000
1714024304.086,-7.812,-20.996,-20.996,-13.184,0.000
1714024304.090,-4.395,-24.414,-15.625,-9.277,0.000
1714024304.094,-6.348,-31.250,-27.344,-12.695,0.000
1714024304.098,-5.859,-26.855,-29.785,-19.043,0.000
1714024304.101,-6.836,-22.461,-25.879,-18.555,0.000
1714024304.105,-15.137,-21.484,-33.203,-19.531,0.000
1714024304.109,-17.578,-22.461,-35.156,-15.137,0.000
1714024304.113,-18.555,-29.297,-30.762,-10.742,0.000
1714024304.117,-10.254,-27.344,-25.879,-6.836,0.000
1714024304.121,-8.789,-23.926,-22.949,0.488,0.000
1714024304.125,-11.719,-21.484,-23.926,-3.906,0.000
1714024304.129,-6.836,-19.043,-33.203,-12.207,0.000
1714024304.133,-9.277,-24.902,-42.480,-18.066,0.000
1714024304.137,-7.812,-15.137,-31.250,-19.043,0.000
1714024304.141,-8.301,-7.324,-25.391,-13.184,0.000
1714024304.145,-13.672,-14.160,-31.738,-12.695,0.000
1714024304.149,-10.254,-14.648,-26.855,-14.648,0.000
1714024304.153,-3.906,-11.719,-21.973,-12.207,0.000
1714024304.157,-7.812,-17.578,-29.297,-9.277,0.000
1714024304.161,-17.578,-27.832,-37.598,-15.137,0.000
1714024304.165,-17.578,-23.926,-35.645,-15.137,0.000
1714024304.169,-13.184,-20.020,-23.926,-14.648,0.000
1714024304.173,-16.602,-20.020,-22.461,-16.602,0.000
1714024304.176,-17.578,-18.066,-30.273,-17.090,0.000
1714024304.180,-14.648,-17.090,-27.344,-15.137,0.000
1714024304.184,-13.672,-17.090,-22.949,-16.602,0.000
1714024304.188,-12.207,-20.996,-22.461,-18.066,0.000
1714024304.192,-13.672,-23.438,-21.973,-14.160,0.000
1714024304.195,-21.484,-22.461,-18.066,-18.555,0.000
1714024304.199,-22.461,-20.020,-16.113,-20.020,0.000
1714024304.203,-17.578,-18.555,-29.297,-18.066,0.000
1714024304.207,-15.137,-19.043,-39.551,-14.648,0.000
1714024304.211,-18.555,-20.020,-33.691,-15.625,0.000
1714024304.215,-20.996,-16.113,-19.531,-27.832,0.000
1714024304.219,-19.531,-13.672,-9.766,-29.297,0.000
1714024304.223,-21.484,-21.973,-18.066,-21.484,0.000
1714024304.227,-20.996,-26.367,-25.391,-11.230,0.000
1714024304.231,-21.484,-27.344,-18.555,-17.578,0.000
1714024304.234,-26.855,-27.832,-18.555,-30.273,0.000
1714024304.238,-28.809,-26.367,-34.180,-32.227,0.000
1714024304.242,-28.320,-22.949,-41.992,-30.762,0.000
1714024304.246,-24.414,-22.461,-23.438,-27.344,0.000
1714024304.250,-22.949,-23.438,-13.184,-36.621,0.000
1714024304.253,-25.879,-23.438,-28.320,-39.551,0.000
1714024304.257,-26.855,-26.367,-32.715,-35.645,0.000
1714024304.261,-27.344,-26.367,-20.508,-40.039,0.000
1714024304.265,-21.484,-23.438,-15.137,-34.180,0.000
1714024304.269,-19.531,-27.344,-33.203,-28.320,0.000
1714024304.273,-30.762,-29.297,-39.551,-28.320,0.000
1714024304.277,-28.809,-30.273,-27.344,-26.367,0.000
1714024304.281,-24.902,-29.785,-26.367,-31.250,0.000
1714024304.285,-28.809,-31.250,-27.832,-33.691,0.000
1714024304.289,-26.855,-32.227,-25.391,-30.273,0.000
1714024304.293,-23.926,-25.879,-28.809,-30.762,0.000
1714024304.297,-23.926,-30.273,-28.809,-32.715,0.000
1714024304.301,-24.902,-38.086,-29.785,-34.668,0.000
1714024304.305,-26.367,-32.227,-35.645,-35.156,0.000
1714024304.309,-25.879,-25.391,-35.156,-33.691,0.000
1714024304.313,-19.043,-27.832,-27.832,-24.902,0.000
1714024304.316,-16.113,-30.273,-25.879,-29.297,0.000
1714024304.320,-20.508,-26.855,-27.344,-42.969,0.000
1714024304.324,-22.949,-28.320,-30.762,-41.016,0.000
1714024304.328,-5.371,-26.855,-36.133,-19.531,0.000
1714024304.332,-2.930,-24.414,-25.391,-15.625,0.000
1714024304.336,-40.527,-25.391,-21.973,-45.898,0.000
1714024304.340,-47.363,-26.855,-30.273,-49.316,0.000
1714024304.344,-32.227,-31.738,-32.227,-36.621,0.000
1714024304.348,-38.086,-36.133,-28.320,-43.457,0.000
1714024304.352,-53.711,-37.598,-23.438,-58.594,0.000
1714024304.356,-59.570,-33.691,-22.949,-60.547,0.000
1714024304.360,-56.641,-34.668,-28.320,-54.199,0.000
1714024304.364,-46.875,-33.203,-22.461,-54.199,0.000
1714024304.367,-41.992,-30.273,-12.207,-64.453,0.000
1714024304.371,-43.945,-35.156,-13.184,-64.453,0.000
1714024304.375,-40.527,-33.203,-11.230,-52.734,0.000
1714024304.379,-41.016,-30.273,-15.625,-49.805,0.000
1714024304.383,-41.504,-34.180,-23.438,-55.176,0.000
1714024304.387,-42.480,-40.527,-26.367,-52.734,0.000
1714024304.391,-41.992,-36.133,-29.297,-47.852,0.000
1714024304.395,-35.645,-33.203,-29.785,-42.969,0.000
1714024304.399,-28.809,-33.203,-22.949,-41.992,0.000
1714024304.403,-29.785,-27.832,-21.973,-41.992,0.000
1714024304.407,-30.273,-29.297,-26.367,-34.668,0.000
1714024304.410,-23.438,-36.133,-21.484,-33.691,0.000
1714024304.414,-21.484,-36.133,-23.438,-39.551,0.000
1714024304.418,-28.809,-29.297,-35.645,-44.434,0.000
1714024304.422,-34.668,-27.832,-39.062,-48.828,0.000
1714024304.426,-31.250,-29.785,-33.691,-44.434,0.000
1714024304.430,-33.203,-28.320,-31.738,-44.434,0.000
1714024304.434,-31.250,-25.879,-27.344,-44.922,0.000
1714024304.438,-27.832,-28.809,-16.602,-40.039,0.000
1714024304.442,-27.832,-27.344,-10.254,-33.203,0.000
1714024304.446,-21.973,-28.809,-20.020,-35.156,0.000
1714024304.449,-23.926,-28.809,-37.598,-43.457,0.000
1714024304.453,-27.344,-22.949,-34.668,-45.410,0.000
1714024304.457,-26.855,-19.043,-22.461,-40.527,0.000
1714024304.461,-25.391,-18.555,-23.438,-35.645,0.000
1714024304.465,-20.996,-16.113,-30.273,-39.551,0.000
1714024304.469,-22.461,-20.508,-31.738,-46.875,0.000
1714024304.473,-26.855,-26.367,-29.297,-45.898,0.000
1714024304.477,-23.438,-27.344,-21.973,-39.551,0.000
1714024304.481,-26.855,-35.156,-26.367,-45.898,0.000
1714024304.484,-31.250,-34.668,-33.203,-56.641,0.000
1714024304.488,-28.809,-30.273,-26.367,-55.664,0.000
1714024304.492,-28.809,-29.785,-25.391,-51.758,0.000
1714024304.496,-30.762,-24.902,-26.855,-43.945,0.000
1714024304.500,-29.297,-17.578,-28.320,-46.387,0.000
1714024304.504,-25.879,-16.602,-30.273,-50.781,0.000
1714024304.508,-25.879,-24.414,-33.203,-46.875,0.000
1714024304.512,-24.414,-26.855,-32.715,-48.340,0.000
1714024304.515,-22.949,-26.367,-26.367,-49.805,0.000
1714024304.519,-29.297,-27.344,-25.879,-52.734,0.000
1714024304.523,-32.227,-28.320,-35.645,-52.734,0.000
1714024304.527,-27.832,-23.926,-31.250,-45.898,0.000
1714024304.531,-29.297,-19.531,-19.531,-43.457,0.000
1714024304.535,-34.180,-16.602,-21.484,-49.316,0.000
1714024304.539,-33.691,-18.066,-20.508,-44.434,0.000
1714024304.543,-38.086,-20.508,-20.996,-42.480,0.000
1714024304.547,-42.480,-19.531,-16.113,-54.199,0.000
1714024304.550,-40.039,-13.672,-10.742,-61.035,0.000
1714024304.554,-40.039,-17.578,-12.695,-64.941,0.000
1714024304.558,-62.988,-32.715,-7.324,-78.613,0.000
1714024304.562,-70.312,-29.785,-13.184,-81.543,0.000
1714024304.566,-69.824,-30.273,-14.648,-96.191,0.000
1714024304.570,-86.914,-30.273,-22.949,-116.211,0.000
1714024304.573,-95.703,-24.414,-35.645,-117.188,0.000
1714024304.577,-97.656,-27.344,-30.762,-118.164,0.000
1714024304.581,-113.770,-29.297,-29.297,-131.348,0.000
1714024304.585,-129.883,-29.785,-29.297,-139.160,0.000
1714024304.589,-131.836,-26.367,-18.555,-146.973,0.000
1714024304.593,-128.906,-23.438,-13.672,-150.879,0.000
1714024304.597,-130.371,-28.320,-13.672,-151.855,0.000
1714024304.601,-129.395,-30.762,-14.648,-155.273,0.000
1714024304.605,-123.535,-31.738,-19.043,-151.367,0.000
1714024304.608,-118.652,-26.855,-14.648,-138.184,0.000
1714024304.612,-109.375,-22.949,-14.648,-131.836,0.000
1714024304.616,-98.633,-31.250,-17.090,-128.418,0.000
1714024304.620,-89.844,-35.156,-12.207,-118.652,0.000
1714024304.624,-79.102,-34.668,-18.555,-106.934,0.000
1714024304.628,-70.312,-36.133,-21.484,-87.891,0.000
1714024304.632,-65.430,-33.203,-20.508,-79.590,0.000
1714024304.635,-53.711,-35.645,-21.484,-76.172,0.000
1714024304.639,-44.922,-43.457,-24.902,-65.918,0.000
1714024304.643,-39.062,-40.039,-30.762,-54.688,0.000
1714024304.647,-34.180,-26.855,-29.785,-54.199,0.000
1714024304.651,-25.391,-24.414,-28.320,-44.922,0.000
1714024304.655,-18.066,-32.715,-26.855,-29.785,0.000
1714024304.659,-11.230,-33.691,-32.715,-26.855,0.000
1714024304.663,-0.977,-25.391,-31.250,-27.832,0.000
1714024304.667,5.371,-21.484,-22.949,-33.203,0.000
1714024304.671,6.348,-23.438,-36.621,-35.156,0.000
1714024304.675,9.766,-21.484,-63.965,-28.809,0.000
1714024304.679,20.996,-19.043,-57.617,-27.344,0.000
1714024304.683,24.414,-19.043,-36.133,-30.762,0.000
1714024304.687,21.484,-22.949,-32.715,-20.508,0.000
1714024304.691,24.902,-24.902,-35.156,-10.742,0.000
1714024304.695,20.508,-25.879,-27.344,-12.207,0.000
1714024304.698,12.695,-26.367,-24.414,-11.230,0.000
1714024304.703,10.254,-21.973,-32.227,-13.672,0.000
1714024304.707,7.812,-23.926,-33.203,-11.230,0.000
1714024304.710,-2.441,-27.832,-28.320,-10.254,0.000
1714024304.714,-4.395,-31.738,-24.902,-16.113,0.000
1714024304.718,-3.418,-28.809,-36.621,-19.043,0.000
1714024304.722,-0.977,-19.043,-41.992,-16.113,0.000
1714024304.726,5.859,-22.461,-28.809,-12.695,0.000
1714024304.730,5.859,-20.996,-28.320,-19.043,0.000
1714024304.734,1.953,-20.020,-38.086,-20.020,0.000
1714024304.738,-0.977,-24.902,-42.969,-22.949,0.000
1714024304.742,-1.953,-21.484,-37.598,-26.367,0.000
1714024304.746,0.000,-17.090,-32.715,-24.414,0.000
1714024304.750,0.000,-11.230,-36.621,-30.273,0.000
1714024304.754,-9.766,-18.066,-36.621,-31.738,0.000
1714024304.758,-14.160,-23.926,-38.574,-26.855,0.000
1714024304.761,-11.230,-26.367,-40.527,-32.715,0.000
1714024304.765,-15.137,-28.320,-43.457,-37.109,0.000
1714024304.769,-19.531,-30.273,-48.340,-40.039,0.000
1714024304.773,-19.043,-31.250,-50.781,-44.434,0.000
1714024304.777,-14.648,-23.438,-45.898,-32.227,0.000
1714024304.781,-10.254,-23.926,-40.039,-23.926,0.000
1714024304.785,-10.742,-21.973,-32.227,-33.203,0.000
1714024304.789,-7.324,-14.160,-33.691,-28.320,0.000
1714024304.793,-7.324,-16.113,-35.645,-23.926,0.000
1714024304.797,-7.324,-19.043,-23.438,-25.879,0.000
1714024304.801,-4.883,-19.043,-15.625,-30.762,0.000
1714024304.804,-13.672,-24.902,-22.461,-33.203,0.000
1714024304.808,-14.648,-27.832,-30.762,-28.320,0.000
1714024304.812,-6.348,-26.367,-23.438,-25.391,0.000
1714024304.816,-6.836,-25.391,-14.160,-30.762,0.000
1714024304.820,-13.672,-25.391,-21.973,-37.109,0.000
1714024304.824,-17.090,-30.762,-27.832,-27.832,0.000
1714024304.828,-12.207,-29.785,-23.438,-21.973,0.000
1714024304.832,-9.766,-23.926,-18.066,-26.855,0.000
1714024304.836,-9.277,-25.391,-14.160,-32.715,0.000
1714024304.840,-14.648,-23.438,-20.508,-33.691,0.000
1714024304.843,-19.531,-28.320,-25.391,-35.156,0.000
1714024304.847,-17.090,-37.109,-23.926,-36.133,0.000
1714024304.851,-16.113,-31.250,-23.438,-37.598,0.000
1714024304.855,-18.555,-25.879,-22.461,-39.062,0.000
1714024304.859,-19.531,-31.738,-24.414,-33.691,0.000
1714024304.863,-20.020,-33.691,-28.320,-36.133,0.000
1714024304.867,-15.137,-25.879,-27.832,-38.574,0.000
1714024304.871,-19.043,-32.715,-31.250,-32.715,0.000
1714024304.875,-23.926,-38.086,-26.855,-39.062,0.000
1714024304.879,-20.508,-30.273,-25.879,-41.504,0.000
1714024304.882,-21.484,-24.414,-28.809,-44.434,0.000
1714024304.886,-21.484,-19.043,-26.367,-49.316,0.000
1714024304.890,-20.020,-24.902,-29.785,-42.969,0.000
1714024304.894,-22.461,-28.809,-35.156,-41.504,0.000
1714024304.898,-20.996,-20.508,-31.738,-41.504,0.000
1714024304.902,-17.090,-18.555,-26.367,-41.504,0.000
1714024304.906,-16.602,-25.879,-32.227,-39.062,0.000
1714024304.910,-15.137,-22.461,-33.691,-30.762,0.000
1714024304.913,-10.254,-21.484,-30.273,-27.832,0.000
1714024304.917,-11.719,-26.855,-29.297,-35.156,0.000
1714024304.921,-16.113,-24.902,-30.273,-45.410,0.000
1714024304.925,-13.672,-23.438,-31.738,-40.527,0.000
1714024304.929,-10.742,-20.020,-33.691,-30.762,0.000
1714024304.933,-16.602,-18.555,-29.785,-34.668,0.000
1714024304.936,-25.879,-26.855,-22.949,-46.387,0.000
1714024304.940,-21.973,-33.203,-31.738,-47.852,0.000
1714024304.944,-14.648,-28.809,-28.809,-39.062,0.000
1714024304.948,-11.719,-24.902,-16.113,-44.434,0.000
1714024304.952,-20.020,-32.227,-26.855,-53.711,0.000
1714024304.956,-21.484,-35.156,-33.203,-49.316,0.000
1714024304.960,-19.043,-37.598,-33.691,-43.945,0.000
1714024304.964,-24.414,-33.691,-32.715,-47.363,0.000
1714024304.968,-23.926,-27.832,-28.320,-42.969,0.000
1714024304.972,-25.391,-26.855,-24.902,-41.016,0.000
1714024304.976,-25.879,-25.391,-25.391,-44.434,0.000
1714024304.979,-22.949,-22.461,-24.414,-41.992,0.000
1714024304.983,-29.785,-25.879,-28.809,-50.293,0.000
1714024304.987,-31.250,-36.133,-34.668,-48.340,0.000
1714024304.991,-31.250,-42.480,-34.180,-44.922,0.000
1714024304.995,-30.762,-38.086,-34.180,-53.223,0.000
1714024304.998,-23.926,-30.273,-19.531,-47.852,0.000
1714024305.002,-28.320,-26.855,-21.484,-44.434,0.000
1714024305.006,-36.621,-27.832,-36.621,-49.805,0.000
1714024305.010,-30.762,-31.738,-33.203,-49.316,0.000
1714024305.014,-31.250,-35.156,-24.902,-49.805,0.000
1714024305.018,-34.668,-30.273,-26.367,-54.199,0.000
1714024305.022,-34.180,-24.902,-31.738,-56.152,0.000
1714024305.026,-37.598,-25.879,-34.180,-57.617,0.000
1714024305.030,-34.180,-32.227,-29.785,-50.781,0.000
1714024305.034,-27.832,-37.598,-29.297,-49.316,0.000
1714024305.038,-32.715,-32.227,-39.062,-52.246,0.000
1714024305.042,-37.109,-27.832,-38.574,-51.758,0.000
1714024305.046,-39.062,-36.133,-41.016,-55.664,0.000
1714024305.050,-35.156,-32.715,-34.180,-51.270,0.000
1714024305.054,-31.250,-23.926,-20.020,-45.410,0.000
1714024305.058,-31.738,-22.949,-21.973,-45.898,0.000
1714024305.061,-28.320,-17.090,-31.738,-48.828,0.000
1714024305.065,-22.949,-17.090,-23.926,-45.410,0.000
1714024305.069,-26.855,-23.926,-22.949,-50.781,0.000
1714024305.073,-24.414,-25.879,-37.109,-45.410,0.000
1714024305.077,-20.996,-24.414,-28.320,-36.621,0.000
1714024305.081,-21.484,-18.066,-17.090,-36.133,0.000
1714024305.085,-24.414,-14.648,-21.484,-38.574,0.000
1714024305.089,-27.344,-26.367,-28.320,-45.898,0.000
1714024305.093,-31.250,-31.250,-29.785,-49.805,0.000
1714024305.097,-26.855,-22.461,-20.020,-48.828,0.000
1714024305.101,-26.367,-19.531,-19.043,-46.387,0.000
1714024305.105,-25.879,-29.785,-23.926,-40.527,0.000
1714024305.109,-16.602,-28.320,-23.926,-29.785,0.000
1714024305.113,-17.578,-16.602,-18.066,-31.250,0.000
1714024305.117,-24.902,-20.508,-21.973,-41.992,0.000
1714024305.120,-37.598,-28.809,-30.273,-42.969,0.000
1714024305.124,-40.527,-31.250,-24.414,-37.598,0.000
1714024305.128,-30.273,-27.832,-20.508,-32.715,0.000
1714024305.132,-24.902,-27.344,-23.926,-39.551,0.000
1714024305.136,-25.879,-27.344,-21.484,-44.434,0.000
1714024305.140,-22.949,-21.484,-10.254,-33.203,0.000
1714024305.144,-23.438,-20.508,-11.230,-31.738,0.000
1714024305.148,-30.762,-17.578,-21.484,-42.480,0.000
1714024305.152,-35.156,-20.508,-22.949,-45.410,0.000
1714024305.156,-40.527,-28.320,-19.531,-38.574,0.000
1714024305.160,-40.527,-22.949,-17.090,-40.039,0.000
1714024305.164,-41.016,-24.902,-20.020,-44.922,0.000
1714024305.167,-45.898,-35.645,-27.344,-50.781,0.000
1714024305.171,-33.691,-29.785,-31.738,-46.387,0.000
1714024305.175,-24.414,-22.949,-25.391,-37.109,0.000
1714024305.179,-25.879,-23.438,-14.648,-41.992,0.000
1714024305.183,-24.902,-26.367,-13.672,-46.875,0.000
1714024305.187,-25.391,-27.832,-19.531,-45.410,0.000
1714024305.191,-24.414,-20.020,-28.809,-44.434,0.000
1714024305.195,-19.043,-22.461,-28.320,-44.434,0.000
1714024305.199,-19.043,-21.484,-32.715,-48.828,0.000
1714024305.203,-24.414,-20.996,-41.504,-48.828,0.000
1714024305.207,-27.832,-25.879,-39.062,-46.875,0.000
1714024305.210,-23.438,-22.949,-29.297,-39.551,0.000
1714024305.214,-21.973,-26.367,-21.484,-47.363,0.000
1714024305.218,-26.367,-25.391,-21.484,-53.223,0.000
1714024305.222,-29.785,-21.973,-29.785,-47.363,0.000
1714024305.226,-30.273,-25.391,-34.180,-45.898,0.000
1714024305.230,-32.227,-27.832,-34.180,-45.898,0.000
1714024305.234,-34.180,-26.855,-37.109,-49.805,0.000
1714024305.238,-30.762,-20.508,-36.621,-52.246,0.000
1714024305.242,-29.297,-25.391,-38.086,-49.805,0.000
1714024305.245,-26.367,-30.762,-38.574,-41.504,0.000
1714024305.249,-21.973,-30.762,-23.438,-42.969,0.000
1714024305.253,-20.508,-32.227,-14.648,-40.527,0.000
1714024305.257,-24.902,-27.832,-20.508,-34.668,0.000
1714024305.261,-25.391,-23.438,-23.926,-35.156,0.000
1714024305.265,-21.973,-21.973,-25.879,-36.133,0.000
1714024305.269,-18.066,-19.531,-27.344,-21.973,0.000
1714024305.273,-10.742,-18.555,-31.738,-14.160,0.000
1714024305.276,-20.508,-20.020,-27.344,-39.551,0.000
1714024305.280,-30.273,-18.066,-20.020,-59.570,0.000
1714024305.284,-23.926,-14.160,-20.508,-46.387,0.000
1714024305.288,-16.113,-6.836,-28.320,-34.668,0.000
1714024305.292,-30.273,-10.254,-39.551,-51.270,0.000
1714024305.296,-37.598,-21.973,-34.180,-58.594,0.000
1714024305.300,-26.855,-21.484,-33.691,-55.664,0.000
1714024305.304,-21.973,-21.484,-42.480,-62.500,0.000
1714024305.308,-15.625,-24.414,-39.062,-49.805,0.000
1714024305.311,-12.207,-24.414,-28.320,-37.598,0.000
1714024305.315,-8.789,-18.066,-24.902,-38.086,0.000
1714024305.319,-7.812,-17.090,-28.809,-39.062,0.000
1714024305.323,-14.160,-19.531,-31.738,-43.457,0.000
1714024305.327,-14.160,-22.949,-29.297,-40.039,0.000
1714024305.331,-7.324,-23.438,-28.320,-36.133,0.000
1714024305.335,-13.184,-19.043,-33.203,-35.645,0.000
1714024305.339,-19.531,-10.742,-32.715,-33.691,0.000
1714024305.342,-23.438,-13.672,-30.762,-35.645,0.000
1714024305.346,-28.320,-15.137,-35.156,-40.527,0.000
1714024305.350,-29.297,-17.578,-24.902,-39.062,0.000
1714024305.354,-29.297,-15.625,-18.555,-35.156,0.000
1714024305.358,-24.902,-10.254,-33.203,-36.621,0.000
1714024305.362,-27.344,-16.602,-38.086,-42.480,0.000
1714024305.365,-30.762,-24.414,-34.668,-42.969,0.000
1714024305.369,-27.344,-20.020,-24.902,-40.527,0.000
1714024305.373,-26.367,-18.066,-16.113,-36.621,0.000
1714024305.377,-24.902,-16.113,-21.973,-35.156,0.000
1714024305.381,-26.367,-14.160,-21.973,-38.086,0.000
1714024305.385,-32.227,-25.879,-20.020,-42.480,0.000
1714024305.389,-31.738,-29.785,-28.809,-40.039,0.000
1714024305.393,-23.438,-25.879,-31.738,-32.227,0.000
1714024305.397,-27.832,-26.855,-30.762,-37.109,0.000
1714024305.401,-30.762,-26.367,-28.320,-47.363,0.000
1714024305.405,-31.738,-26.855,-28.809,-41.992,0.000
1714024305.409,-36.133,-26.367,-26.855,-39.062,0.000
1714024305.413,-39.062,-28.320,-34.668,-49.316,0.000
1714024305.417,-39.062,-30.762,-47.363,-52.246,0.000
1714024305.421,-36.133,-28.320,-45.898,-37.598,0.000
1714024305.425,-36.133,-31.250,-41.016,-32.715,0.000
1714024305.429,-37.109,-34.180,-38.574,-40.527,0.000
1714024305.432,-32.227,-37.109,-36.621,-47.852,0.000
1714024305.436,-23.926,-35.156,-37.109,-46.387,0.000
1714024305.440,-18.555,-33.691,-34.668,-37.598,0.000
1714024305.444,-15.625,-29.785,-29.785,-42.969,0.000
1714024305.448,-20.508,-31.738,-38.086,-60.547,0.000
1714024305.452,-29.297,-38.086,-50.781,-66.895,0.000
1714024305.456,-31.250,-33.203,-50.293,-58.105,0.000
1714024305.460,-30.273,-26.367,-37.598,-52.734,0.000
1714024305.464,-32.715,-26.855,-26.367,-55.664,0.000
1714024305.468,-32.227,-20.996,-18.066,-52.734,0.000
1714024305.472,-40.039,-25.879,-13.184,-51.270,0.000
1714024305.476,-41.992,-32.227,-18.066,-47.852,0.000
1714024305.480,-36.621,-25.391,-27.344,-47.852,0.000
1714024305.484,-55.176,-27.832,-45.410,-69.336,0.000
1714024305.488,-62.988,-28.809,-38.086,-75.195,0.000
1714024305.491,-58.594,-23.926,-21.484,-67.871,0.000
1714024305.495,-72.754,-25.391,-30.273,-84.473,0.000
1714024305.499,-83.984,-24.902,-36.621,-106.445,0.000
1714024305.503,-84.473,-25.879,-25.879,-105.957,0.000
1714024305.507,-98.145,-26.855,-15.625,-111.328,0.000
1714024305.511,-102.539,-28.809,-13.184,-112.305,0.000
1714024305.515,-111.328,-29.785,-20.508,-125.000,0.000
1714024305.519,-128.906,-23.926,-26.855,-143.555,0.000
1714024305.523,-129.395,-18.555,-22.949,-144.531,0.000
1714024305.527,-131.836,-16.113,-21.484,-152.344,0.000
1714024305.531,-131.836,-12.207,-28.320,-159.180,0.000
1714024305.535,-136.230,-18.066,-25.879,-165.039,0.000
1714024305.538,-143.066,-21.484,-24.902,-165.527,0.000
1714024305.542,-142.090,-19.043,-22.949,-166.992,0.000
1714024305.546,-142.090,-17.578,-16.113,-178.711,0.000
1714024305.550,-134.766,-14.160,-13.184,-169.922,0.000
1714024305.554,-128.906,-13.672,-18.555,-161.133,0.000
1714024305.558,-125.488,-18.066,-17.090,-159.668,0.000
1714024305.562,-115.723,-14.160,-8.301,-149.414,0.000
1714024305.566,-111.816,-14.160,-8.301,-144.043,0.000
1714024305.570,-107.910,-22.949,-9.277,-133.301,0.000
1714024305.574,-102.539,-20.508,-12.207,-122.559,0.000
1714024305.578,-95.703,-12.695,-20.996,-113.281,0.000
1714024305.581,-80.566,-17.578,-21.973,-104.980,0.000
1714024305.585,-69.824,-17.090,-20.020,-100.586,0.000
1714024305.589,-71.289,-17.090,-24.414,-95.215,0.000
1714024305.593,-68.848,-18.555,-16.113,-86.914,0.000
1714024305.597,-63.477,-21.973,-7.324,-82.031,0.000
1714024305.601,-53.711,-26.855,-11.230,-80.566,0.000
1714024305.605,-49.805,-28.320,-19.043,-69.824,0.000
1714024305.609,-53.711,-28.809,-26.367,-64.453,0.000
1714024305.613,-46.875,-35.156,-22.461,-66.406,0.000
1714024305.617,-39.062,-33.691,-23.926,-62.988,0.000
1714024305.620,-34.668,-27.832,-27.832,-48.828,0.000
1714024305.624,-29.785,-23.926,-20.996,-41.992,0.000
1714024305.628,-27.344,-25.879,-16.602,-44.922,0.000
1714024305.632,-31.250,-31.250,-6.836,-46.875,0.000
1714024305.636,-33.691,-31.738,-7.324,-48.828,0.000
1714024305.640,-36.621,-29.297,-22.949,-53.223,0.000
1714024305.644,-37.109,-29.785,-20.996,-56.641,0.000
1714024305.648,-33.691,-37.598,-14.160,-53.711,0.000
1714024305.651,-34.180,-45.898,-5.859,-58.105,0.000
1714024305.655,-41.992,-40.527,-4.883,-60.547,0.000
1714024305.659,-54.688,-34.668,-2.441,-62.988,0.000
1714024305.663,-62.500,-34.180,-1.953,-64.941,0.000
1714024305.667,-67.383,-33.203,-3.906,-70.801,0.000
1714024305.671,-72.754,-31.250,0.000,-78.613,0.000
1714024305.675,-82.031,-24.902,13.184,-80.566,0.000
1714024305.679,-85.938,-22.949,14.160,-81.543,0.000
1714024305.683,-77.148,-21.484,0.488,-79.590,0.000
1714024305.686,-77.148,-19.531,-6.348,-81.543,0.000
1714024305.690,-82.520,-20.508,-5.371,-83.984,0.000
1714024305.694,-70.312,-19.043,-4.395,-74.219,0.000
1714024305.698,-61.035,-27.344,-1.953,-68.848,0.000
1714024305.702,-62.012,-31.738,2.930,-75.195,0.000
1714024305.706,-54.688,-28.320,5.371,-66.406,0.000
1714024305.710,-40.527,-27.832,3.906,-52.734,0.000
1714024305.714,-41.992,-28.809,6.836,-58.105,0.000
1714024305.717,-45.898,-30.762,5.859,-60.547,0.000
1714024305.721,-37.109,-32.227,-7.324,-48.828,0.000
1714024305.725,-37.598,-34.180,-18.555,-41.016,0.000
1714024305.729,-35.156,-38.086,-20.020,-42.480,0.000
1714024305.733,-30.762,-45.410,-19.531,-35.156,0.000
1714024305.737,-24.902,-45.898,-18.555,-22.949,0.000
1714024305.740,-16.113,-41.504,-19.043,-11.719,0.000
1714024305.744,-12.695,-38.086,-16.113,-11.719,0.000
1714024305.748,-8.789,-40.527,-9.277,-20.508,0.000
1714024305.752,1.465,-41.992,-20.996,-9.766,0.000
1714024305.756,7.812,-36.133,-38.086,0.000,0.000
1714024305.760,8.789,-32.715,-36.621,0.488,0.000
1714024305.764,13.184,-38.574,-33.203,3.418,0.000
1714024305.768,10.254,-42.969,-36.621,0.488,0.000
1714024305.772,4.395,-40.527,-36.133,0.977,0.000
1714024305.776,8.789,-41.504,-37.109,7.812,0.000
1714024305.780,14.648,-37.598,-35.645,12.207,0.000
1714024305.784,12.695,-29.785,-31.738,10.254,0.000
1714024305.788,9.277,-35.645,-39.062,4.395,0.000
1714024305.792,9.766,-40.039,-49.805,6.348,0.000
1714024305.796,21.973,-33.691,-49.805,19.043,0.000
1714024305.800,28.809,-29.297,-47.363,25.391,0.000
1714024305.803,26.855,-31.250,-45.898,22.461,0.000
1714024305.807,20.996,-35.645,-51.270,20.020,0.000
1714024305.811,19.043,-35.156,-47.363,17.090,0.000
1714024305.815,16.602,-32.227,-46.387,6.348,0.000
1714024305.819,10.254,-35.156,-43.457,-5.371,0.000
1714024305.823,16.602,-34.180,-35.156,-0.488,0.000
1714024305.827,24.902,-28.809,-44.922,1.465,0.000
1714024305.831,23.438,-28.320,-53.711,-1.953,0.000
1714024305.835,21.973,-33.691,-45.898,5.371,0.000
1714024305.839,28.809,-39.551,-40.527,16.113,0.000
1714024305.843,32.715,-34.180,-38.086,20.508,0.000
1714024305.847,25.391,-31.250,-40.527,5.859,0.000
1714024305.851,24.414,-28.320,-46.387,1.953,0.000
1714024305.855,15.625,-23.438,-46.875,-4.883,0.000
1714024305.859,15.625,-21.973,-45.898,1.465,0.000
1714024305.862,30.273,-13.672,-40.039,19.531,0.000
1714024305.866,26.367,-5.859,-41.992,-0.488,0.000
1714024305.870,18.555,-10.254,-58.105,-11.719,0.000
1714024305.874,19.531,-20.020,-58.594,-3.418,0.000
1714024305.878,18.555,-25.879,-49.316,2.441,0.000
1714024305.882,19.043,-22.949,-48.340,-6.836,0.000
1714024305.886,16.602,-24.414,-57.129,-16.113,0.000
1714024305.890,16.602,-30.273,-58.594,-12.207,0.000
1714024305.894,19.043,-23.438,-43.457,-4.395,0.000
1714024305.898,18.066,-18.555,-32.227,-2.441,0.000
1714024305.902,10.742,-27.832,-45.898,-14.160,0.000
1714024305.906,6.348,-26.855,-57.129,-6.836,0.000
1714024305.910,6.348,-15.137,-49.805,-3.418,0.000
1714024305.913,-0.977,-17.090,-45.898,-16.113,0.000
1714024305.917,-1.465,-20.508,-50.781,-19.043,0.000
1714024305.921,-0.488,-19.043,-49.805,-19.531,0.000
1714024305.925,-1.953,-17.090,-42.480,-20.996,0.000
1714024305.929,6.836,-13.672,-40.039,-15.625,0.000
1714024305.933,5.859,-16.602,-44.434,-15.137,0.000
1714024305.937,1.465,-18.066,-40.527,-17.578,0.000
1714024305.941,7.324,-13.672,-38.086,-13.184,0.000
1714024305.945,2.441,-8.789,-39.551,-17.090,0.000
1714024305.949,-0.488,-13.184,-44.434,-20.508,0.000
1714024305.953,-1.953,-26.855,-48.828,-21.484,0.000
1714024305.957,-7.324,-23.438,-42.969,-23.438,0.000
1714024305.960,-8.789,-19.531,-41.016,-22.461,0.000
1714024305.964,-7.812,-21.484,-36.133,-21.973,0.000
1714024305.968,-15.137,-21.973,-31.738,-25.391,0.000
1714024305.972,-19.531,-23.438,-35.156,-19.043,0.000
1714024305.976,-17.090,-24.902,-32.227,-13.184,0.000
1714024305.980,-19.043,-23.926,-32.227,-23.438,0.000
1714024305.984,-17.090,-20.508,-34.668,-29.297,0.000
1714024305.988,-16.113,-25.879,-37.109,-27.832,0.000
1714024305.992,-12.207,-23.438,-34.668,-23.926,0.000
1714024305.995,-1.465,-16.113,-27.344,-14.160,0.000
1714024305.999,-3.418,-21.484,-28.320,-20.020,0.000
1714024306.003,-6.836,-21.973,-25.879,-28.809,0.000
1714024306.007,-4.395,-13.672,-21.973,-24.902,0.000
1714024306.011,-0.977,-16.113,-20.508,-23.926,0.000
1714024306.015,-6.348,-19.531,-27.344,-27.832,0.000
1714024306.019,-15.137,-19.043,-38.574,-31.738,0.000
1714024306.023,-15.625,-23.438,-39.062,-27.832,0.000
1714024306.026,-13.672,-21.973,-27.344,-23.438,0.000
1714024306.030,-12.207,-22.949,-21.973,-23.926,0.000
1714024306.034,-10.254,-27.832,-19.531,-24.902,0.000
1714024306.038,-7.324,-24.902,-24.902,-24.414,0.000
1714024306.042,-12.695,-21.973,-29.785,-20.996,0.000
1714024306.046,-18.555,-23.926,-31.250,-31.250,0.000
1714024306.050,-11.230,-21.484,-30.762,-36.133,0.000
1714024306.054,-9.277,-22.949,-29.785,-33.203,0.000
1714024306.058,-17.090,-23.438,-30.762,-30.273,0.000
1714024306.061,-13.184,-20.508,-27.832,-30.762,0.000
1714024306.065,-6.836,-20.020,-30.762,-33.691,0.000
1714024306.069,-8.789,-16.602,-32.227,-30.762,0.000
1714024306.073,-18.066,-20.020,-31.738,-37.598,0.000
1714024306.077,-22.461,-30.762,-29.297,-39.551,0.000
1714024306.081,-21.484,-34.180,-29.297,-34.180,0.000
1714024306.085,-17.090,-29.297,-25.391,-27.832,0.000
1714024306.088,-18.555,-25.391,-12.695,-32.715,0.000
1714024306.092,-21.973,-28.809,-17.090,-35.645,0.000
1714024306.096,-24.902,-28.809,-26.855,-35.156,0.000
1714024306.100,-33.203,-26.367,-35.156,-40.527,0.000
1714024306.104,-35.156,-25.391,-38.086,-36.621,0.000
1714024306.108,-29.785,-24.414,-26.367,-34.180,0.000
1714024306.111,-25.879,-26.367,-17.090,-31.250,0.000
1714024306.115,-27.344,-27.344,-20.996,-30.762,0.000
1714024306.119,-33.691,-22.949,-23.926,-36.621,0.000
1714024306.123,-31.738,-23.926,-16.113,-31.250,0.000
1714024306.127,-25.391,-32.227,-22.461,-27.832,0.000
1714024306.131,-25.391,-28.809,-39.062,-36.133,0.000
1714024306.135,-32.715,-21.973,-41.504,-45.898,0.000
1714024306.139,-34.180,-33.203,-39.062,-53.223,0.000
1714024306.143,-25.879,-34.180,-32.227,-45.898,0.000
1714024306.147,-21.484,-25.391,-23.438,-42.969,0.000
1714024306.151,-23.926,-26.367,-26.367,-57.129,0.000
1714024306.155,-28.320,-27.344,-33.691,-62.500,0.000
1714024306.159,-30.762,-28.320,-34.668,-57.617,0.000
1714024306.163,-28.320,-25.879,-25.879,-53.711,0.000
1714024306.167,-20.508,-19.531,-20.020,-57.617,0.000
1714024306.171,-21.973,-19.531,-29.785,-62.988,0.000
1714024306.175,-21.973,-20.996,-28.809,-53.223,0.000
1714024306.178,-23.926,-26.367,-17.578,-52.734,0.000
1714024306.182,-31.738,-32.227,-26.367,-65.918,0.000
1714024306.186,-29.785,-32.227,-34.668,-67.383,0.000
1714024306.190,-28.809,-34.180,-33.691,-63.477,0.000
1714024306.194,-22.461,-24.902,-18.066,-64.941,0.000
1714024306.198,-18.555,-20.996,-22.461,-68.359,0.000
1714024306.202,-14.648,-25.879,-37.109,-65.430,0.000
1714024306.206,-13.184,-24.414,-32.715,-60.547,0.000
1714024306.210,-13.672,-22.949,-24.902,-61.035,0.000
1714024306.214,-8.789,-30.762,-21.973,-61.523,0.000
1714024306.218,-13.672,-38.086,-34.668,-61.035,0.000
1714024306.222,-26.367,-39.551,-39.551,-55.176,0.000
1714024306.226,-26.855,-36.133,-26.367,-48.828,0.000
1714024306.230,-23.438,-29.785,-24.902,-48.828,0.000
1714024306.234,-27.832,-30.273,-30.762,-43.457,0.000
1714024306.237,-29.297,-26.367,-25.879,-40.039,0.000
1714024306.241,-26.855,-23.926,-16.602,-42.480,0.000
1714024306.245,-24.414,-24.902,-17.090,-42.480,0.000
1714024306.249,-26.367,-25.391,-28.320,-47.852,0.000
1714024306.253,-29.785,-28.809,-33.691,-50.293,0.000
1714024306.257,-25.879,-32.227,-25.391,-45.898,0.000
1714024306.261,-28.320,-37.598,-30.273,-48.828,0.000
1714024306.265,-28.809,-32.227,-37.109,-47.852,0.000
1714024306.269,-31.738,-30.762,-34.668,-47.852,0.000
1714024306.273,-33.691,-36.621,-30.762,-50.781,0.000
1714024306.277,-26.855,-31.250,-19.043,-38.574,0.000
1714024306.281,-27.344,-25.879,-25.879,-30.762,0.000
1714024306.285,-32.715,-22.461,-31.250,-41.016,0.000
1714024306.288,-30.273,-22.949,-28.320,-45.898,0.000
1714024306.292,-31.250,-33.691,-36.621,-41.016,0.000
1714024306.296,-33.203,-34.180,-44.922,-39.062,0.000
1714024306.300,-29.785,-33.691,-39.551,-41.016,0.000
1714024306.304,-32.715,-34.668,-40.527,-50.781,0.000
1714024306.308,-36.621,-36.621,-36.133,-48.828,0.000
1714024306.312,-30.762,-39.062,-19.531,-46.875,0.000
1714024306.316,-40.039,-38.086,-24.902,-57.129,0.000
1714024306.320,-42.480,-31.250,-28.320,-63.965,0.000
1714024306.324,-37.109,-25.879,-25.391,-58.105,0.000
1714024306.327,-38.086,-30.762,-31.250,-45.410,0.000
1714024306.331,-32.715,-33.691,-34.668,-44.922,0.000
1714024306.335,-31.738,-34.180,-39.062,-46.875,0.000
1714024306.339,-34.668,-36.133,-35.156,-39.551,0.000
1714024306.343,-26.367,-32.227,-24.414,-33.203,0.000
1714024306.347,-25.879,-31.738,-23.438,-41.992,0.000
1714024306.351,-30.273,-25.879,-30.273,-41.992,0.000
1714024306.355,-32.227,-25.391,-27.832,-40.527,0.000
1714024306.359,-32.715,-30.762,-26.855,-42.480,0.000
1714024306.363,-33.203,-31.250,-34.180,-47.852,0.000
1714024306.366,-35.156,-34.180,-38.086,-49.316,0.000
1714024306.370,-36.621,-32.715,-38.086,-42.969,0.000
1714024306.374,-40.039,-28.809,-32.227,-42.969,0.000
1714024306.378,-36.133,-29.785,-25.879,-41.992,0.000
1714024306.382,-34.668,-31.250,-28.809,-53.223,0.000
1714024306.386,-35.645,-29.297,-31.738,-56.152,0.000
1714024306.390,-31.738,-25.879,-25.391,-45.410,0.000
1714024306.393,-32.715,-25.879,-17.090,-45.410,0.000
1714024306.397,-28.320,-28.809,-23.926,-51.270,0.000
1714024306.401,-25.391,-29.785,-29.785,-62.500,0.000
1714024306.405,-28.320,-26.367,-27.832,-62.012,0.000
1714024306.409,-25.879,-20.996,-24.902,-51.270,0.000
1714024306.413,-27.832,-20.508,-29.785,-46.387,0.000
1714024306.417,-23.438,-20.508,-28.320,-46.387,0.000
1714024306.421,-24.902,-19.531,-20.020,-50.781,0.000
1714024306.425,-25.391,-14.160,-21.973,-36.133,0.000
1714024306.429,-20.020,-15.625,-27.344,-30.762,0.000
1714024306.433,-20.996,-26.367,-28.809,-41.016,0.000
1714024306.436,-20.020,-29.785,-30.273,-41.016,0.000
1714024306.440,-17.578,-23.926,-26.367,-37.109,0.000
1714024306.444,-20.508,-22.949,-27.344,-38.574,0.000
1714024306.448,-21.484,-23.926,-26.367,-40.039,0.000
1714024306.452,-24.414,-20.996,-22.949,-39.062,0.000
1714024306.456,-30.273,-25.391,-21.484,-42.480,0.000
1714024306.460,-29.297,-31.250,-20.996,-38.574,0.000
1714024306.463,-25.879,-26.367,-22.461,-44.922,0.000
1714024306.467,-33.691,-22.461,-26.855,-60.059,0.000
1714024306.471,-43.945,-29.785,-28.809,-56.152,0.000
1714024306.475,-45.410,-37.109,-20.508,-48.828,0.000
1714024306.479,-42.969,-27.344,-14.160,-54.199,0.000
1714024306.483,-43.457,-22.949,-15.625,-61.523,0.000
1714024306.486,-40.039,-21.973,-19.043,-55.664,0.000
1714024306.490,-38.086,-20.508,-23.438,-45.898,0.000
1714024306.494,-36.621,-18.066,-25.391,-41.016,0.000
1714024306.498,-33.691,-16.113,-30.762,-40.527,0.000
1714024306.502,-33.203,-20.508,-33.203,-36.133,0.000
1714024306.506,-29.785,-18.555,-31.738,-29.297,0.000
1714024306.510,-27.832,-18.066,-30.762,-28.320,0.000
1714024306.514,-26.855,-23.926,-27.344,-32.227,0.000
1714024306.518,-28.320,-29.297,-23.438,-36.133,0.000
1714024306.522,-33.203,-24.902,-26.855,-36.133,0.000
1714024306.525,-33.203,-20.508,-23.926,-30.762,0.000
1714024306.530,-36.621,-22.949,-26.367,-29.785,0.000
1714024306.534,-46.387,-24.902,-36.133,-37.598,0.000
1714024306.538,-49.316,-33.203,-35.645,-39.062,0.000
1714024306.542,-48.340,-28.320,-35.645,-33.691,0.000
1714024306.546,-47.363,-20.996,-26.855,-32.227,0.000
1714024306.549,-43.457,-32.715,-18.066,-34.668,0.000
1714024306.553,-41.016,-32.227,-22.461,-38.086,0.000
1714024306.557,-38.574,-23.438,-29.297,-38.574,0.000
1714024306.561,-37.598,-21.973,-26.855,-43.457,0.000
1714024306.565,-38.086,-19.531,-23.438,-39.551,0.000
1714024306.569,-36.133,-16.113,-24.414,-37.598,0.000
1714024306.573,-31.738,-16.602,-32.715,-39.551,0.000
1714024306.577,-36.133,-21.973,-37.109,-39.062,0.000
1714024306.581,-35.156,-17.578,-30.762,-41.992,0.000
1714024306.585,-26.367,-19.043,-19.043,-38.086,0.000
1714024306.589,-22.949,-31.250,-15.137,-26.855,0.000
1714024306.593,-20.508,-29.297,-20.020,-23.926,0.000
1714024306.597,-20.020,-24.902,-17.090,-21.484,0.000
1714024306.601,-22.949,-25.879,-18.066,-20.996,0.000
1714024306.605,-21.973,-22.949,-28.809,-23.438,0.000
1714024306.608,-19.043,-21.973,-34.668,-22.461,0.000
1714024306.612,-19.043,-16.602,-29.297,-22.949,0.000
1714024306.616,-17.578,-15.137,-16.113,-32.715,0.000
1714024306.620,-23.438,-22.461,-15.137,-36.133,0.000
1714024306.624,-32.227,-25.391,-26.367,-33.203,0.000
1714024306.628,-33.203,-23.926,-25.879,-36.621,0.000
1714024306.632,-34.180,-23.438,-20.020,-42.969,0.000
1714024306.636,-42.480,-24.414,-26.855,-46.387,0.000
1714024306.640,-41.992,-21.484,-32.227,-41.016,0.000
1714024306.644,-35.645,-22.461,-28.320,-35.156,0.000
1714024306.648,-30.273,-21.973,-22.461,-39.062,0.000
1714024306.652,-29.297,-22.461,-21.973,-44.434,0.000
1714024306.656,-32.715,-32.715,-34.180,-38.086,0.000
1714024306.659,-29.297,-30.273,-33.691,-35.156,0.000
1714024306.663,-24.902,-23.438,-21.973,-38.086,0.000
1714024306.667,-21.973,-25.879,-19.531,-38.086,0.000
1714024306.671,-17.090,-20.508,-24.902,-32.715,0.000
1714024306.675,-18.066,-20.020,-27.832,-28.320,0.000
1714024306.679,-18.066,-18.066,-20.996,-26.367,0.000
1714024306.683,-17.090,-28.320,-13.184,-26.367,0.000
1714024306.687,-18.555,-38.086,-16.602,-21.484,0.000
1714024306.691,-22.949,-34.668,-21.484,-17.090,0.000
1714024306.695,-20.508,-31.738,-25.391,-20.996,0.000
1714024306.699,-19.043,-33.203,-20.996,-17.578,0.000
1714024306.702,-24.414,-32.227,-18.555,-17.578,0.000
1714024306.706,-31.250,-27.344,-20.020,-31.250,0.000
1714024306.710,-33.691,-23.438,-22.461,-37.109,0.000
1714024306.714,-37.598,-24.902,-25.391,-39.551,0.000
1714024306.718,-43.945,-32.715,-20.996,-48.340,0.000
1714024306.722,-44.434,-29.297,-22.461,-47.363,0.000
1714024306.726,-44.922,-25.879,-32.227,-41.992,0.000
1714024306.730,-42.969,-25.879,-29.297,-43.457,0.000
1714024306.734,-41.016,-20.996,-21.973,-44.922,0.000
1714024306.737,-39.062,-22.461,-21.484,-41.504,0.000
1714024306.741,-36.133,-16.113,-23.926,-36.133,0.000
1714024306.745,-30.762,-13.672,-20.996,-34.668,0.000
1714024306.749,-22.461,-24.414,-20.996,-40.039,0.000
1714024306.753,-18.555,-27.832,-33.203,-35.645,0.000
1714024306.757,-16.602,-22.461,-34.180,-23.926,0.000
1714024306.761,-14.160,-24.902,-27.832,-22.949,0.000
1714024306.765,-13.672,-23.926,-33.691,-25.391,0.000
1714024306.768,-12.695,-22.461,-30.273,-20.996,0.000
1714024306.772,-16.602,-24.414,-26.367,-18.555,0.000
1714024306.776,-19.043,-15.137,-25.391,-22.949,0.000
1714024306.780,-19.531,-20.508,-21.973,-27.344,0.000
1714024306.784,-22.949,-31.738,-27.344,-32.715,0.000
1714024306.788,-28.809,-33.691,-31.250,-31.250,0.000
1714024306.792,-31.738,-26.367,-16.602,-25.879,0.000
1714024306.796,-40.039,-26.855,-13.184,-42.969,0.000
1714024306.800,-45.898,-35.645,-23.926,-58.105,0.000
1714024306.804,-43.945,-36.133,-30.762,-54.688,0.000
1714024306.808,-48.340,-27.832,-31.738,-54.199,0.000
1714024306.811,-50.781,-25.391,-29.297,-58.105,0.000
1714024306.815,-46.387,-32.715,-25.391,-55.664,0.000
1714024306.819,-44.922,-31.738,-27.832,-51.758,0.000
1714024306.823,-41.016,-28.809,-31.738,-46.387,0.000
1714024306.827,-33.203,-31.250,-30.762,-41.504,0.000
1714024306.831,-27.832,-28.320,-26.367,-33.203,0.000
1714024306.835,-20.020,-22.461,-23.926,-19.043,0.000
1714024306.838,-15.137,-12.695,-23.926,-22.461,0.000
1714024306.842,-16.602,-19.043,-20.996,-23.438,0.000
1714024306.846,-15.137,-28.809,-18.066,-20.508,0.000
1714024306.850,-15.137,-27.344,-25.391,-27.344,0.000
1714024306.854,-13.672,-24.414,-26.855,-23.438,0.000
1714024306.859,-20.508,-30.273,-19.531,-17.090,0.000
1714024306.863,-29.297,-32.715,-34.180,-29.297,0.000
1714024306.866,-29.785,-28.809,-41.504,-34.180,0.000
1714024306.870,-27.344,-27.344,-27.832,-31.738,0.000
1714024306.874,-28.320,-20.508,-28.320,-34.668,0.000
1714024306.878,-31.738,-20.020,-35.645,-35.645,0.000
1714024306.882,-38.574,-29.785,-34.668,-47.363,0.000
1714024306.886,-48.340,-30.762,-32.715,-62.012,0.000
1714024306.890,-50.293,-31.250,-22.461,-61.035,0.000
1714024306.894,-51.758,-36.133,-25.391,-60.059,0.000
1714024306.898,-57.129,-34.668,-37.598,-68.359,0.000
1714024306.902,-57.129,-33.203,-35.645,-69.824,0.000
1714024306.906,-50.293,-26.855,-27.344,-58.594,0.000
1714024306.910,-41.504,-24.414,-24.414,-53.223,0.000
1714024306.914,-30.273,-26.367,-23.926,-48.828,0.000
1714024306.918,-27.832,-25.879,-18.066,-46.875,0.000
1714024306.922,-30.273,-26.855,-22.949,-41.504,0.000
1714024306.925,-29.297,-25.879,-35.645,-41.504,0.000
1714024306.929,-29.785,-27.344,-40.039,-45.410,0.000
1714024306.933,-31.250,-34.668,-34.668,-49.805,0.000
1714024306.937,-27.832,-28.320,-29.297,-42.969,0.000
1714024306.941,-29.785,-21.973,-33.691,-31.250,0.000
1714024306.945,-31.738,-26.367,-30.762,-33.203,0.000
1714024306.949,-28.809,-27.832,-15.625,-32.227,0.000
1714024306.953,-29.297,-26.855,-15.625,-32.715,0.000
1714024306.957,-39.551,-29.297,-33.691,-41.016,0.000
1714024306.961,-37.598,-30.273,-41.016,-48.340,0.000
1714024306.965,-27.344,-25.391,-30.762,-47.363,0.000
1714024306.969,-34.668,-26.855,-26.367,-48.340,0.000
1714024306.973,-40.527,-26.855,-25.879,-55.664,0.000
1714024306.977,-40.039,-20.020,-24.902,-54.688,0.000
1714024306.980,-41.016,-23.926,-27.832,-56.641,0.000
1714024306.984,-41.504,-31.738,-35.156,-62.988,0.000
1714024306.988,-40.039,-27.832,-36.133,-58.105,0.000
1714024306.992,-35.156,-26.367,-32.715,-52.246,0.000
1714024306.996,-32.227,-29.297,-29.785,-49.316,0.000
1714024307.000,-24.414,-26.855,-26.367,-44.434,0.000
1714024307.004,-16.602,-19.043,-22.461,-35.156,0.000
1714024307.008,-20.020,-21.484,-31.250,-36.621,0.000
1714024307.012,-19.531,-23.926,-39.551,-41.992,0.000
1714024307.016,-14.648,-24.414,-40.527,-46.875,0.000
1714024307.020,-11.230,-25.391,-38.574,-49.805,0.000
1714024307.024,-8.301,-22.461,-35.645,-45.410,0.000
1714024307.027,-2.930,-24.414,-26.855,-41.016,0.000
1714024307.031,-6.836,-27.344,-24.902,-41.016,0.000
1714024307.035,-13.184,-24.902,-15.137,-39.551,0.000
1714024307.039,-20.996,-24.414,-9.277,-38.574,0.000
1714024307.043,-34.668,-23.926,-25.391,-46.387,0.000
1714024307.047,-38.086,-19.043,-38.574,-50.293,0.000
1714024307.051,-38.574,-25.879,-38.086,-54.688,0.000
1714024307.055,-46.387,-32.227,-32.715,-60.059,0.000
1714024307.059,-51.270,-29.785,-33.203,-61.523,0.000
1714024307.063,-53.223,-28.320,-36.621,-62.988,0.000
1714024307.066,-52.246,-30.273,-33.691,-66.895,0.000
1714024307.070,-49.805,-26.367,-24.414,-68.359,0.000
1714024307.074,-29.297,-16.602,-35.156,-47.852,0.000
1714024307.078,-15.625,-28.320,-35.645,-33.203,0.000
1714024307.082,-35.645,-36.133,-19.043,-50.781,0.000
1714024307.086,-39.062,-34.180,-23.438,-57.129,0.000
1714024307.090,-21.973,-41.992,-24.902,-38.086,0.000
1714024307.094,-16.602,-42.480,-15.625,-21.973,0.000
1714024307.098,-27.344,-41.016,-11.719,-26.367,0.000
1714024307.102,-35.645,-43.945,-15.625,-33.203,0.000
1714024307.105,-36.621,-42.480,-23.438,-36.133,0.000
1714024307.109,-34.180,-40.039,-24.414,-38.574,0.000
1714024307.113,-23.926,-41.016,-25.879,-32.227,0.000
1714024307.117,-23.926,-41.992,-32.227,-31.250,0.000
1714024307.121,-26.367,-34.668,-25.879,-31.250,0.000
1714024307.125,-20.996,-27.832,-15.137,-32.227,0.000
1714024307.129,-25.879,-28.320,-18.066,-39.551,0.000
1714024307.133,-31.738,-31.250,-21.484,-48.340,0.000
1714024307.137,-33.203,-31.250,-21.484,-49.316,0.000
1714024307.140,-34.668,-29.785,-18.555,-48.340,0.000
1714024307.144,-32.715,-25.391,-19.531,-45.410,0.000
1714024307.148,-21.973,-23.926,-20.508,-41.016,0.000
1714024307.152,-20.020,-26.367,-20.508,-41.504,0.000
1714024307.156,-26.855,-28.809,-31.250,-39.551,0.000
1714024307.160,-17.090,-26.855,-31.738,-31.738,0.000
1714024307.164,-11.230,-29.297,-26.367,-26.367,0.000
1714024307.168,-17.090,-26.367,-20.020,-33.691,0.000
1714024307.172,-14.648,-20.020,-6.348,-32.227,0.000
1714024307.176,-19.531,-21.973,-16.602,-25.879,0.000
1714024307.179,-18.066,-22.949,-25.391,-27.344,0.000
1714024307.183,-20.508,-24.414,-20.020,-34.180,0.000
1714024307.187,-21.973,-28.809,-22.461,-37.598,0.000
1714024307.191,-18.066,-31.250,-22.461,-29.785,0.000
1714024307.195,-22.461,-32.227,-20.996,-31.250,0.000
1714024307.199,-21.973,-33.203,-13.672,-38.574,0.000
1714024307.202,-21.484,-26.855,-10.254,-39.062,0.000
1714024307.206,-18.555,-13.672,-16.113,-34.668,0.000
1714024307.210,-16.602,-20.020,-22.949,-32.715,0.000
1714024307.214,-26.855,-34.668,-29.785,-48.828,0.000
1714024307.218,-30.762,-36.621,-32.227,-60.059,0.000
1714024307.222,-24.902,-28.320,-23.438,-47.363,0.000
1714024307.226,-25.391,-24.902,-18.066,-41.504,0.000
1714024307.230,-23.438,-25.879,-21.484,-39.062,0.000
1714024307.234,-18.066,-22.949,-24.414,-35.645,0.000
1714024307.238,-20.020,-21.484,-25.879,-35.156,0.000
1714024307.242,-20.508,-23.438,-27.344,-29.297,0.000
1714024307.246,-10.254,-19.043,-25.391,-32.227,0.000
1714024307.250,-8.301,-23.926,-27.344,-39.551,0.000
1714024307.254,-7.812,-28.320,-25.879,-35.645,0.000
1714024307.258,-9.277,-27.344,-26.367,-28.320,0.000
1714024307.262,-15.625,-32.227,-31.250,-31.250,0.000
1714024307.266,-16.113,-25.391,-30.762,-34.668,0.000
