timestamps,TP9,AF7,AF8,TP10,Right AUX
1714028622.585,-39.062,-32.227,-12.695,-26.367,0.000
1714028622.589,-35.156,-32.227,-21.484,-24.414,0.000
1714028622.593,-35.156,-32.715,-23.438,-27.832,0.000
1714028622.597,-34.180,-30.273,-19.043,-31.250,0.000
1714028622.601,-38.574,-32.227,-21.973,-31.250,0.000
1714028622.605,-36.621,-40.039,-22.949,-29.785,0.000
1714028622.609,-35.645,-37.598,-18.555,-29.297,0.000
1714028622.613,-38.574,-36.621,-15.625,-32.227,0.000
1714028622.617,-36.133,-38.086,-16.602,-32.227,0.000
1714028622.621,-31.738,-32.227,-23.438,-28.809,0.000
1714028622.625,-27.832,-31.250,-20.996,-25.391,0.000
1714028622.628,-27.344,-31.250,-14.160,-8.301,0.000
1714028622.632,-20.996,-34.668,-11.230,-4.883,0.000
1714028622.636,-23.438,-35.645,-16.602,-3.906,0.000
1714028622.640,-24.414,-31.738,-20.020,-11.230,0.000
1714028622.644,-24.902,-33.203,-19.043,-23.926,0.000
1714028622.648,-31.250,-35.156,-18.066,-25.391,0.000
1714028622.652,-34.668,-38.086,-19.531,-29.785,0.000
1714028622.656,-21.484,-35.156,-22.949,-24.902,0.000
1714028622.660,-9.766,-29.297,-20.996,-27.832,0.000
1714028622.664,-15.625,-27.832,-19.043,-27.344,0.000
1714028622.668,-17.090,-28.320,-13.672,-13.184,0.000
1714028622.671,-9.766,-25.879,-17.090,-16.602,0.000
1714028622.675,-1.465,-21.973,-20.996,-24.414,0.000
1714028622.679,-9.277,-24.902,-17.090,-29.785,0.000
1714028622.683,-20.508,-28.809,-22.949,-29.785,0.000
1714028622.687,-25.391,-29.785,-22.949,-28.809,0.000
1714028622.691,-20.020,-27.344,-19.531,-28.809,0.000
1714028622.695,-17.090,-26.855,-22.461,-20.996,0.000
1714028622.699,-18.066,-32.227,-25.879,-17.578,0.000
1714028622.703,-14.160,-31.250,-28.809,-20.996,0.000
1714028622.707,-11.719,-27.344,-29.785,-24.414,0.000
1714028622.711,-20.508,-30.273,-28.320,-21.484,0.000
1714028622.714,-27.832,-30.273,-24.414,-26.367,0.000
1714028622.718,-22.461,-26.855,-25.879,-30.273,0.000
1714028622.722,-23.438,-26.367,-27.832,-22.949,0.000
1714028622.726,-17.090,-21.973,-22.461,-14.160,0.000
1714028622.730,-8.789,-21.484,-25.879,-18.555,0.000
1714028622.734,-13.184,-25.879,-30.273,-20.020,0.000
1714028622.738,-13.184,-24.414,-19.531,-6.836,0.000
1714028622.742,-10.254,-24.414,-15.625,0.977,0.000
1714028622.746,-15.625,-26.367,-20.508,-13.672,0.000
1714028622.750,-21.484,-24.902,-21.484,-33.203,0.000
1714028622.753,-18.066,-18.066,-24.414,-30.273,0.000
1714028622.757,-14.648,-20.020,-26.855,-20.020,0.000
1714028622.761,-15.137,-26.855,-22.461,-20.508,0.000
1714028622.765,-10.742,-30.273,-19.531,-25.391,0.000
1714028622.769,-18.066,-28.320,-22.949,-22.461,0.000
1714028622.773,-24.902,-26.367,-29.785,-20.996,0.000
1714028622.777,-17.578,-23.926,-29.785,-24.902,0.000
1714028622.781,-8.301,-25.391,-33.203,-34.180,0.000
1714028622.785,-10.742,-28.809,-33.691,-38.086,0.000
1714028622.789,-11.719,-27.344,-25.879,-23.926,0.000
1714028622.793,-7.812,-24.414,-26.855,-15.625,0.000
1714028622.796,-13.672,-23.438,-30.273,-15.137,0.000
1714028622.800,-23.926,-23.926,-25.879,-18.555,0.000
1714028622.804,-23.438,-24.414,-21.484,-25.879,0.000
1714028622.808,-17.090,-26.855,-25.391,-25.391,0.000
1714028622.812,-18.555,-27.832,-28.809,-19.043,0.000
1714028622.816,-28.320,-27.344,-32.715,-33.203,0.000
1714028622.820,-27.832,-25.391,-33.691,-33.691,0.000
1714028622.824,-21.973,-26.367,-29.785,-19.531,0.000
1714028622.828,-19.531,-23.926,-34.180,-25.879,0.000
1714028622.832,-22.461,-23.926,-32.227,-32.227,0.000
1714028622.835,-26.367,-31.738,-23.926,-29.297,0.000
1714028622.839,-28.809,-31.250,-19.043,-22.461,0.000
1714028622.843,-35.156,-28.809,-22.461,-30.273,0.000
1714028622.847,-38.086,-30.762,-26.855,-29.297,0.000
1714028622.851,-34.180,-27.344,-22.949,-19.043,0.000
1714028622.855,-28.320,-32.227,-23.926,-18.555,0.000
1714028622.859,-33.203,-38.574,-28.809,-20.508,0.000
1714028622.863,-34.668,-34.180,-27.344,-29.297,0.000
1714028622.867,-30.762,-33.691,-22.949,-27.832,0.000
1714028622.871,-44.434,-35.645,-29.297,-31.250,0.000
1714028622.874,-42.969,-32.715,-30.762,-34.180,0.000
1714028622.878,-37.598,-27.832,-30.762,-31.738,0.000
1714028622.882,-42.969,-26.855,-33.203,-35.156,0.000
1714028622.886,-44.434,-26.855,-29.785,-43.457,0.000
1714028622.890,-42.480,-30.273,-30.762,-30.273,0.000
1714028622.894,-37.598,-34.668,-31.738,-26.855,0.000
1714028622.898,-29.297,-34.668,-38.086,-40.527,0.000
1714028622.902,-20.996,-27.832,-34.668,-34.180,0.000
1714028622.906,-26.855,-24.414,-27.832,-31.250,0.000
1714028622.910,-34.180,-28.320,-28.320,-41.016,0.000
1714028622.913,-25.391,-29.785,-24.902,-45.898,0.000
1714028622.917,-17.578,-25.879,-23.926,-32.227,0.000
1714028622.921,-9.277,-22.461,-24.902,-19.531,0.000
1714028622.925,-18.066,-22.949,-23.926,-22.949,0.000
1714028622.929,-28.320,-27.344,-21.973,-33.691,0.000
1714028622.933,-26.367,-29.785,-22.461,-27.832,0.000
1714028622.937,-33.691,-27.344,-20.996,-17.578,0.000
1714028622.941,-36.621,-27.832,-20.996,-28.320,0.000
1714028622.945,-29.785,-27.344,-25.391,-25.879,0.000
1714028622.949,-35.156,-28.809,-25.879,-28.809,0.000
1714028622.953,-29.785,-30.273,-28.320,-37.598,0.000
1714028622.956,-14.648,-27.832,-33.203,-11.719,0.000
1714028622.960,-20.020,-29.785,-27.832,-2.930,0.000
1714028622.964,-38.086,-29.297,-23.926,-37.109,0.000
1714028622.968,-40.039,-27.344,-22.949,-43.945,0.000
1714028622.972,-32.227,-31.738,-20.508,-25.879,0.000
1714028622.976,-41.016,-32.227,-21.484,-32.715,0.000
1714028622.980,-51.758,-30.762,-22.949,-40.527,0.000
1714028622.984,-44.922,-28.320,-19.043,-26.855,0.000
1714028622.988,-33.203,-23.926,-18.066,-18.555,0.000
1714028622.992,-34.180,-22.949,-20.996,-26.367,0.000
1714028622.996,-41.992,-29.297,-22.461,-33.203,0.000
1714028622.999,-46.875,-38.574,-24.414,-30.273,0.000
1714028623.003,-49.316,-33.203,-21.484,-32.227,0.000
1714028623.007,-49.316,-28.809,-20.508,-30.762,0.000
1714028623.011,-40.527,-30.762,-18.066,-25.879,0.000
1714028623.015,-34.180,-34.180,-16.602,-27.832,0.000
1714028623.019,-35.156,-35.645,-22.949,-24.902,0.000
1714028623.023,-30.762,-30.762,-22.461,-23.926,0.000
1714028623.027,-29.785,-30.762,-20.996,-24.902,0.000
1714028623.031,-36.133,-32.227,-20.508,-26.855,0.000
1714028623.035,-30.762,-29.297,-20.508,-25.879,0.000
1714028623.039,-34.180,-33.203,-19.043,-15.137,0.000
1714028623.042,-38.086,-36.133,-23.438,-15.137,0.000
1714028623.046,-33.203,-28.809,-22.949,-32.715,0.000
1714028623.050,-32.227,-27.832,-26.367,-40.527,0.000
1714028623.054,-28.320,-26.367,-32.227,-30.273,0.000
1714028623.058,-27.832,-26.367,-25.879,-21.973,0.000
1714028623.062,-21.973,-31.738,-19.043,-16.602,0.000
1714028623.066,-22.949,-28.809,-23.926,-25.391,0.000
1714028623.070,-29.297,-33.203,-29.297,-31.250,0.000
1714028623.074,-19.531,-32.227,-30.762,-24.902,0.000
1714028623.078,-23.438,-24.902,-35.645,-30.762,0.000
1714028623.082,-32.227,-29.785,-35.156,-31.250,0.000
1714028623.085,-26.367,-33.203,-32.227,-20.020,0.000
1714028623.089,-23.926,-30.762,-31.250,-13.184,0.000
1714028623.093,-27.344,-25.391,-27.832,-20.508,0.000
1714028623.097,-25.391,-19.531,-27.832,-19.531,0.000
1714028623.101,-28.320,-19.043,-26.367,-26.367,0.000
1714028623.105,-32.227,-20.996,-25.391,-29.297,0.000
1714028623.109,-26.367,-19.043,-32.715,-12.207,0.000
1714028623.113,-32.715,-20.996,-33.691,-21.484,0.000
1714028623.117,-35.645,-25.391,-27.832,-38.086,0.000
1714028623.121,-28.809,-26.855,-26.855,-29.297,0.000
1714028623.124,-22.949,-24.414,-27.832,-27.344,0.000
1714028623.128,-30.273,-25.879,-30.762,-24.902,0.000
1714028623.132,-34.180,-24.414,-25.879,-21.484,0.000
1714028623.136,-31.738,-20.508,-25.391,-35.156,0.000
1714028623.140,-29.785,-23.438,-25.879,-28.320,0.000
1714028623.144,-24.414,-20.508,-27.832,-19.043,0.000
1714028623.148,-30.762,-21.973,-27.832,-39.551,0.000
1714028623.152,-33.691,-24.414,-27.832,-35.645,0.000
1714028623.156,-21.973,-28.320,-31.250,-15.625,0.000
1714028623.160,-16.113,-32.715,-27.344,-16.113,0.000
1714028623.164,-13.672,-24.414,-28.320,-17.578,0.000
1714028623.167,-27.832,-27.832,-26.855,-18.555,0.000
1714028623.171,-29.785,-36.133,-27.832,-16.113,0.000
1714028623.175,-21.484,-31.738,-28.320,-14.160,0.000
1714028623.179,-21.484,-27.344,-26.855,-12.207,0.000
1714028623.183,-28.320,-27.832,-26.855,-27.344,0.000
1714028623.187,-35.645,-23.926,-29.785,-34.668,0.000
1714028623.191,-30.762,-20.508,-29.297,-21.484,0.000
1714028623.195,-27.344,-19.043,-21.484,-20.996,0.000
1714028623.199,-30.273,-20.020,-23.438,-26.367,0.000
1714028623.203,-26.855,-23.438,-25.391,-22.461,0.000
1714028623.206,-24.902,-20.996,-22.949,-18.555,0.000
1714028623.210,-33.203,-22.949,-20.996,-23.926,0.000
1714028623.214,-24.902,-21.484,-22.461,-21.484,0.000
1714028623.218,-21.484,-25.879,-30.762,-13.672,0.000
1714028623.222,-32.227,-32.715,-27.832,-10.254,0.000
1714028623.226,-42.969,-32.715,-24.414,-25.879,0.000
1714028623.230,-47.363,-33.203,-30.273,-38.574,0.000
1714028623.234,-39.551,-27.344,-34.180,-33.691,0.000
1714028623.238,-30.273,-21.973,-32.227,-30.762,0.000
1714028623.242,-40.039,-25.391,-27.344,-39.551,0.000
1714028623.245,-41.992,-33.691,-27.832,-39.551,0.000
1714028623.249,-25.391,-34.668,-31.738,-18.066,0.000
1714028623.253,-29.297,-28.809,-32.715,-15.137,0.000
1714028623.257,-36.621,-29.297,-33.691,-37.109,0.000
1714028623.261,-39.062,-32.715,-33.691,-32.227,0.000
1714028623.265,-41.016,-30.273,-28.809,-22.949,0.000
1714028623.269,-41.992,-25.879,-29.785,-28.320,0.000
1714028623.273,-42.480,-26.855,-31.250,-30.762,0.000
1714028623.277,-33.691,-23.926,-26.367,-20.996,0.000
1714028623.281,-26.367,-19.043,-23.926,-13.672,0.000
1714028623.285,-29.785,-19.043,-24.902,-26.367,0.000
1714028623.288,-26.367,-20.020,-23.438,-21.973,0.000
1714028623.292,-23.438,-19.043,-20.508,-10.254,0.000
1714028623.296,-27.344,-16.602,-25.391,-13.672,0.000
1714028623.300,-31.250,-25.879,-33.691,-22.461,0.000
1714028623.304,-31.738,-31.738,-33.203,-24.902,0.000
1714028623.308,-40.527,-32.715,-34.180,-27.344,0.000
1714028623.312,-42.969,-34.180,-30.762,-41.016,0.000
1714028623.316,-35.645,-33.691,-23.926,-36.133,0.000
1714028623.320,-32.715,-32.715,-25.879,-13.184,0.000
1714028623.324,-26.367,-35.156,-23.438,-7.324,0.000
1714028623.327,-27.832,-36.621,-22.461,-18.066,0.000
1714028623.331,-40.039,-37.109,-26.855,-33.203,0.000
1714028623.335,-40.039,-32.715,-27.832,-34.180,0.000
1714028623.339,-31.250,-29.297,-24.902,-19.531,0.000
1714028623.343,-22.949,-32.227,-28.809,-21.484,0.000
1714028623.347,-21.973,-36.621,-28.320,-21.484,0.000
1714028623.351,-29.297,-37.109,-24.414,-17.090,0.000
1714028623.355,-26.367,-35.156,-29.785,-24.902,0.000
1714028623.359,-21.973,-33.691,-29.785,-26.855,0.000
1714028623.363,-28.809,-32.715,-26.367,-32.715,0.000
1714028623.367,-25.879,-34.180,-28.320,-33.691,0.000
1714028623.370,-20.996,-32.227,-26.855,-20.508,0.000
1714028623.374,-29.297,-30.762,-25.879,-31.250,0.000
1714028623.378,-37.598,-30.273,-26.367,-40.039,0.000
1714028623.382,-37.598,-32.227,-25.391,-30.273,0.000
1714028623.386,-26.367,-23.438,-23.926,-20.996,0.000
1714028623.390,-27.344,-27.344,-17.578,-16.113,0.000
1714028623.394,-29.297,-30.273,-20.996,-27.344,0.000
1714028623.398,-30.273,-25.391,-24.902,-36.621,0.000
1714028623.402,-29.297,-30.762,-26.855,-35.156,0.000
1714028623.406,-20.996,-30.762,-27.344,-20.996,0.000
1714028623.410,-27.344,-33.691,-25.391,-26.367,0.000
1714028623.413,-35.156,-37.598,-33.691,-39.062,0.000
1714028623.417,-29.785,-33.203,-30.762,-18.066,0.000
1714028623.421,-25.391,-24.414,-16.602,-9.277,0.000
1714028623.425,-16.113,-21.484,-19.531,-19.043,0.000
1714028623.429,-20.020,-24.414,-24.414,-21.484,0.000
1714028623.433,-16.113,-26.367,-20.508,-10.742,0.000
1714028623.437,-17.578,-29.785,-21.973,-8.301,0.000
1714028623.441,-25.879,-31.250,-26.855,-12.207,0.000
1714028623.445,-28.320,-26.367,-23.926,-20.020,0.000
1714028623.449,-30.273,-28.320,-21.973,-28.809,0.000
1714028623.453,-23.926,-29.297,-24.414,-32.227,0.000
1714028623.456,-23.438,-25.391,-20.996,-15.625,0.000
1714028623.460,-27.344,-24.902,-18.066,-6.836,0.000
1714028623.464,-20.020,-18.555,-16.113,-26.367,0.000
1714028623.468,-17.578,-16.602,-19.531,-27.344,0.000
1714028623.472,-25.879,-20.996,-18.555,-18.555,0.000
1714028623.476,-32.227,-29.785,-19.531,-27.344,0.000
1714028623.480,-31.250,-30.273,-26.367,-33.691,0.000
1714028623.484,-35.156,-24.902,-24.902,-43.457,0.000
1714028623.488,-22.949,-25.391,-21.973,-34.180,0.000
1714028623.492,-17.578,-24.902,-22.461,-20.996,0.000
1714028623.495,-29.785,-28.809,-28.320,-32.715,0.000
1714028623.499,-39.551,-26.855,-25.879,-42.969,0.000
1714028623.503,-41.016,-25.391,-27.832,-44.434,0.000
1714028623.507,-35.645,-32.715,-33.691,-39.062,0.000
1714028623.511,-39.551,-26.855,-28.320,-24.902,0.000
1714028623.515,-36.621,-23.438,-35.156,-31.250,0.000
1714028623.519,-36.133,-24.902,-39.062,-37.109,0.000
1714028623.523,-38.574,-29.297,-35.645,-35.156,0.000
1714028623.527,-42.969,-33.691,-37.109,-51.758,0.000
1714028623.531,-39.551,-32.715,-39.551,-41.504,0.000
1714028623.535,-28.320,-32.227,-36.133,-11.719,0.000
1714028623.538,-28.809,-32.227,-26.855,-17.090,0.000
1714028623.542,-31.738,-33.691,-26.367,-31.738,0.000
1714028623.546,-28.809,-29.297,-34.668,-33.691,0.000
1714028623.550,-22.949,-24.414,-34.180,-21.973,0.000
1714028623.554,-32.715,-23.438,-21.484,-12.695,0.000
1714028623.558,-38.574,-25.391,-22.461,-21.484,0.000
1714028623.562,-27.344,-27.344,-26.855,-26.855,0.000
1714028623.566,-21.484,-31.738,-21.484,-24.902,0.000
1714028623.570,-17.090,-33.691,-18.555,-23.438,0.000
1714028623.574,-12.695,-24.414,-17.578,-24.414,0.000
1714028623.577,-15.625,-21.484,-19.531,-19.531,0.000
1714028623.581,-21.484,-23.438,-16.113,-20.996,0.000
1714028623.585,-16.602,-23.926,-9.277,-20.508,0.000
1714028623.589,-17.090,-27.344,-9.277,-11.719,0.000
1714028623.593,-33.691,-30.273,-19.043,-12.695,0.000
1714028623.597,-39.551,-34.180,-19.531,-14.160,0.000
1714028623.601,-37.598,-34.668,-20.508,-24.902,0.000
1714028623.605,-43.945,-31.738,-30.762,-31.738,0.000
1714028623.609,-40.039,-31.738,-25.879,-34.180,0.000
1714028623.613,-30.273,-35.156,-21.484,-29.785,0.000
1714028623.616,-35.645,-36.621,-26.855,-32.715,0.000
1714028623.620,-37.598,-36.621,-27.344,-34.668,0.000
1714028623.624,-33.203,-33.691,-21.973,-33.203,0.000
1714028623.628,-41.016,-30.762,-19.531,-33.691,0.000
1714028623.632,-37.598,-27.344,-25.879,-41.992,0.000
1714028623.636,-41.504,-29.297,-25.391,-39.062,0.000
1714028623.640,-41.504,-33.691,-20.508,-25.879,0.000
1714028623.644,-27.832,-25.879,-20.020,-44.922,0.000
1714028623.648,-32.227,-22.461,-24.902,-54.199,0.000
1714028623.652,-35.156,-25.879,-27.832,-33.691,0.000
1714028623.656,-36.621,-24.902,-25.391,-32.227,0.000
1714028623.659,-38.574,-25.879,-25.879,-29.785,0.000
1714028623.663,-34.180,-29.297,-24.414,-22.461,0.000
1714028623.667,-26.855,-26.855,-25.391,-32.227,0.000
1714028623.671,-28.809,-23.438,-27.832,-29.785,0.000
1714028623.675,-29.785,-21.973,-22.949,-13.672,0.000
1714028623.679,-30.762,-22.461,-20.020,-15.625,0.000
1714028623.683,-28.320,-21.484,-24.414,-25.391,0.000
1714028623.687,-18.555,-21.484,-27.832,-25.879,0.000
1714028623.691,-18.555,-24.414,-23.926,-23.926,0.000
1714028623.695,-27.344,-25.391,-24.414,-26.367,0.000
1714028623.698,-27.344,-26.855,-28.320,-26.855,0.000
1714028623.702,-27.344,-27.832,-20.508,-20.996,0.000
1714028623.706,-22.949,-29.297,-19.043,-21.484,0.000
1714028623.710,-13.184,-28.320,-26.367,-23.438,0.000
1714028623.714,-21.973,-23.926,-23.438,-22.461,0.000
1714028623.718,-26.855,-23.926,-18.066,-20.996,0.000
1714028623.722,-21.484,-24.902,-22.461,-21.484,0.000
1714028623.726,-16.113,-24.414,-23.926,-7.812,0.000
1714028623.730,-14.648,-24.902,-25.391,-12.207,0.000
1714028623.734,-34.668,-27.832,-35.156,-29.297,0.000
1714028623.738,-36.133,-34.668,-34.180,-16.113,0.000
1714028623.741,-24.902,-34.668,-35.156,-17.578,0.000
1714028623.745,-39.551,-29.297,-34.180,-30.273,0.000
1714028623.749,-35.156,-27.344,-24.902,-17.090,0.000
1714028623.753,-26.367,-27.344,-24.902,-25.879,0.000
1714028623.757,-25.391,-25.879,-20.020,-33.691,0.000
1714028623.761,-26.367,-20.508,-24.414,-21.484,0.000
1714028623.765,-32.227,-20.020,-26.367,-21.484,0.000
1714028623.769,-19.531,-16.602,-18.555,-16.602,0.000
1714028623.773,-13.184,-20.020,-21.484,-18.066,0.000
1714028623.777,-18.066,-21.973,-23.926,-27.832,0.000
1714028623.781,-25.879,-21.973,-29.297,-29.297,0.000
1714028623.784,-20.996,-17.578,-25.391,-15.625,0.000
1714028623.788,-16.113,-16.602,-24.902,-1.465,0.000
1714028623.792,-25.391,-20.508,-32.715,-10.254,0.000
1714028623.796,-25.879,-21.973,-32.227,-24.414,0.000
1714028623.800,-24.902,-25.879,-34.668,-26.855,0.000
1714028623.804,-26.855,-30.273,-34.180,-26.855,0.000
1714028623.808,-27.832,-28.809,-31.250,-29.297,0.000
1714028623.812,-33.203,-28.809,-34.668,-36.133,0.000
1714028623.816,-34.668,-27.344,-35.156,-34.668,0.000
1714028623.820,-25.879,-20.508,-28.320,-29.297,0.000
1714028623.824,-22.461,-21.973,-30.762,-32.715,0.000
1714028623.827,-28.320,-24.902,-36.621,-38.086,0.000
1714028623.831,-29.785,-26.367,-33.691,-40.039,0.000
1714028623.835,-23.926,-26.367,-29.785,-28.320,0.000
1714028623.839,-17.090,-25.879,-24.414,-27.344,0.000
1714028623.843,-21.484,-25.391,-24.902,-38.574,0.000
1714028623.847,-23.438,-24.414,-25.391,-28.809,0.000
1714028623.851,-26.855,-26.855,-26.855,-23.926,0.000
1714028623.855,-35.645,-27.832,-27.344,-29.297,0.000
1714028623.859,-34.668,-25.879,-22.949,-31.250,0.000
1714028623.863,-34.180,-24.414,-20.996,-34.180,0.000
1714028623.866,-30.762,-26.855,-30.762,-38.574,0.000
1714028623.870,-34.180,-29.785,-34.180,-37.598,0.000
1714028623.874,-31.250,-24.414,-26.367,-29.297,0.000
1714028623.878,-32.227,-26.367,-23.926,-23.926,0.000
1714028623.882,-31.250,-30.273,-26.367,-35.156,0.000
1714028623.886,-26.855,-25.391,-25.391,-39.551,0.000
1714028623.890,-31.250,-27.344,-20.020,-18.555,0.000
1714028623.894,-34.668,-30.762,-19.531,-16.113,0.000
1714028623.898,-33.691,-30.762,-21.484,-30.762,0.000
1714028623.902,-35.156,-26.855,-23.926,-25.391,0.000
1714028623.906,-35.645,-22.949,-25.879,-21.484,0.000
1714028623.909,-39.551,-25.879,-30.273,-32.715,0.000
1714028623.913,-40.527,-29.785,-28.320,-26.855,0.000
1714028623.917,-32.715,-28.809,-25.879,-21.973,0.000
1714028623.921,-35.156,-25.879,-26.855,-23.926,0.000
1714028623.925,-42.480,-34.668,-29.785,-21.484,0.000
1714028623.929,-36.133,-35.156,-26.855,-22.461,0.000
1714028623.933,-27.344,-31.738,-23.438,-21.973,0.000
1714028623.937,-31.738,-33.203,-26.367,-22.461,0.000
1714028623.941,-29.297,-31.738,-19.531,-23.438,0.000
1714028623.945,-29.297,-28.320,-20.020,-21.973,0.000
1714028623.948,-39.551,-29.297,-26.367,-24.414,0.000
1714028623.952,-37.598,-32.227,-26.367,-28.320,0.000
1714028623.956,-28.809,-24.902,-25.391,-30.273,0.000
1714028623.960,-26.855,-25.391,-23.438,-32.715,0.000
1714028623.964,-30.762,-35.156,-25.391,-32.715,0.000
1714028623.968,-31.738,-36.621,-29.785,-18.555,0.000
1714028623.972,-27.344,-29.297,-31.738,-13.672,0.000
1714028623.976,-22.461,-26.367,-24.902,-20.996,0.000
1714028623.980,-20.020,-27.344,-20.020,-19.531,0.000
1714028623.984,-29.297,-31.250,-27.344,-22.949,0.000
1714028623.988,-32.227,-32.715,-34.668,-32.227,0.000
1714028623.991,-24.414,-32.715,-31.738,-19.531,0.000
1714028623.995,-25.391,-31.738,-24.902,-8.301,0.000
1714028623.999,-31.250,-36.133,-28.809,-18.555,0.000
1714028624.003,-36.621,-44.434,-30.762,-18.555,0.000
1714028624.007,-42.480,-47.852,-26.855,-34.180,0.000
1714028624.011,-39.551,-45.410,-28.320,-38.574,0.000
1714028624.015,-37.598,-40.527,-27.832,-16.113,0.000
1714028624.019,-30.762,-38.574,-23.926,-14.160,0.000
1714028624.023,-28.809,-35.156,-25.391,-24.902,0.000
1714028624.027,-36.133,-29.785,-28.320,-26.855,0.000
1714028624.030,-35.645,-26.855,-27.832,-27.344,0.000
1714028624.034,-30.273,-30.273,-25.391,-26.855,0.000
1714028624.038,-24.902,-30.273,-24.902,-27.832,0.000
1714028624.042,-21.484,-26.855,-24.902,-24.414,0.000
1714028624.046,-24.414,-20.020,-27.344,-35.156,0.000
1714028624.050,-21.973,-25.391,-27.344,-29.297,0.000
1714028624.054,-26.855,-30.273,-23.438,-17.578,0.000
1714028624.058,-27.832,-27.344,-26.367,-23.926,0.000
1714028624.062,-27.344,-32.715,-20.996,-28.809,0.000
1714028624.066,-34.668,-31.738,-20.020,-31.250,0.000
1714028624.069,-29.785,-27.344,-24.414,-27.832,0.000
1714028624.073,-24.414,-31.738,-22.461,-28.320,0.000
1714028624.077,-29.297,-31.738,-26.367,-24.902,0.000
1714028624.081,-29.785,-28.809,-28.809,-14.648,0.000
1714028624.085,-19.531,-32.227,-28.809,-24.902,0.000
1714028624.089,-20.508,-35.645,-34.180,-26.367,0.000
1714028624.093,-26.367,-30.273,-33.691,-25.391,0.000
1714028624.097,-26.367,-28.809,-30.762,-32.227,0.000
1714028624.101,-30.273,-33.203,-34.668,-35.645,0.000
1714028624.105,-37.109,-37.598,-39.062,-39.062,0.000
1714028624.109,-35.156,-35.645,-37.109,-36.133,0.000
1714028624.112,-39.062,-34.180,-29.785,-34.668,0.000
1714028624.116,-28.809,-32.227,-29.297,-29.785,0.000
1714028624.120,-14.648,-29.297,-25.391,-7.812,0.000
1714028624.124,-29.297,-36.133,-25.879,-13.184,0.000
1714028624.128,-32.715,-35.156,-24.902,-34.180,0.000
1714028624.132,-27.832,-27.832,-22.461,-29.785,0.000
1714028624.136,-24.902,-28.809,-31.250,-19.531,0.000
1714028624.140,-14.160,-28.809,-30.273,-13.672,0.000
1714028624.144,-21.484,-29.785,-26.367,-20.020,0.000
1714028624.148,-24.902,-28.320,-27.344,-21.484,0.000
1714028624.152,-19.531,-26.855,-28.320,-22.949,0.000
1714028624.155,-21.484,-27.832,-27.344,-27.832,0.000
1714028624.159,-23.926,-29.785,-27.832,-35.156,0.000
1714028624.163,-33.691,-33.203,-32.715,-33.691,0.000
1714028624.167,-28.320,-29.785,-33.203,-22.461,0.000
1714028624.171,-25.879,-24.414,-33.691,-26.855,0.000
1714028624.175,-36.621,-24.414,-31.738,-39.062,0.000
1714028624.179,-31.738,-22.949,-25.391,-29.785,0.000
1714028624.183,-28.320,-23.926,-25.391,-26.855,0.000
1714028624.187,-34.180,-31.250,-28.320,-30.273,0.000
1714028624.191,-30.762,-29.785,-25.879,-29.785,0.000
1714028624.195,-30.762,-28.809,-29.297,-38.574,0.000
1714028624.198,-33.691,-29.297,-33.691,-41.504,0.000
1714028624.202,-29.785,-26.367,-30.762,-36.621,0.000
1714028624.206,-31.250,-26.367,-28.809,-21.484,0.000
1714028624.210,-28.809,-25.879,-26.367,-15.137,0.000
1714028624.214,-30.273,-23.926,-24.902,-13.184,0.000
1714028624.218,-38.086,-26.367,-29.785,-21.484,0.000
1714028624.222,-35.645,-24.902,-25.879,-33.691,0.000
1714028624.226,-27.832,-22.461,-28.809,-38.086,0.000
1714028624.230,-26.367,-19.043,-32.715,-28.320,0.000
1714028624.234,-29.297,-21.973,-29.297,-20.508,0.000
1714028624.237,-30.762,-31.738,-25.879,-18.555,0.000
1714028624.241,-20.508,-34.668,-23.926,-17.090,0.000
1714028624.245,-19.531,-32.227,-24.414,-21.484,0.000
1714028624.249,-20.996,-27.832,-22.949,-30.273,0.000
1714028624.253,-10.254,-23.926,-25.879,-19.043,0.000
1714028624.257,-6.836,-23.438,-27.344,-18.066,0.000
1714028624.261,-2.930,-18.066,-23.926,-31.738,0.000
1714028624.265,-1.465,-20.020,-23.926,-24.414,0.000
1714028624.269,-11.719,-25.391,-30.273,-26.367,0.000
1714028624.273,-13.672,-25.879,-29.297,-22.461,0.000
1714028624.277,-22.461,-24.414,-25.879,-18.555,0.000
1714028624.280,-28.320,-21.973,-26.855,-31.738,0.000
1714028624.284,-38.574,-27.344,-30.273,-23.926,0.000
1714028624.288,-43.945,-33.203,-28.809,-11.719,0.000
1714028624.292,-39.551,-30.273,-26.855,-16.602,0.000
1714028624.296,-34.180,-28.809,-24.414,-23.438,0.000
1714028624.300,-36.621,-32.715,-25.879,-27.832,0.000
1714028624.304,-37.109,-32.227,-21.973,-14.160,0.000
1714028624.308,-33.691,-25.391,-20.996,-14.648,0.000
1714028624.312,-33.203,-26.855,-29.785,-22.949,0.000
1714028624.316,-39.551,-27.344,-31.738,-31.250,0.000
1714028624.319,-39.551,-23.438,-25.879,-27.832,0.000
1714028624.323,-48.340,-28.320,-31.738,-36.621,0.000
1714028624.327,-52.246,-27.832,-39.551,-40.527,0.000
1714028624.331,-42.480,-29.785,-32.715,-17.090,0.000
1714028624.335,-34.180,-31.250,-30.273,-20.508,0.000
1714028624.339,-32.715,-27.832,-35.156,-31.250,0.000
1714028624.343,-38.086,-27.344,-33.203,-35.156,0.000
1714028624.347,-36.621,-25.879,-29.297,-35.156,0.000
1714028624.351,-32.227,-22.949,-28.320,-38.574,0.000
1714028624.355,-33.203,-24.414,-20.996,-27.832,0.000
1714028624.359,-31.738,-27.344,-20.508,-19.531,0.000
1714028624.362,-34.180,-20.508,-27.344,-33.691,0.000
1714028624.366,-33.691,-15.625,-27.832,-48.828,0.000
1714028624.370,-28.320,-20.996,-28.809,-43.457,0.000
1714028624.374,-31.250,-27.344,-31.250,-35.156,0.000
1714028624.378,-32.715,-31.250,-31.250,-46.875,0.000
1714028624.382,-29.297,-29.297,-33.203,-41.504,0.000
1714028624.386,-36.133,-29.785,-33.691,-34.668,0.000
1714028624.390,-33.691,-31.738,-31.250,-37.109,0.000
1714028624.394,-38.086,-28.809,-32.227,-41.016,0.000
1714028624.398,-44.434,-27.832,-32.227,-64.453,0.000
1714028624.401,-34.180,-30.273,-33.203,-52.734,0.000
1714028624.405,-26.367,-29.785,-34.668,-26.367,0.000
1714028624.409,-29.297,-28.320,-31.250,-27.344,0.000
1714028624.413,-36.133,-31.250,-30.273,-36.621,0.000
1714028624.417,-32.227,-31.250,-36.133,-39.062,0.000
1714028624.421,-25.879,-24.902,-32.715,-16.602,0.000
1714028624.425,-22.461,-22.461,-24.902,-22.461,0.000
1714028624.429,-26.855,-23.438,-28.320,-27.832,0.000
1714028624.433,-27.344,-26.367,-29.297,-25.879,0.000
1714028624.437,-23.438,-28.809,-25.391,-29.785,0.000
1714028624.440,-26.855,-27.344,-18.066,-25.879,0.000
1714028624.444,-26.367,-22.461,-15.137,-27.344,0.000
1714028624.448,-23.926,-25.391,-17.090,-24.414,0.000
1714028624.452,-21.484,-26.855,-29.297,-26.367,0.000
1714028624.456,-16.602,-21.484,-33.691,-28.809,0.000
1714028624.460,-15.625,-23.438,-30.762,-21.484,0.000
1714028624.464,-18.066,-22.949,-28.809,-18.555,0.000
1714028624.468,-20.996,-19.531,-25.879,-36.133,0.000
1714028624.472,-20.020,-25.879,-25.391,-34.180,0.000
1714028624.476,-16.113,-28.320,-25.879,-14.160,0.000
1714028624.480,-20.996,-23.438,-33.691,-36.133,0.000
1714028624.483,-19.531,-26.367,-32.715,-40.039,0.000
1714028624.487,-13.184,-26.855,-29.297,-14.648,0.000
1714028624.491,-11.230,-24.414,-33.203,-13.672,0.000
1714028624.495,-18.066,-25.391,-29.297,-24.414,0.000
1714028624.499,-30.273,-20.020,-24.902,-35.156,0.000
1714028624.503,-33.691,-25.879,-21.484,-36.621,0.000
1714028624.507,-28.809,-33.203,-25.391,-31.250,0.000
1714028624.511,-27.832,-27.832,-25.391,-29.785,0.000
1714028624.515,-32.715,-28.809,-18.555,-25.879,0.000
1714028624.519,-32.227,-28.809,-23.926,-28.809,0.000
1714028624.523,-28.809,-20.996,-31.738,-38.086,0.000
1714028624.526,-28.809,-23.438,-37.598,-35.645,0.000
1714028624.530,-20.996,-30.273,-33.203,-20.996,0.000
1714028624.534,-28.320,-29.297,-31.250,-29.785,0.000
1714028624.538,-34.668,-26.855,-28.809,-25.391,0.000
1714028624.542,-24.902,-28.809,-23.926,-11.230,0.000
1714028624.546,-22.461,-22.461,-23.926,-17.090,0.000
1714028624.550,-27.832,-18.555,-28.809,-24.902,0.000
1714028624.554,-32.227,-29.297,-29.297,-28.320,0.000
1714028624.558,-39.551,-31.250,-27.344,-32.227,0.000
1714028624.562,-33.691,-29.297,-29.297,-36.621,0.000
1714028624.566,-29.297,-30.273,-25.879,-33.691,0.000
1714028624.569,-32.715,-28.320,-23.926,-29.785,0.000
1714028624.573,-36.133,-31.738,-26.855,-36.133,0.000
1714028624.577,-35.156,-28.809,-21.973,-40.039,0.000
1714028624.581,-23.926,-18.555,-20.508,-35.156,0.000
1714028624.585,-26.855,-23.926,-21.484,-22.461,0.000
1714028624.589,-36.133,-27.344,-20.996,-21.484,0.000
1714028624.593,-39.062,-26.855,-28.809,-37.109,0.000
1714028624.597,-41.016,-28.809,-28.809,-35.645,0.000
1714028624.601,-32.227,-26.855,-21.484,-20.020,0.000
1714028624.605,-31.738,-29.297,-23.438,-19.531,0.000
1714028624.608,-34.668,-28.320,-35.645,-30.762,0.000
1714028624.612,-27.344,-26.367,-30.762,-31.250,0.000
1714028624.616,-30.762,-26.367,-26.855,-25.391,0.000
1714028624.620,-37.598,-22.949,-27.344,-20.020,0.000
1714028624.624,-34.180,-23.926,-25.879,-27.832,0.000
1714028624.628,-32.227,-34.180,-30.273,-30.762,0.000
1714028624.632,-28.809,-35.156,-32.227,-22.461,0.000
1714028624.636,-35.156,-30.762,-29.785,-41.016,0.000
1714028624.640,-33.691,-29.297,-28.320,-31.250,0.000
1714028624.644,-15.137,-20.996,-23.926,-5.859,0.000
1714028624.648,-16.113,-19.043,-23.926,-16.113,0.000
1714028624.651,-21.484,-20.508,-26.367,-21.973,0.000
1714028624.655,-15.625,-22.461,-25.391,-16.113,0.000
1714028624.659,-20.508,-22.461,-20.508,-14.648,0.000
1714028624.663,-29.297,-20.020,-20.508,-24.414,0.000
1714028624.667,-26.367,-20.508,-25.879,-29.785,0.000
1714028624.671,-23.926,-25.391,-31.250,-29.297,0.000
1714028624.675,-25.879,-27.344,-28.809,-26.367,0.000
1714028624.679,-27.344,-29.297,-28.809,-31.738,0.000
1714028624.683,-29.297,-32.715,-33.203,-42.480,0.000
1714028624.687,-33.691,-34.668,-30.762,-32.227,0.000
1714028624.690,-32.715,-36.133,-28.320,-27.832,0.000
1714028624.694,-22.949,-29.297,-30.762,-32.715,0.000
1714028624.698,-22.461,-20.996,-22.949,-30.273,0.000
1714028624.702,-26.855,-17.090,-14.160,-28.809,0.000
1714028624.706,-24.902,-24.414,-18.066,-21.484,0.000
1714028624.710,-25.391,-32.227,-24.414,-28.320,0.000
1714028624.714,-26.367,-33.203,-25.391,-40.527,0.000
1714028624.718,-26.367,-34.180,-24.414,-35.645,0.000
1714028624.722,-31.250,-30.762,-26.367,-21.484,0.000
1714028624.726,-41.504,-29.297,-32.715,-35.156,0.000
1714028624.730,-31.738,-27.832,-39.551,-41.504,0.000
1714028624.733,-29.297,-26.367,-38.574,-27.832,0.000
1714028624.737,-34.180,-23.438,-32.227,-26.855,0.000
1714028624.741,-24.414,-19.531,-34.668,-30.762,0.000
1714028624.745,-21.973,-17.090,-38.574,-33.691,0.000
1714028624.749,-22.461,-21.973,-33.691,-29.297,0.000
1714028624.753,-18.066,-29.785,-25.879,-28.320,0.000
1714028624.757,-12.207,-25.879,-28.809,-18.066,0.000
1714028624.761,-20.996,-25.391,-28.320,-1.465,0.000
1714028624.765,-32.227,-35.645,-30.762,-4.395,0.000
1714028624.769,-28.809,-31.250,-26.367,-13.184,0.000
1714028624.772,-31.250,-26.855,-25.879,-19.043,0.000
1714028624.776,-34.668,-31.250,-34.180,-28.809,0.000
1714028624.780,-31.738,-32.715,-32.227,-30.273,0.000
1714028624.784,-35.156,-27.832,-24.902,-29.297,0.000
1714028624.788,-25.391,-24.902,-22.461,-20.508,0.000
1714028624.792,-21.973,-28.320,-30.273,-26.367,0.000
1714028624.796,-33.203,-26.855,-30.273,-29.297,0.000
1714028624.800,-24.414,-22.461,-24.902,-17.578,0.000
1714028624.804,-17.090,-28.320,-20.020,-16.113,0.000
1714028624.808,-17.578,-27.832,-21.484,-17.578,0.000
1714028624.811,-21.484,-26.367,-27.344,-22.949,0.000
1714028624.815,-30.762,-28.320,-26.855,-26.367,0.000
1714028624.819,-29.785,-24.902,-26.367,-25.879,0.000
1714028624.823,-29.297,-21.973,-25.391,-25.879,0.000
1714028624.827,-21.484,-22.461,-23.926,-30.273,0.000
1714028624.831,-27.832,-21.973,-25.879,-29.297,0.000
1714028624.835,-38.086,-25.879,-25.391,-20.508,0.000
1714028624.839,-29.297,-29.297,-25.391,-19.043,0.000
1714028624.843,-28.809,-25.879,-28.320,-31.250,0.000
1714028624.847,-31.738,-29.785,-28.320,-40.039,0.000
1714028624.851,-27.344,-28.809,-27.832,-42.969,0.000
1714028624.854,-22.949,-23.438,-28.320,-31.738,0.000
1714028624.858,-28.320,-24.414,-31.738,-35.156,0.000
1714028624.862,-28.320,-24.414,-37.109,-45.410,0.000
1714028624.866,-34.180,-30.273,-34.668,-29.785,0.000
1714028624.870,-39.062,-30.273,-30.273,-16.602,0.000
1714028624.874,-27.832,-24.902,-27.832,-23.926,0.000
1714028624.878,-25.879,-21.973,-24.902,-36.133,0.000
1714028624.882,-23.438,-25.391,-26.855,-33.691,0.000
1714028624.886,-24.414,-28.320,-29.297,-25.879,0.000
1714028624.890,-37.109,-24.902,-25.391,-31.250,0.000
1714028624.894,-29.785,-24.414,-31.250,-36.621,0.000
1714028624.897,-28.320,-23.926,-36.133,-34.668,0.000
1714028624.901,-32.227,-27.344,-32.227,-23.926,0.000
1714028624.905,-20.020,-24.902,-32.227,-17.578,0.000
1714028624.909,-24.414,-20.020,-31.738,-22.461,0.000
1714028624.913,-33.203,-31.738,-33.203,-24.902,0.000
1714028624.917,-21.484,-33.203,-32.227,-20.020,0.000
1714028624.921,-19.043,-26.367,-27.832,-17.090,0.000
1714028624.925,-32.715,-28.809,-31.738,-29.785,0.000
1714028624.929,-19.043,-22.949,-36.621,-36.133,0.000
1714028624.933,-21.973,-19.531,-30.762,-17.578,0.000
1714028624.937,-24.902,-19.531,-26.855,-7.324,0.000
1714028624.940,-15.625,-21.484,-32.715,-7.812,0.000
1714028624.944,-26.367,-29.785,-35.156,-22.949,0.000
1714028624.948,-31.250,-23.926,-35.645,-30.273,0.000
1714028624.952,-34.668,-25.879,-38.574,-34.668,0.000
1714028624.956,-40.527,-31.250,-45.898,-49.316,0.000
1714028624.960,-32.227,-31.250,-44.922,-26.367,0.000
1714028624.964,-35.156,-33.691,-39.062,-15.625,0.000
1714028624.968,-45.410,-32.715,-41.016,-38.086,0.000
1714028624.972,-30.762,-33.203,-37.109,-34.668,0.000
1714028624.976,-13.672,-25.879,-37.109,-21.973,0.000
1714028624.980,-15.137,-21.973,-38.086,-23.438,0.000
1714028624.983,-20.020,-21.484,-30.762,-28.809,0.000
1714028624.987,-12.207,-20.996,-30.273,-27.344,0.000
1714028624.991,-10.254,-22.949,-30.273,-31.250,0.000
1714028624.995,-13.672,-20.996,-27.344,-25.879,0.000
1714028624.999,-20.020,-21.973,-34.668,-28.320,0.000
1714028625.003,-21.484,-27.832,-38.574,-21.973,0.000
1714028625.007,-19.531,-23.438,-32.227,-1.953,0.000
1714028625.011,-26.855,-25.879,-30.762,-15.137,0.000
1714028625.015,-31.250,-36.133,-30.762,-20.020,0.000
1714028625.019,-35.156,-28.320,-29.785,-22.949,0.000
1714028625.022,-35.156,-26.855,-30.762,-20.996,0.000
1714028625.026,-29.297,-30.273,-31.250,-24.414,0.000
1714028625.030,-39.551,-28.320,-39.062,-38.574,0.000
1714028625.034,-40.039,-30.762,-40.039,-31.250,0.000
1714028625.038,-23.438,-31.250,-27.832,-11.230,0.000
1714028625.042,-24.902,-25.391,-30.762,-27.344,0.000
1714028625.046,-29.297,-24.414,-33.203,-32.227,0.000
1714028625.050,-28.809,-25.879,-28.320,-8.301,0.000
1714028625.054,-30.273,-20.996,-27.832,-9.766,0.000
1714028625.058,-25.879,-21.484,-22.949,-12.695,0.000
1714028625.062,-26.367,-24.902,-27.832,-16.602,0.000
1714028625.065,-17.090,-25.879,-36.133,-14.160,0.000
1714028625.069,-18.066,-30.273,-36.133,-19.531,0.000
1714028625.073,-25.879,-31.250,-37.598,-30.762,0.000
1714028625.077,-25.391,-27.344,-38.574,-37.598,0.000
1714028625.081,-34.180,-23.926,-36.621,-41.992,0.000
1714028625.085,-30.273,-29.297,-36.621,-34.668,0.000
1714028625.089,-33.203,-28.320,-35.645,-29.297,0.000
1714028625.093,-31.738,-25.391,-40.039,-27.832,0.000
1714028625.097,-21.973,-26.367,-38.574,-25.391,0.000
1714028625.101,-35.645,-23.926,-33.203,-37.109,0.000
1714028625.104,-46.387,-22.949,-36.133,-38.574,0.000
1714028625.108,-41.016,-29.297,-37.598,-32.227,0.000
1714028625.112,-40.527,-26.855,-35.156,-42.480,0.000
1714028625.116,-33.203,-17.090,-34.668,-37.598,0.000
1714028625.120,-32.715,-21.973,-36.621,-24.902,0.000
1714028625.124,-38.574,-23.438,-36.621,-32.227,0.000
1714028625.128,-29.297,-22.461,-33.691,-33.203,0.000
1714028625.132,-29.297,-20.508,-34.668,-34.180,0.000
1714028625.136,-23.926,-20.996,-33.203,-27.832,0.000
1714028625.140,-18.066,-24.414,-33.203,-17.578,0.000
1714028625.143,-20.508,-26.855,-34.668,-27.344,0.000
1714028625.147,-22.461,-25.391,-28.809,-39.062,0.000
1714028625.151,-18.555,-24.902,-32.715,-32.715,0.000
1714028625.155,-14.648,-28.320,-34.668,-22.461,0.000
1714028625.159,-26.855,-29.297,-35.156,-26.367,0.000
1714028625.163,-19.531,-31.738,-39.062,-27.344,0.000
1714028625.167,-10.254,-31.738,-38.086,-30.762,0.000
1714028625.171,-19.531,-23.438,-35.645,-30.762,0.000
1714028625.175,-18.555,-17.578,-33.691,-21.973,0.000
1714028625.179,-16.113,-21.973,-34.180,-19.043,0.000
1714028625.182,-18.066,-19.531,-36.621,-13.184,0.000
1714028625.186,-22.949,-17.578,-32.715,-13.184,0.000
1714028625.190,-26.855,-22.949,-32.715,-24.902,0.000
1714028625.194,-27.832,-24.414,-36.133,-38.086,0.000
1714028625.198,-25.879,-23.926,-40.527,-29.785,0.000
1714028625.202,-27.832,-22.949,-39.062,-8.789,0.000
1714028625.206,-32.227,-24.902,-30.273,-12.207,0.000
1714028625.210,-26.855,-22.949,-27.832,-13.672,0.000
1714028625.214,-29.297,-17.090,-26.855,-24.902,0.000
1714028625.218,-38.086,-20.020,-30.762,-36.133,0.000
1714028625.222,-36.133,-26.367,-31.250,-38.086,0.000
1714028625.225,-35.645,-27.832,-28.320,-33.203,0.000
1714028625.229,-40.039,-30.762,-31.250,-32.715,0.000
1714028625.233,-36.133,-30.762,-28.809,-29.785,0.000
1714028625.237,-27.832,-32.715,-23.438,-20.020,0.000
1714028625.241,-30.762,-31.738,-23.438,-29.785,0.000
1714028625.245,-27.344,-26.855,-26.855,-33.203,0.000
1714028625.249,-25.391,-30.273,-28.320,-24.902,0.000
1714028625.253,-30.273,-30.273,-30.273,-35.156,0.000
1714028625.257,-23.926,-25.879,-29.785,-31.250,0.000
1714028625.261,-25.391,-24.414,-27.832,-20.996,0.000
1714028625.265,-36.621,-28.320,-32.227,-38.086,0.000
1714028625.268,-32.715,-32.715,-33.691,-31.738,0.000
1714028625.272,-24.414,-28.320,-27.832,-11.719,0.000
1714028625.276,-19.043,-26.367,-29.297,-7.812,0.000
1714028625.280,-19.043,-26.855,-28.320,-17.578,0.000
1714028625.284,-30.273,-23.926,-24.902,-31.250,0.000
1714028625.288,-25.391,-29.785,-20.020,-22.949,0.000
1714028625.292,-29.297,-27.832,-20.020,-13.184,0.000
1714028625.296,-37.598,-20.508,-23.926,-15.137,0.000
1714028625.300,-34.180,-24.902,-25.391,-16.602,0.000
1714028625.304,-36.621,-32.227,-28.809,-16.602,0.000
1714028625.308,-37.109,-36.621,-28.320,-18.555,0.000
1714028625.311,-34.180,-33.691,-29.785,-29.785,0.000
1714028625.315,-33.691,-29.785,-33.203,-31.738,0.000
1714028625.319,-37.109,-30.273,-27.344,-29.297,0.000
1714028625.323,-38.574,-32.227,-25.879,-31.250,0.000
1714028625.327,-43.457,-34.668,-35.156,-31.738,0.000
1714028625.331,-49.805,-38.086,-34.668,-32.227,0.000
1714028625.335,-38.574,-26.367,-30.273,-25.879,0.000
1714028625.339,-32.715,-25.391,-29.297,-22.461,0.000
1714028625.343,-39.062,-31.250,-32.227,-34.668,0.000
1714028625.347,-41.504,-31.250,-34.180,-38.574,0.000
1714028625.351,-38.574,-37.109,-30.273,-28.809,0.000
1714028625.354,-40.527,-34.668,-28.320,-24.902,0.000
1714028625.358,-35.156,-29.785,-27.344,-28.320,0.000
1714028625.362,-33.691,-27.832,-26.855,-37.109,0.000
1714028625.366,-46.387,-30.273,-30.762,-39.551,0.000
1714028625.370,-35.645,-34.180,-34.180,-30.762,0.000
1714028625.374,-31.250,-33.691,-37.598,-50.293,0.000
1714028625.378,-35.645,-31.250,-36.621,-38.574,0.000
1714028625.382,-29.785,-26.367,-31.738,-24.902,0.000
1714028625.386,-28.320,-23.438,-29.297,-34.668,0.000
1714028625.390,-36.621,-29.297,-30.762,-30.273,0.000
1714028625.394,-38.086,-34.180,-29.297,-40.039,0.000
1714028625.397,-37.109,-34.180,-33.691,-41.016,0.000
1714028625.401,-34.668,-29.785,-34.668,-33.203,0.000
1714028625.405,-34.180,-25.391,-30.762,-27.832,0.000
1714028625.409,-27.344,-24.902,-27.344,-36.133,0.000
1714028625.413,-26.367,-25.391,-33.203,-36.133,0.000
1714028625.417,-33.203,-25.879,-41.016,-24.414,0.000
1714028625.421,-24.902,-22.461,-30.762,-24.414,0.000
1714028625.425,-31.250,-22.949,-27.832,-23.926,0.000
1714028625.429,-39.062,-23.438,-30.762,-30.762,0.000
1714028625.433,-38.574,-24.902,-31.250,-27.832,0.000
1714028625.436,-39.062,-27.344,-34.180,-30.273,0.000
1714028625.440,-30.273,-28.320,-28.809,-28.320,0.000
1714028625.444,-20.996,-28.809,-25.879,-23.438,0.000
1714028625.448,-29.297,-24.414,-26.367,-28.320,0.000
1714028625.452,-33.691,-29.297,-26.855,-35.645,0.000
1714028625.456,-22.949,-30.762,-30.762,-31.738,0.000
1714028625.460,-24.902,-22.949,-27.344,-20.508,0.000
1714028625.464,-27.344,-25.391,-28.320,-19.531,0.000
1714028625.468,-22.949,-29.785,-36.621,-14.160,0.000
1714028625.472,-22.461,-28.809,-37.109,-16.602,0.000
1714028625.475,-21.973,-31.738,-32.227,-24.414,0.000
1714028625.479,-22.949,-30.273,-33.691,-21.484,0.000
1714028625.483,-24.414,-30.762,-36.621,-20.508,0.000
1714028625.487,-17.090,-27.832,-30.762,-14.160,0.000
1714028625.491,-16.602,-26.367,-28.809,-19.043,0.000
1714028625.495,-20.508,-26.367,-35.156,-22.461,0.000
1714028625.499,-25.879,-27.344,-29.785,-25.391,0.000
1714028625.503,-24.902,-27.832,-26.855,-26.855,0.000
1714028625.507,-20.508,-22.461,-29.785,-21.484,0.000
1714028625.511,-24.414,-23.926,-29.297,-27.344,0.000
1714028625.515,-25.879,-26.855,-28.320,-22.949,0.000
1714028625.518,-16.113,-27.344,-23.926,-20.508,0.000
1714028625.522,-12.207,-23.438,-20.508,-25.879,0.000
1714028625.526,-19.043,-23.438,-22.461,-23.926,0.000
1714028625.530,-26.367,-27.832,-24.414,-16.113,0.000
1714028625.534,-33.203,-26.367,-21.973,-30.273,0.000
1714028625.538,-35.645,-24.902,-20.020,-36.621,0.000
1714028625.542,-30.762,-29.785,-24.414,-14.648,0.000
1714028625.546,-18.555,-26.367,-25.391,-17.578,0.000
1714028625.550,-19.531,-21.973,-28.320,-27.344,0.000
1714028625.554,-23.926,-26.855,-29.785,-24.414,0.000
1714028625.557,-19.043,-24.414,-26.855,-18.555,0.000
1714028625.561,-19.043,-20.996,-24.902,-22.949,0.000
1714028625.565,-30.762,-22.949,-30.762,-37.109,0.000
1714028625.569,-47.363,-28.320,-29.785,-46.387,0.000
1714028625.573,-36.133,-23.926,-21.484,-35.645,0.000
1714028625.577,-20.996,-17.578,-20.020,-17.090,0.000
1714028625.581,-29.297,-18.066,-22.461,-31.250,0.000
1714028625.585,-26.855,-19.531,-26.855,-28.809,0.000
1714028625.589,-22.461,-22.949,-27.344,-20.020,0.000
1714028625.593,-31.738,-26.367,-23.926,-30.762,0.000
1714028625.597,-36.133,-31.738,-25.879,-33.203,0.000
1714028625.600,-32.715,-32.227,-32.227,-29.785,0.000
1714028625.604,-31.250,-26.855,-29.297,-24.902,0.000
1714028625.608,-30.273,-28.809,-25.879,-35.645,0.000
1714028625.612,-30.273,-28.809,-28.809,-38.574,0.000
1714028625.616,-32.715,-23.438,-30.762,-30.762,0.000
1714028625.620,-33.691,-21.484,-26.855,-18.555,0.000
1714028625.624,-31.250,-23.926,-23.926,-15.137,0.000
1714028625.628,-28.320,-23.926,-32.227,-29.297,0.000
1714028625.632,-25.391,-22.949,-36.621,-33.203,0.000
1714028625.636,-25.391,-24.902,-31.250,-28.809,0.000
1714028625.640,-21.484,-24.414,-28.320,-30.273,0.000
1714028625.643,-17.090,-24.902,-29.785,-37.598,0.000
1714028625.647,-5.859,-27.832,-34.668,-30.273,0.000
1714028625.651,-3.906,-31.738,-41.504,-26.367,0.000
1714028625.655,-17.090,-29.297,-40.527,-35.156,0.000
1714028625.659,-20.508,-25.391,-34.180,-31.250,0.000
1714028625.663,-17.578,-27.344,-35.645,-16.113,0.000
1714028625.667,-29.785,-29.785,-33.691,-31.250,0.000
1714028625.671,-37.598,-27.344,-27.344,-31.738,0.000
1714028625.675,-35.156,-23.926,-26.855,-19.531,0.000
1714028625.679,-39.551,-24.902,-26.855,-37.598,0.000
1714028625.683,-38.086,-23.926,-20.508,-30.762,0.000
1714028625.686,-35.645,-22.949,-23.926,-26.367,0.000
1714028625.690,-30.762,-21.484,-30.273,-25.391,0.000
1714028625.694,-25.879,-21.973,-29.297,-26.367,0.000
1714028625.698,-31.738,-27.344,-35.156,-27.832,0.000
1714028625.702,-32.715,-27.832,-34.668,-30.762,0.000
1714028625.706,-27.344,-25.879,-28.320,-24.414,0.000
1714028625.710,-32.715,-30.273,-29.785,2.441,0.000
1714028625.714,-42.480,-31.250,-29.785,-20.508,0.000
1714028625.718,-36.621,-31.250,-29.297,-31.738,0.000
1714028625.722,-24.414,-22.949,-30.273,-17.090,0.000
1714028625.725,-20.020,-19.531,-31.250,-26.855,0.000
1714028625.729,-23.926,-24.902,-31.250,-37.109,0.000
1714028625.733,-24.414,-22.949,-26.367,-16.113,0.000
1714028625.737,-23.926,-20.508,-26.367,-6.836,0.000
1714028625.741,-21.484,-24.414,-30.762,-9.766,0.000
1714028625.745,-20.020,-27.832,-31.738,-14.160,0.000
1714028625.749,-26.855,-25.879,-28.809,-28.320,0.000
1714028625.753,-27.832,-30.762,-29.297,-27.832,0.000
1714028625.757,-25.879,-33.691,-31.250,-15.137,0.000
1714028625.761,-33.203,-39.551,-29.297,-33.203,0.000
1714028625.765,-26.367,-35.156,-28.809,-31.250,0.000
1714028625.768,-18.555,-23.926,-34.668,-9.277,0.000
1714028625.772,-20.508,-22.461,-36.621,-19.531,0.000
1714028625.776,-21.973,-20.996,-30.762,-27.344,0.000
1714028625.780,-25.391,-21.973,-23.926,-22.461,0.000
1714028625.784,-22.949,-24.902,-25.879,-21.484,0.000
1714028625.788,-19.531,-25.391,-28.320,-20.996,0.000
1714028625.792,-22.949,-27.344,-26.367,-19.531,0.000
1714028625.796,-26.367,-28.809,-29.785,-25.391,0.000
1714028625.800,-24.902,-23.926,-35.645,-30.762,0.000
1714028625.804,-19.043,-20.508,-30.762,-26.367,0.000
1714028625.807,-20.996,-19.531,-28.809,-21.973,0.000
1714028625.811,-20.996,-17.578,-30.273,-18.066,0.000
1714028625.815,-20.996,-18.555,-31.250,-23.438,0.000
1714028625.819,-25.879,-23.438,-32.227,-27.344,0.000
1714028625.823,-13.184,-23.438,-23.438,-23.438,0.000
1714028625.827,-12.207,-17.578,-20.996,-30.762,0.000
1714028625.831,-18.066,-20.996,-25.391,-39.062,0.000
1714028625.835,-27.344,-28.320,-26.855,-38.086,0.000
1714028625.839,-27.344,-24.414,-29.297,-25.879,0.000
1714028625.843,-22.949,-26.855,-32.227,-23.926,0.000
1714028625.847,-23.926,-29.785,-28.809,-20.508,0.000
1714028625.850,-20.508,-25.391,-27.344,-20.508,0.000
1714028625.854,-23.438,-29.785,-28.320,-23.438,0.000
1714028625.858,-21.484,-27.344,-22.949,-16.113,0.000
1714028625.862,-23.438,-31.250,-25.391,-32.715,0.000
1714028625.866,-25.879,-32.715,-26.367,-36.133,0.000
1714028625.870,-27.832,-25.879,-25.391,-26.367,0.000
1714028625.874,-20.996,-28.320,-28.809,-38.574,0.000
1714028625.878,-20.020,-31.250,-33.691,-34.180,0.000
1714028625.882,-23.438,-24.902,-30.273,-23.926,0.000
1714028625.886,-23.438,-22.949,-19.531,-23.926,0.000
1714028625.889,-27.832,-32.227,-22.949,-23.926,0.000
1714028625.893,-34.668,-30.762,-27.344,-31.250,0.000
1714028625.897,-31.738,-30.273,-28.809,-31.250,0.000
1714028625.901,-24.414,-31.738,-31.738,-28.320,0.000
1714028625.905,-36.621,-30.762,-35.645,-32.227,0.000
1714028625.909,-37.598,-34.668,-36.621,-24.414,0.000
1714028625.913,-30.762,-29.785,-37.598,-27.344,0.000
1714028625.917,-35.645,-25.879,-40.039,-37.109,0.000
1714028625.921,-28.809,-23.438,-31.738,-20.996,0.000
1714028625.925,-22.949,-22.949,-21.973,-18.555,0.000
1714028625.929,-26.855,-21.484,-28.320,-29.297,0.000
1714028625.932,-30.273,-25.391,-38.086,-20.508,0.000
1714028625.936,-39.551,-33.691,-30.273,-17.090,0.000
1714028625.940,-41.016,-31.250,-21.484,-22.461,0.000
1714028625.944,-39.062,-29.785,-26.367,-27.344,0.000
1714028625.948,-36.133,-29.785,-24.902,-29.297,0.000
1714028625.952,-29.297,-25.879,-23.438,-22.949,0.000
1714028625.956,-29.297,-25.879,-32.227,-22.949,0.000
1714028625.960,-30.762,-27.344,-30.273,-30.762,0.000
1714028625.964,-32.715,-30.273,-28.320,-29.785,0.000
1714028625.968,-33.691,-31.738,-33.691,-20.996,0.000
1714028625.972,-26.367,-28.809,-32.715,-21.484,0.000
1714028625.975,-22.461,-32.715,-25.879,-16.113,0.000
1714028625.979,-28.320,-35.645,-27.344,-17.090,0.000
1714028625.983,-33.203,-36.133,-32.227,-34.180,0.000
1714028625.987,-24.902,-31.738,-25.879,-32.227,0.000
1714028625.991,-21.484,-28.320,-27.344,-31.250,0.000
1714028625.995,-27.832,-32.715,-29.297,-24.902,0.000
1714028625.999,-23.438,-28.320,-28.320,-23.926,0.000
1714028626.003,-22.949,-24.902,-26.855,-33.203,0.000
1714028626.007,-20.996,-28.320,-24.414,-18.555,0.000
1714028626.011,-15.625,-28.320,-26.855,-21.484,0.000
1714028626.015,-26.367,-27.832,-24.414,-41.016,0.000
1714028626.018,-32.227,-26.367,-25.879,-42.480,0.000
1714028626.022,-26.855,-25.391,-26.855,-29.297,0.000
1714028626.026,-21.484,-26.367,-22.949,-29.785,0.000
1714028626.030,-20.508,-23.926,-25.391,-33.203,0.000
1714028626.034,-20.996,-23.926,-24.902,-28.320,0.000
1714028626.038,-26.367,-24.414,-26.367,-24.414,0.000
1714028626.042,-20.508,-23.438,-31.738,-19.531,0.000
1714028626.046,-16.602,-26.367,-33.203,-20.996,0.000
1714028626.050,-21.973,-31.738,-35.645,-29.297,0.000
1714028626.054,-18.066,-29.785,-34.668,-33.691,0.000
1714028626.058,-16.113,-24.414,-30.762,-33.691,0.000
1714028626.061,-17.578,-26.367,-23.438,-20.020,0.000
1714028626.065,-19.043,-26.855,-20.020,-14.648,0.000
1714028626.069,-25.391,-26.367,-22.949,-31.250,0.000
1714028626.073,-24.902,-21.484,-23.926,-26.855,0.000
1714028626.077,-19.043,-24.902,-26.367,-22.949,0.000
1714028626.081,-24.902,-30.273,-32.227,-36.133,0.000
1714028626.085,-34.668,-31.250,-30.273,-28.809,0.000
1714028626.089,-31.250,-29.785,-23.438,-20.020,0.000
1714028626.093,-24.902,-25.391,-24.902,-27.832,0.000
1714028626.097,-29.297,-28.809,-32.715,-41.504,0.000
1714028626.101,-29.297,-30.762,-36.133,-33.203,0.000
1714028626.104,-33.203,-27.344,-29.297,-23.438,0.000
1714028626.108,-27.344,-28.320,-26.367,-29.297,0.000
1714028626.112,-22.461,-25.879,-27.344,-26.367,0.000
1714028626.116,-23.926,-23.926,-28.320,-22.461,0.000
1714028626.120,-26.855,-35.156,-27.832,-25.391,0.000
1714028626.124,-23.926,-37.109,-26.367,-18.066,0.000
1714028626.128,-21.973,-30.273,-27.832,-16.602,0.000
1714028626.132,-28.320,-30.273,-29.785,-23.438,0.000
1714028626.136,-30.273,-34.668,-31.250,-26.367,0.000
1714028626.140,-25.391,-35.645,-26.855,-20.020,0.000
1714028626.143,-29.785,-30.762,-27.344,-23.438,0.000
1714028626.147,-28.320,-29.785,-34.668,-44.434,0.000
1714028626.151,-7.812,-27.344,-35.645,-30.273,0.000
1714028626.155,-14.160,-29.297,-29.785,-7.812,0.000
1714028626.159,-31.738,-25.879,-22.461,-23.926,0.000
1714028626.163,-34.180,-27.832,-26.367,-41.992,0.000
1714028626.167,-20.508,-28.320,-26.367,-38.086,0.000
1714028626.171,-13.184,-19.043,-21.484,-25.391,0.000
1714028626.175,-20.508,-22.461,-22.949,-27.832,0.000
1714028626.179,-28.320,-29.785,-24.902,-48.340,0.000
1714028626.183,-31.738,-31.738,-30.273,-48.828,0.000
1714028626.186,-32.715,-34.668,-35.645,-38.086,0.000
1714028626.190,-32.715,-32.715,-35.156,-32.227,0.000
1714028626.194,-29.297,-32.715,-31.250,-29.297,0.000
1714028626.198,-29.785,-28.809,-26.367,-31.738,0.000
1714028626.202,-30.762,-29.297,-25.879,-29.785,0.000
1714028626.206,-27.344,-29.297,-29.785,-41.504,0.000
1714028626.210,-23.438,-23.926,-24.414,-38.574,0.000
1714028626.214,-19.531,-25.879,-20.020,-22.461,0.000
1714028626.218,-18.555,-26.855,-19.531,-16.113,0.000
1714028626.222,-23.926,-31.250,-25.391,-21.973,0.000
1714028626.225,-30.762,-32.227,-31.250,-31.738,0.000
1714028626.229,-26.855,-33.691,-31.738,-28.809,0.000
1714028626.233,-23.438,-36.621,-32.227,-24.902,0.000
1714028626.237,-29.785,-31.250,-31.250,-28.809,0.000
1714028626.241,-27.832,-29.297,-28.809,-22.461,0.000
1714028626.245,-21.484,-27.344,-30.762,-28.809,0.000
1714028626.249,-21.484,-27.344,-24.902,-28.320,0.000
1714028626.253,-25.879,-26.367,-25.391,-19.531,0.000
1714028626.257,-20.508,-26.367,-24.902,-19.043,0.000
1714028626.261,-15.625,-28.809,-24.902,-11.719,0.000
1714028626.264,-15.625,-25.879,-28.320,-9.277,0.000
1714028626.268,-18.555,-25.391,-24.414,-15.625,0.000
1714028626.272,-18.066,-22.949,-22.461,-13.672,0.000
1714028626.276,-13.184,-22.949,-22.949,-12.695,0.000
1714028626.280,-13.184,-29.785,-28.320,-15.137,0.000
1714028626.284,-18.555,-30.762,-25.391,-14.648,0.000
1714028626.288,-19.043,-25.879,-21.973,-21.973,0.000
1714028626.292,-6.348,-24.414,-26.855,-27.832,0.000
1714028626.296,-0.977,-23.438,-34.180,-22.949,0.000
1714028626.300,0.488,-24.902,-36.621,-18.555,0.000
1714028626.304,-1.465,-27.832,-34.180,-14.648,0.000
1714028626.307,-8.301,-27.832,-27.832,-13.184,0.000
1714028626.311,-19.531,-29.785,-28.320,-23.438,0.000
1714028626.315,-24.414,-29.785,-29.297,-23.926,0.000
1714028626.319,-21.973,-27.344,-24.902,-16.602,0.000
1714028626.323,-31.738,-32.227,-32.227,-26.855,0.000
1714028626.327,-39.551,-36.133,-36.621,-37.109,0.000
1714028626.331,-30.762,-29.785,-30.762,-23.926,0.000
1714028626.335,-21.484,-20.996,-27.344,-13.184,0.000
1714028626.339,-28.809,-20.996,-32.227,-26.367,0.000
1714028626.343,-37.109,-26.855,-34.180,-31.250,0.000
1714028626.347,-29.785,-29.785,-28.320,-14.160,0.000
1714028626.350,-21.973,-30.273,-27.344,-11.719,0.000
1714028626.354,-26.367,-34.180,-27.832,-23.926,0.000
1714028626.358,-21.973,-33.691,-19.531,-21.973,0.000
1714028626.362,-16.602,-27.344,-20.508,-21.484,0.000
1714028626.366,-12.207,-24.414,-27.344,-26.855,0.000
1714028626.370,-10.742,-23.926,-24.902,-12.207,0.000
1714028626.374,-14.160,-22.949,-19.043,-10.254,0.000
1714028626.378,-17.578,-26.367,-17.578,-22.461,0.000
1714028626.382,-23.926,-30.762,-27.344,-32.227,0.000
1714028626.386,-23.438,-29.297,-35.645,-31.250,0.000
1714028626.390,-10.254,-27.344,-31.738,-14.648,0.000
1714028626.393,-9.766,-34.668,-24.414,-9.766,0.000
1714028626.397,-16.602,-33.203,-24.414,-16.602,0.000
1714028626.401,-17.090,-27.344,-25.879,-25.879,0.000
1714028626.405,-20.020,-28.320,-19.043,-25.879,0.000
1714028626.409,-17.090,-26.855,-16.602,-20.508,0.000
1714028626.413,-17.090,-28.809,-20.020,-29.785,0.000
1714028626.417,-25.879,-27.344,-21.973,-39.062,0.000
1714028626.421,-18.066,-27.344,-20.996,-23.926,0.000
1714028626.425,-15.137,-32.227,-18.555,-18.555,0.000
1714028626.429,-17.090,-31.250,-21.484,-28.320,0.000
1714028626.432,-17.578,-31.250,-21.484,-26.855,0.000
1714028626.436,-22.461,-30.762,-25.879,-23.438,0.000
1714028626.440,-27.832,-31.250,-30.762,-25.879,0.000
1714028626.444,-27.344,-30.762,-30.273,-26.367,0.000
1714028626.448,-22.461,-29.297,-28.320,-19.531,0.000
1714028626.452,-22.949,-30.762,-23.926,-28.320,0.000
1714028626.456,-22.461,-31.738,-25.879,-40.039,0.000
1714028626.460,-33.691,-31.250,-29.297,-27.832,0.000
1714028626.464,-37.598,-33.203,-26.855,-33.691,0.000
1714028626.468,-18.555,-37.109,-30.273,-31.250,0.000
1714028626.472,-15.625,-36.621,-35.156,-21.484,0.000
1714028626.475,-19.531,-29.297,-31.738,-33.203,0.000
1714028626.479,-20.508,-24.902,-28.320,-35.645,0.000
1714028626.483,-22.461,-27.832,-35.645,-28.809,0.000
1714028626.487,-28.809,-33.203,-36.133,-41.992,0.000
1714028626.491,-28.809,-33.203,-34.180,-38.086,0.000
1714028626.495,-23.926,-33.203,-36.621,-30.273,0.000
1714028626.499,-29.297,-28.809,-39.062,-35.645,0.000
1714028626.503,-34.668,-28.320,-42.480,-18.555,0.000
1714028626.507,-34.668,-33.203,-40.039,-20.508,0.000
1714028626.511,-29.785,-33.691,-32.715,-35.645,0.000
1714028626.515,-23.438,-29.297,-29.297,-41.016,0.000
1714028626.518,-27.344,-28.320,-29.785,-29.297,0.000
1714028626.522,-31.250,-27.344,-31.250,-29.785,0.000
1714028626.526,-29.785,-23.926,-29.297,-42.969,0.000
1714028626.530,-34.668,-24.902,-30.273,-38.574,0.000
1714028626.534,-32.227,-24.414,-31.250,-26.855,0.000
1714028626.538,-19.043,-22.461,-23.438,-13.672,0.000
1714028626.542,-28.320,-23.926,-22.461,-16.602,0.000
1714028626.546,-38.574,-24.902,-28.809,-36.621,0.000
1714028626.550,-28.809,-24.902,-28.320,-18.066,0.000
1714028626.554,-34.180,-27.344,-22.461,-1.953,0.000
1714028626.557,-36.133,-30.762,-18.066,-15.625,0.000
1714028626.561,-30.273,-29.785,-23.438,-22.949,0.000
1714028626.565,-36.621,-32.227,-25.391,-27.832,0.000
1714028626.569,-31.738,-27.832,-21.484,-37.598,0.000
1714028626.573,-27.832,-19.531,-17.090,-31.738,0.000
1714028626.577,-36.133,-23.926,-14.648,-28.809,0.000
1714028626.581,-40.039,-28.809,-16.602,-36.621,0.000
1714028626.585,-41.016,-27.832,-18.066,-38.086,0.000
1714028626.589,-41.992,-26.367,-20.996,-30.762,0.000
1714028626.593,-31.250,-25.879,-24.414,-17.578,0.000
1714028626.597,-33.203,-27.832,-28.809,-25.879,0.000
1714028626.600,-42.969,-26.367,-29.297,-32.227,0.000
1714028626.604,-33.203,-21.973,-26.855,-20.020,0.000
1714028626.608,-34.180,-28.809,-21.484,-18.555,0.000
1714028626.612,-40.527,-29.785,-21.484,-30.273,0.000
1714028626.616,-37.598,-25.391,-27.832,-30.273,0.000
1714028626.620,-46.875,-29.785,-23.926,-27.832,0.000
1714028626.624,-48.828,-30.273,-22.949,-32.227,0.000
1714028626.628,-43.457,-29.297,-26.367,-30.273,0.000
1714028626.632,-40.039,-23.438,-24.902,-28.320,0.000
1714028626.636,-30.273,-22.949,-27.344,-22.949,0.000
1714028626.639,-36.621,-29.785,-31.250,-15.137,0.000
1714028626.643,-41.992,-26.367,-28.809,-17.578,0.000
1714028626.647,-34.668,-21.484,-24.414,-23.926,0.000
1714028626.651,-30.762,-22.949,-24.414,-29.785,0.000
1714028626.655,-31.738,-23.438,-24.902,-25.391,0.000
1714028626.659,-31.738,-21.484,-25.879,-13.184,0.000
1714028626.663,-36.133,-21.484,-29.297,-30.762,0.000
1714028626.667,-36.133,-19.531,-28.809,-34.668,0.000
1714028626.671,-35.645,-22.461,-25.391,-20.020,0.000
1714028626.675,-36.621,-26.367,-22.461,-28.809,0.000
1714028626.678,-36.133,-23.438,-23.438,-33.691,0.000
1714028626.682,-30.273,-26.855,-25.879,-28.809,0.000
1714028626.686,-28.809,-28.809,-26.855,-15.625,0.000
1714028626.690,-35.645,-20.996,-22.949,-20.020,0.000
1714028626.694,-29.297,-20.508,-20.996,-30.762,0.000
1714028626.698,-29.785,-31.738,-23.926,-25.391,0.000
1714028626.702,-30.762,-31.250,-22.949,-22.461,0.000
1714028626.706,-21.973,-23.926,-19.531,-15.137,0.000
1714028626.710,-27.832,-30.273,-20.996,-14.160,0.000
1714028626.714,-40.039,-33.203,-25.391,-28.809,0.000
1714028626.718,-30.762,-26.855,-26.367,-20.020,0.000
1714028626.721,-28.320,-25.391,-23.438,-10.254,0.000
1714028626.725,-22.461,-25.879,-24.902,-18.066,0.000
1714028626.729,-21.484,-28.320,-29.785,-16.602,0.000
1714028626.733,-27.832,-27.344,-30.762,-12.695,0.000
1714028626.737,-27.344,-26.855,-34.180,-14.648,0.000
1714028626.741,-23.438,-22.461,-31.738,-11.719,0.000
1714028626.745,-25.391,-22.949,-30.762,-15.625,0.000
1714028626.749,-28.320,-24.414,-37.109,-24.414,0.000
1714028626.753,-25.391,-24.414,-33.691,-23.438,0.000
1714028626.757,-30.273,-29.785,-29.785,-16.113,0.000
1714028626.761,-28.320,-27.832,-28.320,-21.484,0.000
1714028626.764,-24.414,-25.391,-28.320,-32.227,0.000
1714028626.768,-29.785,-25.879,-33.691,-26.367,0.000
1714028626.772,-25.391,-25.879,-34.668,-20.020,0.000
1714028626.776,-25.879,-24.414,-35.156,-23.438,0.000
1714028626.780,-28.809,-22.461,-29.785,-13.184,0.000
1714028626.784,-20.508,-19.531,-24.902,-11.230,0.000
1714028626.788,-18.066,-16.602,-28.320,-12.695,0.000
1714028626.792,-21.973,-15.137,-30.762,-9.766,0.000
1714028626.796,-17.090,-10.254,-30.762,-22.949,0.000
1714028626.800,-24.414,-17.578,-34.180,-28.809,0.000
1714028626.804,-27.344,-21.973,-31.250,-19.043,0.000
1714028626.807,-30.273,-20.996,-22.461,-12.695,0.000
1714028626.811,-34.668,-22.949,-28.809,-21.484,0.000
1714028626.815,-22.949,-23.438,-31.250,-25.391,0.000
1714028626.819,-22.949,-24.902,-24.902,-16.602,0.000
1714028626.823,-25.879,-24.414,-22.949,-18.555,0.000
1714028626.827,-26.855,-21.973,-21.973,-33.203,0.000
1714028626.831,-21.973,-18.066,-23.926,-38.086,0.000
1714028626.835,-24.414,-20.020,-25.391,-26.855,0.000
1714028626.839,-24.902,-23.926,-24.902,-25.879,0.000
1714028626.843,-20.020,-21.484,-25.879,-29.297,0.000
1714028626.846,-20.020,-22.461,-26.855,-22.461,0.000
1714028626.850,-22.461,-24.902,-21.973,-15.137,0.000
1714028626.854,-23.926,-24.414,-21.484,-20.996,0.000
1714028626.858,-29.297,-28.809,-24.902,-26.367,0.000
1714028626.862,-25.879,-26.367,-27.832,-23.926,0.000
1714028626.866,-25.391,-27.832,-29.785,-25.391,0.000
1714028626.870,-35.645,-30.762,-26.367,-31.738,0.000
1714028626.874,-35.156,-29.297,-26.367,-31.250,0.000
1714028626.878,-19.043,-26.855,-27.344,-11.719,0.000
1714028626.882,-20.020,-27.832,-20.508,-7.324,0.000
1714028626.886,-32.227,-31.738,-21.484,-16.602,0.000
1714028626.889,-28.320,-26.855,-26.367,-20.996,0.000
1714028626.893,-27.344,-24.414,-23.438,-28.320,0.000
1714028626.897,-31.250,-21.484,-17.578,-25.391,0.000
1714028626.901,-29.785,-21.484,-17.090,-22.949,0.000
1714028626.905,-28.809,-23.438,-19.043,-12.695,0.000
1714028626.909,-28.809,-15.625,-17.578,-11.230,0.000
1714028626.913,-23.926,-17.578,-19.531,-24.414,0.000
1714028626.917,-28.320,-25.879,-30.762,-20.508,0.000
1714028626.921,-31.250,-27.832,-34.180,-24.902,0.000
1714028626.925,-27.344,-30.762,-32.227,-28.320,0.000
1714028626.929,-28.809,-30.762,-33.203,-38.574,0.000
1714028626.932,-31.738,-29.297,-25.879,-57.129,0.000
1714028626.936,-22.949,-31.250,-24.902,-32.715,0.000
1714028626.940,-15.625,-26.367,-22.949,-10.254,0.000
1714028626.944,-12.207,-21.484,-24.414,-28.320,0.000
1714028626.948,-10.742,-22.461,-29.785,-37.598,0.000
1714028626.952,-12.695,-28.809,-29.297,-33.203,0.000
1714028626.956,-15.137,-30.273,-29.297,-30.273,0.000
1714028626.960,-17.578,-27.832,-27.344,-22.949,0.000
1714028626.964,-21.973,-26.855,-25.391,-26.367,0.000
1714028626.968,-20.508,-32.227,-21.973,-20.508,0.000
1714028626.971,-30.762,-31.738,-27.344,-9.766,0.000
1714028626.975,-36.621,-27.344,-35.156,-29.785,0.000
1714028626.979,-30.762,-29.785,-27.344,-34.180,0.000
1714028626.983,-28.809,-21.973,-19.531,-27.344,0.000
1714028626.987,-30.762,-20.996,-21.484,-27.344,0.000
1714028626.991,-35.645,-24.902,-27.344,-24.902,0.000
1714028626.995,-48.340,-31.250,-29.297,-39.551,0.000
1714028626.999,-43.945,-33.691,-25.879,-39.551,0.000
1714028627.003,-20.996,-27.832,-28.809,-20.508,0.000
1714028627.007,-25.879,-23.926,-25.391,-15.137,0.000
1714028627.010,-28.320,-20.020,-18.555,-20.996,0.000
1714028627.014,-25.391,-20.020,-20.508,-19.043,0.000
1714028627.018,-33.691,-20.508,-19.043,-16.113,0.000
1714028627.022,-28.320,-18.555,-20.508,-20.996,0.000
1714028627.026,-29.297,-21.484,-29.297,-29.297,0.000
1714028627.030,-29.785,-25.391,-30.762,-32.227,0.000
1714028627.034,-26.367,-25.391,-30.762,-30.273,0.000
1714028627.038,-29.297,-27.832,-33.203,-32.227,0.000
1714028627.042,-34.180,-31.250,-34.668,-24.902,0.000
1714028627.046,-38.086,-25.391,-34.180,-22.461,0.000
1714028627.049,-40.039,-24.414,-32.715,-34.668,0.000
1714028627.053,-35.645,-28.809,-28.809,-29.785,0.000
1714028627.057,-36.621,-32.227,-29.785,-22.949,0.000
1714028627.061,-40.039,-34.180,-33.203,-39.551,0.000
1714028627.065,-37.598,-32.715,-35.156,-46.387,0.000
1714028627.069,-34.668,-31.738,-34.668,-25.391,0.000
1714028627.073,-35.156,-30.273,-35.156,-23.926,0.000
1714028627.077,-34.180,-24.902,-36.133,-33.203,0.000
1714028627.081,-34.180,-27.832,-28.809,-34.668,0.000
1714028627.085,-30.273,-33.203,-27.832,-28.320,0.000
1714028627.089,-26.367,-32.227,-32.715,-19.531,0.000
1714028627.092,-22.461,-28.809,-33.691,-23.438,0.000
1714028627.096,-27.344,-28.809,-30.273,-27.832,0.000
1714028627.100,-26.367,-27.344,-29.297,-23.438,0.000
1714028627.104,-23.438,-26.367,-32.227,-19.043,0.000
1714028627.108,-27.344,-28.320,-32.227,-31.738,0.000
1714028627.112,-27.344,-28.320,-32.227,-35.645,0.000
1714028627.116,-30.273,-27.344,-31.738,-24.414,0.000
1714028627.120,-33.691,-31.738,-31.738,-21.973,0.000
1714028627.124,-36.133,-35.156,-32.715,-38.086,0.000
1714028627.128,-32.227,-30.273,-33.203,-37.109,0.000
1714028627.132,-30.273,-30.273,-30.273,-28.320,0.000
1714028627.135,-23.438,-30.273,-28.320,-26.855,0.000
1714028627.139,-31.738,-29.297,-31.738,-43.457,0.000
1714028627.143,-35.645,-28.320,-34.180,-45.410,0.000
1714028627.147,-26.367,-27.344,-33.691,-27.344,0.000
1714028627.151,-32.227,-29.297,-34.668,-29.785,0.000
1714028627.155,-26.367,-24.902,-39.551,-33.203,0.000
1714028627.159,-17.090,-21.484,-33.691,-34.180,0.000
1714028627.163,-15.137,-25.879,-31.738,-28.809,0.000
1714028627.167,-25.879,-27.344,-31.738,-22.461,0.000
1714028627.171,-24.902,-21.973,-25.391,-23.438,0.000
1714028627.175,-18.555,-21.973,-20.020,-25.391,0.000
1714028627.178,-15.625,-23.926,-10.254,-23.926,0.000
1714028627.182,-13.184,-25.391,-21.973,-23.926,0.000
1714028627.186,-27.832,-26.855,-31.738,-32.715,0.000
1714028627.190,-33.203,-27.344,-25.391,-40.039,0.000
1714028627.194,-41.504,-35.156,-25.879,-61.523,0.000
1714028627.198,-47.363,-32.227,-17.090,-53.223,0.000
1714028627.202,-40.039,-15.137,5.859,-30.273,0.000
1714028627.206,-61.035,-28.809,-0.977,-53.711,0.000
1714028627.210,-89.355,-40.527,-25.879,-72.266,0.000
1714028627.214,-97.168,-29.785,-16.113,-92.773,0.000
1714028627.218,-111.816,-32.227,-1.953,-116.699,0.000
1714028627.221,-125.977,-33.691,1.465,-119.629,0.000
1714028627.225,-139.648,-31.250,7.324,-129.883,0.000
1714028627.229,-156.250,-27.832,10.254,-151.855,0.000
1714028627.233,-171.875,-35.645,14.160,-174.805,0.000
1714028627.237,-169.434,-45.898,21.973,-168.945,0.000
1714028627.241,-174.316,-39.551,26.367,-160.645,0.000
1714028627.245,-187.012,-34.668,24.414,-179.199,0.000
1714028627.249,-184.570,-32.715,22.461,-176.758,0.000
1714028627.253,-175.781,-26.855,14.648,-166.992,0.000
1714028627.257,-167.969,-26.855,11.230,-169.922,0.000
1714028627.261,-172.852,-25.391,11.230,-184.570,0.000
1714028627.264,-161.621,-19.043,12.207,-174.316,0.000
1714028627.268,-153.809,-16.602,7.324,-159.180,0.000
1714028627.272,-151.367,-17.578,12.695,-151.367,0.000
1714028627.276,-144.043,-23.926,19.043,-135.742,0.000
1714028627.280,-129.883,-27.832,13.184,-125.488,0.000
1714028627.284,-116.699,-28.809,15.625,-120.117,0.000
1714028627.288,-112.793,-30.273,18.066,-117.676,0.000
1714028627.292,-103.027,-28.320,4.883,-115.723,0.000
1714028627.296,-104.004,-24.414,0.000,-116.699,0.000
1714028627.300,-108.398,-27.832,9.277,-113.770,0.000
1714028627.303,-106.934,-24.902,0.488,-104.492,0.000
1714028627.307,-97.168,-23.926,-4.395,-98.633,0.000
1714028627.311,-94.238,-32.715,1.953,-102.539,0.000
1714028627.315,-98.145,-30.762,-3.418,-109.863,0.000
1714028627.319,-92.773,-25.391,-6.836,-97.168,0.000
1714028627.323,-94.238,-24.902,-5.371,-82.520,0.000
1714028627.327,-96.191,-30.273,-7.324,-83.496,0.000
1714028627.331,-88.379,-31.738,-8.301,-82.520,0.000
1714028627.335,-76.172,-27.832,-5.371,-61.035,0.000
1714028627.339,-75.684,-22.949,-9.277,-56.641,0.000
1714028627.342,-76.172,-22.461,-14.160,-70.801,0.000
1714028627.346,-80.078,-21.973,-13.184,-67.383,0.000
1714028627.350,-72.266,-16.113,-8.301,-68.359,0.000
1714028627.354,-60.547,-14.648,-11.719,-68.359,0.000
1714028627.358,-62.988,-17.090,-13.184,-72.266,0.000
1714028627.362,-65.430,-20.508,-12.695,-64.453,0.000
1714028627.366,-63.477,-35.645,-9.766,-43.945,0.000
1714028627.370,-63.477,-35.645,-5.859,-50.293,0.000
1714028627.374,-53.223,-28.320,-7.324,-46.387,0.000
1714028627.378,-42.969,-29.785,-6.836,-34.668,0.000
1714028627.382,-40.039,-28.809,-12.207,-42.480,0.000
1714028627.385,-31.250,-31.250,-18.066,-41.504,0.000
1714028627.389,-20.996,-31.738,-19.043,-15.625,0.000
1714028627.393,-20.996,-36.133,-20.020,-15.625,0.000
1714028627.397,-18.555,-39.062,-17.578,-27.344,0.000
1714028627.401,-2.930,-34.668,-20.508,-8.301,0.000
1714028627.405,11.230,-38.574,-23.438,13.672,0.000
1714028627.409,6.836,-39.062,-25.391,11.230,0.000
1714028627.413,15.137,-31.738,-28.320,10.254,0.000
1714028627.417,27.832,-31.738,-35.156,11.230,0.000
1714028627.421,22.949,-32.227,-41.504,12.207,0.000
1714028627.424,27.832,-31.738,-45.898,13.184,0.000
1714028627.428,30.762,-35.645,-54.688,15.137,0.000
1714028627.432,29.297,-37.598,-52.246,26.855,0.000
1714028627.436,24.414,-39.551,-49.805,26.367,0.000
1714028627.440,26.367,-37.598,-53.711,21.484,0.000
1714028627.444,36.621,-35.156,-51.758,29.297,0.000
1714028627.448,38.086,-40.527,-56.641,34.668,0.000
1714028627.452,28.809,-43.945,-63.965,35.156,0.000
1714028627.456,29.785,-41.992,-64.453,40.039,0.000
1714028627.460,41.992,-43.945,-61.035,41.504,0.000
1714028627.464,40.527,-43.457,-61.523,36.621,0.000
1714028627.468,32.715,-41.992,-59.082,36.621,0.000
1714028627.471,34.668,-41.016,-56.152,38.574,0.000
1714028627.475,32.227,-39.551,-63.477,35.156,0.000
1714028627.479,30.273,-42.969,-68.359,27.832,0.000
1714028627.483,32.227,-41.992,-70.801,24.414,0.000
1714028627.487,26.855,-36.133,-68.359,27.832,0.000
1714028627.491,26.367,-39.062,-62.500,25.391,0.000
1714028627.495,31.250,-32.715,-66.406,27.344,0.000
1714028627.499,41.016,-22.461,-65.430,37.109,0.000
1714028627.503,44.434,-25.879,-58.105,46.387,0.000
1714028627.507,34.668,-26.855,-56.641,45.410,0.000
1714028627.511,31.250,-26.367,-50.781,41.016,0.000
1714028627.514,31.250,-27.832,-46.875,43.457,0.000
1714028627.518,31.738,-31.738,-56.152,35.156,0.000
1714028627.522,33.203,-28.809,-59.082,40.039,0.000
1714028627.526,31.738,-24.414,-53.711,42.480,0.000
1714028627.530,31.250,-20.996,-57.129,17.578,0.000
1714028627.534,26.855,-22.949,-57.129,20.996,0.000
1714028627.538,24.902,-27.344,-50.781,46.875,0.000
1714028627.542,30.273,-25.391,-47.363,40.039,0.000
1714028627.546,30.273,-26.855,-43.945,23.438,0.000
1714028627.550,16.602,-30.762,-51.758,19.531,0.000
1714028627.554,24.414,-33.203,-55.664,36.621,0.000
1714028627.557,27.832,-28.320,-48.340,39.062,0.000
1714028627.561,17.578,-23.926,-49.316,27.344,0.000
1714028627.565,28.809,-21.484,-52.734,28.320,0.000
1714028627.569,19.043,-18.555,-47.363,22.461,0.000
1714028627.573,8.301,-23.926,-49.805,27.344,0.000
1714028627.577,13.672,-21.484,-53.223,31.738,0.000
1714028627.581,11.719,-16.113,-46.875,21.973,0.000
1714028627.585,3.418,-19.531,-41.992,30.273,0.000
1714028627.589,10.742,-18.555,-43.457,29.297,0.000
1714028627.593,4.395,-16.113,-48.828,11.719,0.000
1714028627.597,2.441,-18.555,-54.688,-1.465,0.000
1714028627.600,23.438,-20.508,-56.641,4.883,0.000
1714028627.604,23.926,-15.625,-51.270,7.812,0.000
1714028627.608,20.020,-13.672,-42.969,0.977,0.000
1714028627.612,16.602,-18.555,-42.480,-2.441,0.000
1714028627.616,20.996,-22.461,-44.922,-5.371,0.000
1714028627.620,18.555,-22.461,-46.387,-8.789,0.000
1714028627.624,9.766,-23.438,-48.340,2.441,0.000
1714028627.628,7.324,-31.738,-44.434,2.930,0.000
1714028627.632,-4.883,-34.180,-41.016,-8.301,0.000
1714028627.636,-10.742,-25.879,-44.922,-2.930,0.000
1714028627.639,-4.395,-20.508,-42.969,14.648,0.000
1714028627.643,-2.441,-20.508,-38.574,9.766,0.000
1714028627.647,-10.254,-27.344,-40.527,-0.977,0.000
1714028627.651,-17.578,-29.785,-39.062,-7.324,0.000
1714028627.655,-12.207,-27.832,-39.551,-13.184,0.000
1714028627.659,-21.484,-28.320,-35.645,-5.371,0.000
1714028627.663,-23.438,-27.832,-33.691,-23.926,0.000
1714028627.667,-11.230,-26.855,-40.039,-21.484,0.000
1714028627.671,-19.043,-30.273,-40.527,-18.555,0.000
1714028627.675,-16.602,-31.250,-44.922,-21.484,0.000
1714028627.679,-15.625,-22.949,-43.457,-11.719,0.000
1714028627.682,-27.344,-20.508,-36.621,-24.414,0.000
1714028627.686,-27.832,-29.785,-32.227,-17.090,0.000
1714028627.690,-28.809,-30.762,-35.156,-16.602,0.000
1714028627.694,-39.551,-31.738,-37.598,-19.043,0.000
1714028627.698,-25.391,-26.367,-32.715,-9.766,0.000
1714028627.702,-19.043,-26.855,-37.109,-29.785,0.000
1714028627.706,-35.156,-32.715,-37.109,-41.504,0.000
1714028627.710,-21.484,-27.344,-37.109,-28.320,0.000
1714028627.714,-16.602,-33.691,-41.992,-32.227,0.000
1714028627.718,-7.812,-29.785,-39.062,-22.949,0.000
1714028627.721,-21.484,-28.320,-30.273,5.859,0.000
1714028627.725,-40.039,-38.086,-22.949,-7.812,0.000
1714028627.729,-30.762,-42.480,-28.809,-31.250,0.000
1714028627.733,-22.461,-35.645,-35.156,-18.555,0.000
1714028627.737,-9.277,-27.832,-34.668,-15.137,0.000
1714028627.741,-3.418,-25.879,-30.273,-17.578,0.000
1714028627.745,-23.438,-20.508,-30.762,-28.320,0.000
1714028627.749,-34.668,-21.484,-31.738,-35.156,0.000
1714028627.753,-17.578,-26.855,-29.785,-21.484,0.000
1714028627.757,-15.137,-28.809,-34.668,-15.625,0.000
1714028627.760,-23.926,-31.738,-36.133,-17.090,0.000
1714028627.764,-38.086,-38.086,-35.156,-26.367,0.000
1714028627.768,-26.855,-31.250,-39.062,-30.273,0.000
1714028627.772,-8.301,-24.902,-44.434,-28.320,0.000
1714028627.776,-18.066,-29.297,-40.039,-33.203,0.000
1714028627.780,-21.973,-28.809,-35.156,-38.086,0.000
1714028627.784,-16.113,-30.762,-34.180,-41.016,0.000
1714028627.788,-23.926,-34.668,-27.344,-34.180,0.000
1714028627.792,-17.578,-31.250,-27.832,-25.391,0.000
1714028627.796,-30.762,-33.691,-32.227,-33.203,0.000
1714028627.799,-33.203,-27.344,-32.227,-48.340,0.000
1714028627.803,-16.113,-21.973,-34.180,-53.223,0.000
1714028627.807,-22.949,-27.832,-36.133,-31.250,0.000
1714028627.811,-19.043,-27.344,-37.598,-37.109,0.000
1714028627.815,-26.367,-26.367,-32.715,-33.691,0.000
1714028627.819,-31.738,-22.949,-30.762,-33.203,0.000
1714028627.823,-31.250,-24.902,-35.645,-33.203,0.000
1714028627.827,-16.113,-28.809,-37.598,-10.742,0.000
1714028627.831,0.000,-22.461,-37.598,-15.137,0.000
1714028627.835,-15.625,-26.367,-39.062,-33.203,0.000
1714028627.839,-4.883,-28.320,-30.762,-9.277,0.000
1714028627.843,-3.418,-20.996,-26.367,-28.809,0.000
1714028627.846,-28.809,-23.438,-31.250,-40.527,0.000
1714028627.850,-25.391,-27.344,-30.273,-20.508,0.000
1714028627.854,-17.090,-24.414,-27.344,-22.949,0.000
1714028627.858,-12.695,-25.879,-23.438,-33.691,0.000
1714028627.862,-14.648,-26.367,-22.949,-32.715,0.000
1714028627.866,-19.043,-27.832,-33.203,-38.086,0.000
1714028627.870,-20.996,-32.227,-37.109,-22.949,0.000
1714028627.874,-35.645,-36.621,-27.344,-6.348,0.000
1714028627.878,-29.785,-35.156,-29.297,-30.273,0.000
1714028627.882,-15.625,-25.391,-33.691,-40.527,0.000
1714028627.886,-22.461,-19.531,-33.691,-41.992,0.000
1714028627.889,-16.602,-17.090,-32.227,-38.086,0.000
1714028627.893,-20.020,-16.602,-25.391,-20.508,0.000
1714028627.897,-38.574,-18.555,-22.949,-12.207,0.000
1714028627.901,-33.203,-21.973,-27.344,-19.531,0.000
1714028627.905,-17.090,-25.391,-24.902,-16.602,0.000
1714028627.909,-35.645,-24.902,-21.484,-29.297,0.000
1714028627.913,-26.855,-22.949,-28.809,-29.785,0.000
1714028627.917,-26.855,-25.879,-25.879,-25.879,0.000
1714028627.921,-27.832,-25.879,-21.484,-33.203,0.000
1714028627.925,4.883,-21.973,-25.391,3.418,0.000
1714028627.928,-5.859,-26.855,-24.902,-1.953,0.000
1714028627.932,-24.414,-29.785,-30.762,-34.668,0.000
1714028627.936,-28.809,-29.785,-29.785,-25.391,0.000
1714028627.940,-26.855,-31.250,-25.879,0.000,0.000
1714028627.944,-30.273,-28.320,-28.320,-15.137,0.000
1714028627.948,-33.203,-32.227,-31.250,-30.273,0.000
1714028627.952,-22.949,-31.250,-24.902,-12.207,0.000
1714028627.956,-14.648,-24.902,-22.949,-6.836,0.000
1714028627.960,-6.348,-22.461,-25.391,-10.742,0.000
1714028627.964,-19.531,-21.973,-25.879,-31.250,0.000
1714028627.968,-37.109,-31.738,-23.926,-33.203,0.000
1714028627.971,-27.344,-32.227,-22.461,-20.996,0.000
1714028627.975,-21.484,-35.645,-31.738,-38.574,0.000
1714028627.979,-43.945,-37.598,-33.203,-41.992,0.000
1714028627.983,-45.410,-29.785,-31.250,-20.508,0.000
1714028627.987,-48.340,-32.715,-30.273,-25.391,0.000
1714028627.991,-44.922,-35.156,-27.832,-33.691,0.000
1714028627.995,-26.367,-33.203,-29.297,-52.734,0.000
1714028627.999,-27.344,-29.785,-28.809,-44.434,0.000
1714028628.003,-30.762,-29.297,-32.715,-14.648,0.000
1714028628.007,-23.438,-24.902,-34.180,-26.855,0.000
1714028628.011,-31.250,-23.926,-23.926,-46.387,0.000
1714028628.014,-49.316,-29.297,-25.879,-36.133,0.000
1714028628.018,-30.762,-29.297,-25.879,0.977,0.000
1714028628.022,-14.648,-29.297,-22.461,-16.113,0.000
1714028628.026,-21.973,-21.484,-25.879,-34.668,0.000
1714028628.030,-36.621,-20.996,-24.414,-44.922,0.000
1714028628.034,-34.180,-26.855,-27.832,-37.598,0.000
1714028628.038,-31.250,-25.391,-29.785,-9.277,0.000
1714028628.042,-40.039,-28.809,-22.461,-9.766,0.000
1714028628.046,-49.805,-30.273,-32.715,-48.340,0.000
1714028628.050,-37.109,-27.832,-37.109,-34.180,0.000
1714028628.053,-14.648,-28.320,-22.949,8.301,0.000
1714028628.057,-25.391,-26.855,-24.414,-18.066,0.000
1714028628.061,-40.527,-25.879,-37.109,-36.621,0.000
1714028628.065,-31.250,-31.250,-25.879,-23.438,0.000
1714028628.069,-15.625,-30.762,-15.137,-5.371,0.000
1714028628.073,-8.301,-22.949,-27.344,-5.371,0.000
1714028628.077,-18.555,-22.949,-33.203,-27.344,0.000
1714028628.081,-25.879,-26.367,-22.461,-31.250,0.000
1714028628.085,-27.344,-27.832,-22.461,-30.273,0.000
1714028628.089,-17.578,-21.484,-29.785,-22.461,0.000
1714028628.093,-12.207,-21.484,-28.809,-30.273,0.000
1714028628.096,-30.762,-23.438,-35.156,-30.762,0.000
1714028628.100,-52.734,-19.531,-35.156,-37.109,0.000
1714028628.104,-37.598,-13.672,-36.621,-62.012,0.000
1714028628.108,-33.203,-16.602,-42.969,-50.781,0.000
1714028628.112,-10.254,-14.160,-40.527,-33.691,0.000
1714028628.116,-3.906,-5.859,-44.922,-50.781,0.000
1714028628.120,-40.039,-12.207,-44.434,-53.223,0.000
1714028628.124,-37.598,-11.230,-35.645,-20.020,0.000
1714028628.128,-10.742,-6.836,-38.574,-27.832,0.000
1714028628.132,-2.930,-17.578,-37.109,-28.320,0.000
1714028628.135,-12.695,-23.438,-35.156,-18.066,0.000
1714028628.139,-23.926,-20.996,-41.992,-36.133,0.000
1714028628.143,-22.461,-13.184,-38.086,-32.227,0.000
1714028628.147,-23.926,-17.090,-27.344,-18.555,0.000
1714028628.151,-28.320,-21.484,-32.715,-29.297,0.000
1714028628.155,-18.555,-23.926,-36.621,-35.156,0.000
1714028628.159,-27.344,-32.227,-37.598,-42.480,0.000
1714028628.163,-28.809,-27.832,-42.969,-48.340,0.000
1714028628.167,-22.461,-23.438,-38.574,-35.156,0.000
1714028628.171,-28.809,-28.320,-37.598,-33.203,0.000
1714028628.174,-32.227,-26.855,-45.410,-35.645,0.000
1714028628.178,-20.020,-24.902,-40.527,-33.691,0.000
1714028628.182,-11.719,-30.273,-38.574,-38.086,0.000
1714028628.186,-5.859,-24.414,-41.992,-25.879,0.000
1714028628.190,-1.465,-17.578,-35.156,-4.395,0.000
1714028628.194,-13.184,-26.367,-31.738,-2.441,0.000
1714028628.198,-23.438,-29.785,-42.969,-18.555,0.000
1714028628.202,-22.461,-24.414,-39.551,-36.133,0.000
1714028628.206,-20.508,-20.508,-30.762,-35.645,0.000
1714028628.210,-17.090,-19.531,-36.133,-17.090,0.000
1714028628.214,-12.207,-25.391,-38.086,-20.020,0.000
1714028628.217,-29.297,-31.250,-40.039,-41.016,0.000
1714028628.221,-33.691,-27.832,-44.434,-39.062,0.000
1714028628.225,-20.508,-29.785,-41.992,-47.363,0.000
1714028628.229,-15.625,-27.344,-41.016,-42.480,0.000
1714028628.233,-20.020,-25.879,-33.203,-10.254,0.000
1714028628.237,-12.207,-25.391,-29.297,-15.137,0.000
1714028628.241,-14.160,-26.367,-30.273,-22.461,0.000
1714028628.245,-18.066,-24.902,-28.809,-22.949,0.000
1714028628.249,-14.160,-23.438,-23.926,-26.367,0.000
1714028628.253,-14.160,-25.391,-25.391,-33.203,0.000
1714028628.257,-18.555,-25.391,-24.902,-23.926,0.000
1714028628.260,-27.344,-26.855,-21.484,-22.949,0.000
1714028628.264,-27.832,-28.320,-32.227,-37.598,0.000
1714028628.268,-22.461,-23.926,-33.691,-23.926,0.000
1714028628.272,-13.672,-20.508,-29.785,-11.230,0.000
1714028628.276,-6.836,-29.297,-29.785,-18.555,0.000
1714028628.280,-2.441,-30.762,-31.250,-25.391,0.000
1714028628.284,-8.301,-27.344,-31.250,-33.691,0.000
1714028628.288,-15.625,-29.785,-26.855,-23.926,0.000
1714028628.292,-9.277,-25.879,-28.320,-24.414,0.000
1714028628.296,3.418,-18.555,-28.320,-30.762,0.000
1714028628.300,1.953,-19.043,-35.645,-21.973,0.000
1714028628.303,-21.484,-22.461,-38.574,-24.414,0.000
1714028628.307,-22.949,-22.461,-32.715,-27.344,0.000
1714028628.311,-16.602,-25.879,-30.762,-30.273,0.000
1714028628.315,-31.738,-27.832,-26.367,-32.715,0.000
1714028628.319,-32.227,-28.809,-23.926,-25.879,0.000
1714028628.323,-25.879,-28.809,-18.555,-10.742,0.000
1714028628.327,-24.414,-26.855,-19.531,-16.602,0.000
1714028628.331,-28.320,-26.367,-34.180,-36.133,0.000
1714028628.335,-28.320,-33.691,-34.180,-23.926,0.000
1714028628.339,-25.391,-33.691,-23.438,-10.742,0.000
1714028628.343,-21.973,-26.367,-23.438,-11.719,0.000
1714028628.346,-10.254,-28.320,-25.879,-18.066,0.000
1714028628.350,-20.020,-30.273,-27.832,-24.414,0.000
1714028628.354,-25.391,-29.297,-24.414,-22.949,0.000
1714028628.358,-17.578,-31.738,-18.555,-16.602,0.000
1714028628.362,-14.648,-26.367,-24.414,-18.066,0.000
1714028628.366,-13.672,-26.367,-25.879,-11.719,0.000
1714028628.370,-21.973,-28.320,-21.484,-15.625,0.000
1714028628.374,-21.973,-24.414,-25.391,-32.715,0.000
1714028628.378,-28.320,-26.367,-30.762,-35.156,0.000
1714028628.382,-21.484,-24.414,-25.391,-13.672,0.000
1714028628.385,-6.836,-21.484,-24.902,-18.066,0.000
1714028628.389,-18.066,-25.391,-26.855,-33.203,0.000
1714028628.393,-22.461,-26.855,-20.508,-22.949,0.000
1714028628.397,-28.809,-28.809,-19.043,-41.504,0.000
1714028628.401,-37.109,-30.762,-19.531,-44.434,0.000
1714028628.405,-37.109,-32.715,-18.555,-11.230,0.000
1714028628.409,-17.090,-27.832,-17.090,-15.625,0.000
1714028628.413,-18.066,-22.461,-19.531,-26.855,0.000
1714028628.417,-16.602,-22.461,-26.367,-31.738,0.000
1714028628.421,-18.555,-24.414,-26.367,-26.855,0.000
1714028628.425,-17.090,-23.926,-21.973,-0.977,0.000
1714028628.428,-7.812,-23.438,-18.555,-12.207,0.000
1714028628.432,-16.113,-22.461,-25.391,-31.250,0.000
1714028628.436,-12.695,-20.508,-28.809,-22.461,0.000
1714028628.440,-4.883,-24.902,-20.996,-8.789,0.000
1714028628.444,-7.812,-23.926,-18.066,-15.625,0.000
1714028628.448,-1.465,-19.043,-21.484,-23.926,0.000
1714028628.452,-10.254,-24.414,-22.949,-17.578,0.000
1714028628.456,-22.949,-27.832,-23.926,-19.531,0.000
1714028628.460,-13.184,-24.902,-23.926,-11.230,0.000
1714028628.464,-4.395,-25.391,-27.344,-11.719,0.000
1714028628.467,-17.578,-31.250,-28.320,-12.207,0.000
1714028628.471,-16.602,-28.809,-25.879,-16.602,0.000
1714028628.475,-13.672,-26.367,-25.879,-33.203,0.000
1714028628.479,-12.695,-22.461,-27.832,-26.367,0.000
1714028628.483,-7.812,-20.020,-38.086,-19.531,0.000
1714028628.487,-7.324,-25.879,-36.621,-17.578,0.000
1714028628.491,-24.902,-27.344,-25.879,-36.621,0.000
1714028628.495,-37.109,-27.344,-26.367,-40.527,0.000
1714028628.499,-28.320,-28.320,-27.344,-16.602,0.000
1714028628.503,-20.996,-35.156,-26.855,-3.906,0.000
1714028628.506,-20.020,-37.109,-22.949,-3.906,0.000
1714028628.510,-26.855,-32.227,-23.926,-20.996,0.000
1714028628.514,-26.367,-34.668,-26.855,-28.809,0.000
1714028628.518,-20.996,-37.109,-25.879,-20.508,0.000
1714028628.522,-30.762,-36.621,-22.461,-38.086,0.000
1714028628.526,-26.367,-35.156,-20.020,-40.039,0.000
1714028628.530,-5.859,-31.738,-19.531,-12.207,0.000
1714028628.534,-1.465,-28.809,-17.090,-2.930,0.000
1714028628.538,-13.184,-32.227,-14.648,-15.137,0.000
1714028628.542,-20.508,-34.180,-13.184,-10.742,0.000
1714028628.545,-19.043,-35.156,-14.160,-15.137,0.000
1714028628.549,-21.484,-34.180,-23.926,-32.227,0.000
1714028628.553,-14.160,-32.227,-23.926,-15.625,0.000
1714028628.557,-1.953,-32.227,-15.625,3.418,0.000
1714028628.561,-12.207,-29.785,-14.160,-5.859,0.000
1714028628.565,-19.531,-27.344,-11.230,-9.766,0.000
1714028628.569,-17.090,-26.367,-12.695,-4.395,0.000
1714028628.573,-25.879,-30.273,-17.578,-17.090,0.000
1714028628.577,-34.668,-35.645,-19.043,-33.203,0.000
1714028628.581,-36.133,-35.645,-21.484,-36.621,0.000
1714028628.585,-34.668,-34.180,-20.508,-32.715,0.000
1714028628.589,-33.691,-35.156,-21.484,-15.137,0.000
1714028628.592,-29.297,-33.203,-13.672,-12.207,0.000
1714028628.596,-28.809,-25.879,-18.555,-31.738,0.000
1714028628.600,-26.367,-28.320,-28.809,-16.113,0.000
1714028628.604,-26.855,-31.250,-30.273,-8.789,0.000
1714028628.608,-26.855,-23.926,-28.320,-9.766,0.000
1714028628.612,-24.902,-22.461,-25.391,-15.137,0.000
1714028628.616,-24.902,-28.809,-26.367,-28.809,0.000
1714028628.620,-20.996,-31.738,-23.438,-10.254,0.000
1714028628.624,-22.949,-29.297,-25.391,-1.953,0.000
1714028628.628,-31.738,-31.250,-22.461,-16.602,0.000
1714028628.632,-16.602,-25.879,-23.438,-16.113,0.000
1714028628.635,-14.160,-20.508,-19.043,-5.859,0.000
1714028628.639,-24.902,-27.832,-16.113,-11.719,0.000
1714028628.643,-16.113,-33.203,-23.438,-30.273,0.000
1714028628.647,-17.578,-29.785,-24.902,-31.738,0.000
1714028628.651,-34.668,-29.297,-27.344,-22.949,0.000
1714028628.655,-33.691,-29.297,-34.180,-37.109,0.000
1714028628.659,-26.855,-27.344,-32.715,-58.105,0.000
1714028628.663,-35.156,-29.297,-29.297,-39.551,0.000
1714028628.667,-25.391,-27.832,-28.809,1.953,0.000
1714028628.671,-20.996,-23.438,-25.391,-13.184,0.000
1714028628.674,-33.691,-27.344,-28.809,-19.531,0.000
1714028628.678,-21.484,-30.762,-33.691,-8.789,0.000
1714028628.682,-22.461,-29.297,-35.156,-19.531,0.000
1714028628.686,-30.273,-24.414,-28.320,-17.090,0.000
1714028628.690,-23.926,-23.926,-21.973,-14.648,0.000
1714028628.694,-16.602,-28.809,-24.902,-17.090,0.000
1714028628.698,-11.719,-26.367,-29.297,-17.090,0.000
1714028628.702,-16.113,-24.414,-19.043,-20.996,0.000
1714028628.706,-21.973,-29.785,-11.230,-14.648,0.000
1714028628.710,-23.926,-37.598,-21.973,-5.859,0.000
1714028628.714,-14.648,-31.250,-19.531,-9.766,0.000
1714028628.717,-14.648,-30.273,-21.484,-30.762,0.000
1714028628.721,-29.297,-39.062,-30.762,-33.691,0.000
1714028628.725,-32.227,-33.203,-26.367,-22.949,0.000
1714028628.729,-18.066,-26.367,-20.020,-19.531,0.000
1714028628.733,-13.184,-26.855,-23.438,-22.461,0.000
1714028628.737,-15.137,-24.902,-26.367,-20.020,0.000
1714028628.741,-26.367,-23.926,-22.461,-19.531,0.000
1714028628.745,-26.855,-26.367,-25.391,-34.180,0.000
1714028628.749,-19.531,-29.297,-30.273,-39.062,0.000
1714028628.753,-21.973,-35.645,-26.855,-15.137,0.000
1714028628.757,-23.926,-33.691,-24.414,-15.625,0.000
1714028628.760,-29.297,-30.273,-21.484,-23.438,0.000
1714028628.764,-23.926,-32.227,-18.555,-16.113,0.000
1714028628.768,-24.414,-32.227,-24.414,-29.297,0.000
1714028628.772,-32.715,-32.227,-25.391,-28.809,0.000
1714028628.776,-23.926,-27.832,-15.137,-10.254,0.000
1714028628.780,-14.648,-25.391,-17.578,-25.391,0.000
1714028628.784,-16.113,-26.367,-24.414,-36.133,0.000
1714028628.788,-15.625,-26.855,-24.902,-20.996,0.000
1714028628.792,-14.648,-24.414,-31.250,-17.578,0.000
1714028628.796,-13.672,-21.484,-30.762,-27.832,0.000
1714028628.799,-14.648,-24.414,-30.762,-21.484,0.000
1714028628.803,-20.020,-32.715,-31.250,-31.738,0.000
1714028628.807,-28.809,-34.668,-25.879,-51.270,0.000
1714028628.811,-28.320,-31.250,-23.926,-38.574,0.000
1714028628.815,-22.949,-29.297,-25.391,-27.344,0.000
1714028628.819,-30.762,-26.855,-22.949,-20.996,0.000
1714028628.823,-11.719,-24.902,-21.484,-23.926,0.000
1714028628.827,-2.930,-26.855,-24.902,-30.273,0.000
1714028628.831,-26.367,-29.785,-25.879,-48.828,0.000
1714028628.835,-35.645,-33.691,-25.391,-47.852,0.000
1714028628.839,-33.691,-33.691,-24.414,-40.039,0.000
1714028628.842,-31.250,-27.344,-26.367,-37.598,0.000
1714028628.846,-38.086,-27.832,-28.320,-34.180,0.000
1714028628.850,-46.387,-29.785,-23.926,-33.691,0.000
1714028628.854,-34.180,-26.367,-28.320,-26.855,0.000
1714028628.858,-21.484,-24.902,-34.668,-26.367,0.000
1714028628.862,-17.578,-25.879,-31.738,-18.066,0.000
1714028628.866,-17.578,-26.855,-26.367,-16.113,0.000
1714028628.870,-24.414,-33.691,-22.461,-16.602,0.000
1714028628.874,-22.461,-34.180,-22.949,-24.902,0.000
1714028628.878,-16.602,-27.344,-19.531,-29.785,0.000
1714028628.881,-9.277,-25.391,-16.602,-20.508,0.000
1714028628.885,-14.160,-29.297,-20.996,-25.391,0.000
1714028628.889,-19.043,-31.738,-23.926,-19.043,0.000
1714028628.893,-17.090,-20.508,-23.438,-4.883,0.000
1714028628.897,-23.438,-15.625,-18.555,-20.996,0.000
1714028628.901,-22.461,-20.020,-16.602,-20.996,0.000
1714028628.905,-14.160,-19.043,-25.391,-27.344,0.000
1714028628.909,-18.066,-16.113,-30.273,-45.410,0.000
1714028628.913,-21.484,-18.066,-26.855,-42.969,0.000
1714028628.917,-20.508,-24.414,-25.391,-31.738,0.000
1714028628.921,-11.719,-19.531,-20.996,-18.066,0.000
1714028628.924,0.000,-12.695,-22.461,-23.926,0.000
1714028628.928,-6.348,-19.531,-31.738,-40.527,0.000
1714028628.932,-8.301,-27.832,-31.250,-30.273,0.000
1714028628.936,-10.742,-29.297,-23.438,-20.996,0.000
1714028628.940,-24.414,-28.809,-25.391,-28.320,0.000
1714028628.944,-33.691,-34.180,-23.438,-30.762,0.000
1714028628.948,-40.039,-34.668,-20.996,-37.109,0.000
1714028628.952,-35.645,-28.320,-23.926,-31.250,0.000
1714028628.956,-26.367,-29.785,-17.578,-16.113,0.000
1714028628.960,-23.438,-30.762,-11.230,-39.551,0.000
1714028628.964,-19.043,-27.832,-20.020,-42.969,0.000
1714028628.967,-19.531,-28.320,-27.344,-19.043,0.000
1714028628.971,-18.555,-27.344,-25.879,-20.020,0.000
1714028628.975,-21.973,-30.762,-22.461,-20.020,0.000
1714028628.979,-27.832,-31.738,-26.367,-27.344,0.000
1714028628.983,-23.926,-23.438,-25.391,-25.391,0.000
1714028628.987,-30.762,-22.949,-23.926,-32.715,0.000
1714028628.991,-39.062,-24.414,-28.320,-48.828,0.000
1714028628.995,-36.621,-27.344,-24.902,-27.344,0.000
1714028628.999,-32.227,-28.320,-23.438,-16.113,0.000
1714028629.003,-33.691,-27.832,-31.738,-38.574,0.000
1714028629.007,-45.898,-30.762,-34.180,-42.969,0.000
1714028629.010,-44.922,-28.320,-33.203,-55.664,0.000
1714028629.014,-39.062,-28.320,-32.227,-56.641,0.000
1714028629.018,-40.039,-30.762,-36.621,-44.922,0.000
1714028629.022,-25.391,-26.367,-38.086,-34.180,0.000
1714028629.026,-24.414,-24.902,-31.738,-23.438,0.000
1714028629.030,-27.344,-24.902,-34.668,-30.273,0.000
1714028629.034,-33.203,-23.926,-30.762,-23.926,0.000
1714028629.038,-31.738,-30.762,-31.738,-19.531,0.000
1714028629.042,-20.508,-32.715,-32.227,-21.973,0.000
1714028629.046,-20.020,-24.414,-21.973,-14.160,0.000
1714028629.050,-13.184,-19.043,-23.926,-12.695,0.000
1714028629.053,-9.277,-24.414,-26.367,-17.578,0.000
1714028629.057,-16.602,-30.762,-24.902,-21.973,0.000
1714028629.061,-17.090,-29.297,-23.926,-7.812,0.000
1714028629.065,-20.020,-25.879,-30.273,-19.043,0.000
1714028629.069,-18.066,-27.344,-37.598,-33.691,0.000
1714028629.073,-21.973,-29.297,-30.273,-7.812,0.000
1714028629.077,-20.996,-26.367,-22.949,-9.277,0.000
1714028629.081,-15.137,-26.367,-25.391,-23.926,0.000
1714028629.085,-18.555,-29.297,-26.855,-16.602,0.000
1714028629.089,-25.391,-26.855,-29.297,-20.508,0.000
1714028629.093,-32.227,-24.902,-34.180,-46.387,0.000
1714028629.096,-21.973,-24.414,-35.156,-45.898,0.000
1714028629.100,-25.879,-26.855,-38.086,-25.879,0.000
1714028629.104,-31.738,-28.809,-38.574,-40.039,0.000
1714028629.108,-33.203,-30.762,-36.133,-49.805,0.000
1714028629.112,-35.645,-34.668,-28.809,-32.715,0.000
1714028629.116,-42.969,-34.180,-22.949,-53.711,0.000
1714028629.120,-47.363,-34.668,-28.320,-53.223,0.000
1714028629.124,-33.691,-31.738,-30.762,-27.832,0.000
1714028629.128,-28.320,-26.367,-28.809,-35.156,0.000
1714028629.132,-30.762,-25.879,-28.320,-41.992,0.000
1714028629.135,-24.902,-23.438,-18.066,-29.297,0.000
1714028629.139,-20.508,-21.973,-23.438,-16.113,0.000
1714028629.143,-17.578,-22.949,-31.738,-23.438,0.000
1714028629.147,-11.230,-23.438,-23.438,-33.691,0.000
1714028629.151,-7.812,-21.973,-24.414,-16.602,0.000
1714028629.155,-13.184,-19.531,-31.250,-8.789,0.000
1714028629.159,-24.902,-23.926,-25.879,-18.066,0.000
1714028629.163,-32.227,-25.391,-28.809,-30.762,0.000
1714028629.167,-30.273,-25.879,-27.832,-27.832,0.000
1714028629.171,-38.574,-28.320,-22.461,-28.320,0.000
1714028629.175,-41.504,-32.227,-24.902,-43.457,0.000
1714028629.178,-26.367,-28.809,-21.973,-40.527,0.000
1714028629.182,-27.344,-26.855,-22.461,-43.945,0.000
1714028629.186,-41.016,-35.156,-24.414,-48.340,0.000
1714028629.190,-36.133,-31.738,-23.926,-43.945,0.000
1714028629.194,-35.645,-24.902,-21.484,-40.039,0.000
1714028629.198,-40.039,-25.391,-22.461,-38.086,0.000
1714028629.202,-28.809,-27.344,-26.367,-44.922,0.000
1714028629.206,-34.180,-29.785,-25.391,-34.180,0.000
1714028629.210,-24.902,-26.855,-21.484,-25.391,0.000
1714028629.214,-4.883,-21.484,-19.043,-27.832,0.000
1714028629.218,-24.414,-26.855,-20.996,-33.203,0.000
1714028629.222,-16.602,-26.367,-23.438,-22.461,0.000
1714028629.225,-6.348,-20.996,-19.531,-11.230,0.000
1714028629.229,-18.555,-22.949,-17.578,-21.484,0.000
1714028629.233,-23.438,-25.879,-19.043,-18.555,0.000
1714028629.237,-26.855,-24.414,-19.043,-27.832,0.000
1714028629.241,-24.414,-19.043,-24.902,-41.016,0.000
1714028629.245,-24.414,-22.461,-29.297,-26.855,0.000
1714028629.249,-28.809,-25.879,-25.879,-13.672,0.000
1714028629.253,-24.414,-23.438,-22.461,-2.441,0.000
1714028629.257,-10.742,-21.484,-18.555,-13.672,0.000
1714028629.261,-15.625,-25.879,-20.020,-33.691,0.000
1714028629.264,-29.785,-28.809,-24.902,-36.621,0.000
1714028629.268,-27.344,-29.297,-23.926,-46.387,0.000
1714028629.272,-31.738,-33.203,-20.996,-48.340,0.000
1714028629.276,-29.785,-36.133,-25.879,-33.203,0.000
1714028629.280,-41.504,-35.645,-30.273,-32.227,0.000
1714028629.284,-51.270,-29.785,-30.273,-36.133,0.000
1714028629.288,-40.527,-24.414,-26.367,-34.668,0.000
1714028629.292,-41.992,-26.855,-29.297,-34.668,0.000
1714028629.296,-25.879,-31.250,-37.109,-37.598,0.000
1714028629.300,-25.391,-33.203,-27.832,-34.668,0.000
1714028629.303,-37.109,-36.133,-25.391,-37.598,0.000
1714028629.307,-16.113,-36.133,-28.809,-24.414,0.000
1714028629.311,-14.160,-32.715,-27.344,-17.578,0.000
1714028629.315,-21.973,-32.715,-26.855,-29.297,0.000
1714028629.319,-9.766,-26.855,-28.320,-23.438,0.000
1714028629.323,-18.555,-22.461,-29.297,-19.043,0.000
1714028629.327,-19.043,-25.879,-28.320,-20.508,0.000
1714028629.331,-26.367,-24.414,-27.344,-25.879,0.000
1714028629.335,-42.480,-25.391,-24.902,-31.250,0.000
1714028629.339,-39.062,-30.273,-23.438,-28.809,0.000
1714028629.343,-35.156,-32.227,-24.902,-26.855,0.000
1714028629.346,-40.039,-33.691,-28.320,-45.410,0.000
1714028629.350,-40.527,-31.738,-34.180,-38.086,0.000
1714028629.354,-34.180,-26.367,-30.273,-32.715,0.000
1714028629.358,-32.715,-22.461,-18.066,-44.434,0.000
1714028629.362,-35.156,-25.879,-14.648,-34.668,0.000
1714028629.366,-43.945,-29.297,-23.438,-35.156,0.000
1714028629.370,-38.086,-32.227,-23.438,-24.902,0.000
1714028629.374,-31.738,-36.621,-17.090,-12.695,0.000
1714028629.378,-47.852,-33.691,-21.484,-27.832,0.000
1714028629.382,-38.574,-30.273,-22.949,-34.668,0.000
1714028629.386,-30.762,-32.715,-27.344,-19.531,0.000
1714028629.389,-36.621,-32.715,-31.250,-26.855,0.000
1714028629.393,-26.367,-30.273,-29.297,-30.273,0.000
1714028629.397,-27.344,-26.367,-32.227,-36.621,0.000
1714028629.401,-34.180,-25.879,-30.762,-44.922,0.000
1714028629.405,-15.625,-23.926,-26.367,-20.996,0.000
1714028629.409,-24.414,-29.785,-23.438,-9.766,0.000
1714028629.413,-37.109,-32.715,-22.949,-13.672,0.000
1714028629.417,-26.367,-27.344,-26.367,-8.789,0.000
1714028629.421,-21.973,-27.832,-26.367,-5.859,0.000
1714028629.425,-18.066,-24.414,-28.320,-19.043,0.000
1714028629.429,-25.391,-21.484,-32.715,-30.762,0.000
1714028629.432,-35.645,-23.926,-36.133,-41.016,0.000
1714028629.436,-38.086,-27.832,-31.738,-37.598,0.000
1714028629.440,-31.738,-26.367,-29.785,-41.992,0.000
1714028629.444,-30.273,-26.855,-30.273,-47.363,0.000
1714028629.448,-29.297,-27.344,-28.320,-45.410,0.000
1714028629.452,-30.273,-28.320,-27.832,-44.434,0.000
1714028629.456,-32.227,-26.855,-22.949,-29.785,0.000
1714028629.460,-35.156,-27.344,-22.949,-31.738,0.000
1714028629.464,-46.387,-30.273,-26.367,-52.246,0.000
1714028629.468,-39.551,-28.320,-25.391,-43.457,0.000
1714028629.472,-33.691,-24.902,-27.344,-26.855,0.000
1714028629.475,-35.156,-29.785,-28.320,-29.785,0.000
1714028629.479,-16.602,-30.762,-27.832,-27.832,0.000
1714028629.483,-5.859,-28.320,-24.414,-18.555,0.000
1714028629.487,-2.441,-29.785,-26.855,-2.441,0.000
1714028629.491,-9.766,-29.785,-26.855,-10.742,0.000
1714028629.495,-16.113,-31.738,-20.020,-18.066,0.000
1714028629.499,-3.418,-29.297,-21.973,-15.625,0.000
1714028629.503,-10.254,-31.250,-27.832,-11.719,0.000
1714028629.507,-14.160,-31.250,-28.320,-0.977,0.000
1714028629.511,-19.043,-28.320,-27.832,-21.484,0.000
1714028629.514,-29.297,-31.250,-22.949,-34.668,0.000
1714028629.518,-37.598,-29.297,-23.926,-47.363,0.000
1714028629.522,-34.668,-32.227,-29.785,-36.133,0.000
1714028629.526,-27.832,-34.180,-28.809,-35.645,0.000
1714028629.530,-40.039,-30.762,-35.645,-49.316,0.000
1714028629.534,-44.922,-33.691,-35.156,-36.621,0.000
1714028629.538,-33.203,-31.250,-30.762,-24.902,0.000
1714028629.542,-32.227,-26.855,-33.203,-22.949,0.000
1714028629.546,-41.016,-28.809,-32.715,-40.527,0.000
1714028629.550,-38.574,-28.320,-31.250,-31.738,0.000
1714028629.554,-19.043,-22.949,-33.691,-27.344,0.000
1714028629.557,-11.719,-20.996,-35.645,-34.180,0.000
1714028629.561,-18.066,-24.414,-30.762,-33.691,0.000
1714028629.565,3.906,-25.391,-24.902,-25.391,0.000
1714028629.569,11.719,-25.879,-20.996,-20.020,0.000
1714028629.573,4.395,-25.391,-20.508,-17.090,0.000
1714028629.577,5.371,-18.066,-20.996,-18.066,0.000
1714028629.581,0.488,-18.066,-20.508,-13.184,0.000
1714028629.585,-4.395,-28.809,-17.578,-3.906,0.000
1714028629.589,-18.555,-36.621,-20.020,-14.648,0.000
1714028629.593,-30.273,-38.086,-24.414,-17.578,0.000
1714028629.596,-33.203,-40.527,-22.461,-26.367,0.000
1714028629.600,-44.434,-40.039,-19.531,-33.203,0.000
1714028629.604,-46.875,-35.156,-19.043,-32.715,0.000
1714028629.608,-42.480,-35.645,-21.973,-39.062,0.000
1714028629.612,-40.527,-36.621,-28.809,-39.062,0.000
1714028629.616,-38.086,-32.227,-31.738,-31.738,0.000
1714028629.620,-25.879,-28.320,-30.762,-41.992,0.000
1714028629.624,-31.738,-29.785,-31.738,-50.293,0.000
1714028629.628,-52.246,-35.156,-31.738,-43.457,0.000
1714028629.632,-53.223,-36.133,-35.645,-51.270,0.000
1714028629.635,-43.457,-32.227,-35.156,-57.129,0.000
1714028629.639,-42.480,-35.156,-35.156,-58.594,0.000
1714028629.643,-40.527,-32.715,-36.621,-51.270,0.000
1714028629.647,-37.109,-28.809,-34.180,-44.434,0.000
1714028629.651,-30.273,-34.668,-36.133,-33.691,0.000
1714028629.655,-15.625,-33.691,-36.621,-29.297,0.000
1714028629.659,-11.230,-25.879,-34.180,-34.668,0.000
1714028629.663,-2.930,-21.484,-29.785,-12.207,0.000
1714028629.667,1.465,-21.973,-27.832,-9.766,0.000
1714028629.671,2.441,-21.973,-20.508,-9.277,0.000
1714028629.675,-2.441,-22.949,-21.484,-6.348,0.000
1714028629.678,-3.906,-23.438,-29.297,-22.949,0.000
1714028629.682,-0.977,-21.484,-23.926,-22.461,0.000
1714028629.686,-13.672,-29.785,-20.020,-22.949,0.000
1714028629.690,-21.973,-28.809,-24.902,-31.738,0.000
1714028629.694,-17.090,-24.902,-29.297,-30.762,0.000
1714028629.698,-18.555,-27.832,-31.250,-32.715,0.000
1714028629.702,-21.973,-27.832,-30.273,-30.762,0.000
1714028629.706,-29.785,-29.785,-27.832,-18.555,0.000
1714028629.710,-32.715,-28.320,-26.855,-22.461,0.000
1714028629.714,-33.203,-32.715,-27.344,-30.762,0.000
1714028629.718,-34.180,-31.250,-20.020,-21.484,0.000
1714028629.721,-30.762,-24.414,-11.719,-20.020,0.000
1714028629.725,-38.574,-27.832,-16.602,-38.086,0.000
1714028629.729,-31.738,-28.809,-28.320,-36.133,0.000
1714028629.733,-16.602,-31.738,-32.715,-20.508,0.000
1714028629.737,-17.578,-30.273,-31.738,-20.996,0.000
1714028629.741,-16.602,-24.902,-28.809,-19.043,0.000
1714028629.745,-9.766,-27.832,-25.879,-13.184,0.000
1714028629.749,-13.184,-30.762,-23.926,-20.508,0.000
1714028629.753,-15.137,-26.367,-28.809,-22.461,0.000
1714028629.757,-13.184,-25.879,-28.320,-12.207,0.000
1714028629.761,-15.625,-28.320,-21.973,-17.578,0.000
1714028629.764,-23.438,-26.855,-23.438,-32.715,0.000
1714028629.768,-21.484,-27.832,-23.438,-29.297,0.000
1714028629.772,-25.391,-33.691,-25.879,-24.902,0.000
1714028629.776,-45.898,-38.574,-22.949,-47.852,0.000
1714028629.780,-43.457,-32.715,-15.137,-41.992,0.000
1714028629.784,-25.391,-27.832,-17.090,-33.203,0.000
1714028629.788,-45.898,-31.250,-25.879,-34.180,0.000
1714028629.792,-62.012,-34.668,-30.273,-62.988,0.000
1714028629.796,-40.527,-33.203,-23.926,-71.777,0.000
1714028629.800,-44.922,-29.785,-20.508,-34.668,0.000
1714028629.803,-51.758,-28.809,-20.996,-39.062,0.000
1714028629.807,-50.781,-28.809,-20.996,-42.480,0.000
1714028629.811,-39.551,-30.273,-18.555,-38.574,0.000
1714028629.815,-34.668,-24.902,-16.113,-42.480,0.000
1714028629.819,-50.781,-17.090,-20.996,-41.016,0.000
1714028629.823,-38.574,-20.996,-22.461,-26.367,0.000
1714028629.827,-8.789,-19.531,-21.484,-19.043,0.000
1714028629.831,-7.812,-24.414,-27.832,-26.855,0.000
1714028629.835,-18.066,-31.738,-28.809,-19.043,0.000
1714028629.839,-6.836,-24.902,-26.367,-5.859,0.000
1714028629.843,-17.578,-24.414,-27.832,-17.578,0.000
1714028629.846,-27.344,-29.297,-22.949,-17.090,0.000
1714028629.850,-13.672,-28.320,-21.484,-15.137,0.000
1714028629.854,-20.508,-25.879,-25.391,-21.484,0.000
1714028629.858,-12.695,-26.367,-25.879,-20.508,0.000
1714028629.862,-27.832,-27.832,-25.879,-28.320,0.000
1714028629.866,-22.949,-23.926,-23.926,-29.785,0.000
1714028629.870,-33.203,-26.367,-32.227,-38.086,0.000
1714028629.874,-53.223,-31.250,-30.273,-51.270,0.000
1714028629.878,-37.109,-27.344,-26.367,-68.848,0.000
1714028629.882,-37.109,-23.926,-29.297,-49.316,0.000
1714028629.886,-36.621,-25.391,-24.902,-23.926,0.000
1714028629.889,-43.945,-27.344,-30.273,-41.504,0.000
1714028629.893,-62.500,-24.414,-33.691,-50.781,0.000
1714028629.897,-63.477,-21.484,-30.273,-58.105,0.000
1714028629.901,-27.344,-25.879,-26.367,-47.363,0.000
1714028629.905,-14.648,-24.414,-25.879,-36.621,0.000
1714028629.909,-11.230,-17.090,-21.484,-31.738,0.000
1714028629.913,-2.441,-20.508,-24.902,-19.531,0.000
1714028629.917,-6.836,-29.297,-29.297,-14.160,0.000
1714028629.921,-12.207,-31.250,-40.527,-17.090,0.000
1714028629.925,-15.625,-28.320,-42.969,-11.230,0.000
1714028629.928,-15.625,-22.949,-29.297,-18.066,0.000
1714028629.932,-14.648,-25.391,-25.391,-28.320,0.000
1714028629.936,-26.855,-29.297,-24.414,-39.551,0.000
1714028629.940,-35.645,-26.367,-18.555,-30.762,0.000
1714028629.944,-20.508,-30.762,-17.578,-10.742,0.000
1714028629.948,-19.531,-30.273,-22.461,-18.066,0.000
1714028629.952,-20.508,-23.438,-26.367,-26.367,0.000
1714028629.956,-18.555,-26.367,-24.414,-21.484,0.000
1714028629.960,-40.527,-31.250,-20.020,-35.156,0.000
1714028629.964,-34.668,-29.785,-24.414,-28.809,0.000
1714028629.968,-32.227,-26.855,-28.809,-20.996,0.000
1714028629.971,-48.340,-22.949,-31.250,-62.012,0.000
1714028629.975,-50.781,-20.508,-28.320,-61.035,0.000
1714028629.979,-52.734,-17.090,-21.973,-54.199,0.000
1714028629.983,-30.273,-14.648,-22.949,-53.223,0.000
1714028629.987,-31.250,-14.160,-27.832,-47.852,0.000
1714028629.991,-41.992,-17.578,-28.809,-48.340,0.000
1714028629.995,-37.598,-15.625,-34.668,-46.387,0.000
1714028629.999,-33.203,-16.602,-39.062,-46.875,0.000
1714028630.003,-29.297,-17.578,-36.621,-55.664,0.000
1714028630.007,-18.066,-13.184,-33.203,-48.828,0.000
1714028630.010,-12.695,-16.113,-35.156,-27.832,0.000
1714028630.014,-11.230,-16.113,-35.156,-10.254,0.000
1714028630.018,-5.371,-11.719,-32.715,-20.020,0.000
1714028630.022,-8.301,-16.602,-30.273,-26.367,0.000
1714028630.026,-3.906,-18.555,-29.785,-18.066,0.000
1714028630.030,-8.301,-19.043,-29.785,-8.789,0.000
1714028630.034,-33.203,-24.902,-33.691,-38.086,0.000
1714028630.038,-20.996,-27.832,-38.086,-38.086,0.000
1714028630.042,-37.109,-28.320,-35.156,-8.301,0.000
1714028630.046,-48.828,-29.297,-36.621,-21.484,0.000
1714028630.049,-11.719,-26.367,-34.180,-36.133,0.000
1714028630.053,-31.738,-28.320,-29.785,-31.250,0.000
1714028630.057,-28.320,-28.320,-28.809,-27.344,0.000
1714028630.061,-23.438,-28.809,-36.133,-41.016,0.000
1714028630.065,-52.734,-35.156,-43.945,-32.715,0.000
1714028630.069,-49.805,-36.133,-41.504,-31.250,0.000
1714028630.073,-34.180,-35.645,-37.598,-41.504,0.000
1714028630.077,-20.996,-32.715,-35.156,-41.016,0.000
1714028630.081,-10.254,-25.879,-30.762,-18.555,0.000
1714028630.085,-18.555,-30.273,-29.297,-4.883,0.000
1714028630.089,-16.113,-33.203,-34.668,-8.301,0.000
1714028630.092,-13.672,-31.738,-32.227,-17.090,0.000
1714028630.096,-16.602,-28.809,-31.250,-49.316,0.000
1714028630.100,-5.371,-22.461,-30.762,-41.992,0.000
1714028630.104,1.953,-20.996,-24.414,-32.227,0.000
1714028630.108,-5.371,-19.531,-23.438,-21.484,0.000
1714028630.112,-18.066,-24.414,-23.438,-3.418,0.000
1714028630.116,-20.508,-27.344,-27.344,-19.043,0.000
1714028630.120,-15.625,-24.414,-31.250,-28.320,0.000
1714028630.124,-20.996,-23.438,-28.320,-34.668,0.000
1714028630.128,-23.926,-20.020,-29.297,-38.574,0.000
1714028630.132,-29.785,-20.996,-36.621,-47.852,0.000
1714028630.135,-23.926,-27.344,-34.668,-49.805,0.000
1714028630.139,-15.625,-25.391,-26.855,-21.973,0.000
1714028630.143,-22.949,-25.391,-21.973,-36.621,0.000
1714028630.147,-25.391,-28.809,-28.320,-59.082,0.000
1714028630.151,-28.320,-27.344,-33.203,-30.762,0.000
1714028630.155,-25.391,-22.461,-27.344,-18.555,0.000
1714028630.159,-31.738,-23.438,-27.344,-52.246,0.000
1714028630.163,-45.410,-35.156,-28.320,-42.480,0.000
1714028630.167,-27.832,-31.738,-28.809,-2.930,0.000
1714028630.171,-18.066,-20.020,-28.320,-20.996,0.000
1714028630.175,-27.344,-29.297,-26.855,-22.461,0.000
1714028630.178,-8.301,-31.250,-28.809,-26.855,0.000
1714028630.182,10.742,-24.414,-22.461,-17.090,0.000
1714028630.186,-7.324,-22.949,-25.879,-32.227,0.000
1714028630.190,-30.762,-28.320,-32.715,-51.270,0.000
1714028630.194,-9.277,-28.809,-31.250,-9.277,0.000
1714028630.198,-4.883,-23.438,-35.645,-11.719,0.000
1714028630.202,-34.668,-28.320,-32.715,-20.020,0.000
1714028630.206,-37.109,-36.133,-24.902,-34.668,0.000
1714028630.210,-19.043,-34.180,-27.344,-36.621,0.000
1714028630.214,-16.113,-28.320,-27.344,-39.551,0.000
1714028630.218,-23.438,-32.227,-24.414,-31.738,0.000
1714028630.221,-29.785,-28.809,-24.902,-25.391,0.000
1714028630.225,-33.691,-24.902,-19.531,-39.551,0.000
1714028630.229,-9.277,-20.020,-18.066,-28.809,0.000
1714028630.233,-3.906,-17.090,-19.531,-18.066,0.000
1714028630.237,-29.297,-23.438,-22.949,-16.113,0.000
1714028630.241,-22.461,-23.438,-27.832,-35.156,0.000
1714028630.245,-23.926,-22.949,-30.273,-53.223,0.000
1714028630.249,-19.531,-18.555,-30.273,-49.316,0.000
1714028630.253,-6.348,-20.996,-28.809,-15.625,0.000
1714028630.257,-2.930,-25.391,-28.320,-8.301,0.000
1714028630.260,4.395,-20.508,-25.879,-19.531,0.000
1714028630.264,0.977,-22.461,-28.809,-20.020,0.000
1714028630.268,1.465,-21.484,-29.297,-17.090,0.000
1714028630.272,-2.930,-18.555,-27.832,-9.766,0.000
1714028630.276,-15.625,-18.555,-29.785,-16.113,0.000
1714028630.280,-16.602,-20.508,-30.762,-12.207,0.000
1714028630.284,-23.438,-21.484,-27.832,-17.578,0.000
1714028630.288,-41.016,-24.902,-28.809,-31.250,0.000
1714028630.292,-43.457,-31.250,-26.855,-30.273,0.000
1714028630.296,-52.734,-32.715,-25.879,-41.016,0.000
1714028630.300,-49.805,-34.180,-31.738,-36.621,0.000
1714028630.303,-30.762,-30.273,-27.344,-16.602,0.000
1714028630.307,-26.855,-30.762,-29.297,-16.602,0.000
1714028630.311,-20.996,-26.855,-29.785,-19.531,0.000
1714028630.315,-25.391,-27.344,-22.461,-21.484,0.000
1714028630.319,-30.762,-28.809,-24.902,-32.227,0.000
1714028630.323,-28.809,-20.020,-28.809,-40.039,0.000
1714028630.327,-36.133,-23.438,-22.949,-34.180,0.000
1714028630.331,-19.531,-26.367,-19.043,-30.762,0.000
1714028630.335,3.418,-19.043,-23.438,-35.156,0.000
1714028630.339,0.488,-23.438,-23.926,-23.926,0.000
1714028630.342,-4.395,-24.902,-26.855,-37.598,0.000
1714028630.346,-12.695,-25.391,-21.973,-22.461,0.000
1714028630.350,-5.859,-26.855,-15.137,-3.418,0.000
1714028630.354,-5.859,-25.879,-20.508,-12.695,0.000
1714028630.358,-12.695,-22.949,-24.902,-18.066,0.000
1714028630.362,-17.578,-21.973,-23.926,-18.555,0.000
1714028630.366,-9.277,-20.020,-23.438,-15.625,0.000
1714028630.370,-9.277,-20.996,-26.367,-16.602,0.000
1714028630.374,-18.555,-24.414,-24.902,-14.160,0.000
1714028630.378,-23.926,-22.949,-22.949,-19.531,0.000
1714028630.381,-38.574,-23.438,-29.297,-37.598,0.000
1714028630.385,-27.832,-27.832,-34.668,-23.926,0.000
1714028630.389,-22.461,-31.738,-30.273,-34.180,0.000
1714028630.393,-41.992,-31.738,-26.367,-54.199,0.000
1714028630.397,-45.898,-32.715,-24.902,-35.645,0.000
1714028630.401,-37.109,-31.250,-26.367,-27.344,0.000
1714028630.405,-21.484,-24.414,-26.855,-12.207,0.000
1714028630.409,-16.113,-23.926,-27.832,-32.227,0.000
1714028630.413,-28.809,-24.414,-34.668,-55.176,0.000
1714028630.417,-44.922,-28.809,-35.156,-24.902,0.000
1714028630.421,-38.574,-29.785,-29.785,-3.418,0.000
1714028630.425,-35.645,-22.949,-31.738,-14.160,0.000
1714028630.428,-52.734,-31.250,-28.320,-31.738,0.000
1714028630.432,-36.621,-37.598,-21.973,-20.508,0.000
1714028630.436,-20.996,-26.367,-22.949,-4.395,0.000
1714028630.440,-34.180,-20.996,-21.973,-21.484,0.000
1714028630.444,-20.020,-28.809,-20.996,-33.203,0.000
1714028630.448,-11.230,-34.668,-21.973,-20.508,0.000
1714028630.452,-28.809,-28.809,-20.996,-16.602,0.000
1714028630.456,-39.551,-27.832,-13.672,-3.418,0.000
1714028630.460,-41.504,-31.250,-18.555,-24.414,0.000
1714028630.464,-36.133,-27.344,-27.344,-49.316,0.000
1714028630.468,-39.551,-26.367,-25.391,-51.758,0.000
1714028630.472,-44.922,-27.344,-17.578,-46.875,0.000
1714028630.475,-28.809,-23.438,-18.066,-36.133,0.000
1714028630.479,-21.973,-25.391,-24.902,-28.809,0.000
1714028630.483,-45.898,-30.273,-23.926,-34.668,0.000
1714028630.487,-41.504,-27.832,-17.578,-30.762,0.000
1714028630.491,-34.180,-29.297,-22.461,-22.949,0.000
1714028630.495,-26.855,-22.949,-32.715,-31.250,0.000
1714028630.499,-21.484,-18.066,-32.227,-28.320,0.000
1714028630.503,-32.227,-22.949,-26.367,-21.973,0.000
1714028630.507,-35.645,-25.391,-26.855,-20.996,0.000
1714028630.511,-30.273,-25.391,-31.250,-39.062,0.000
1714028630.515,-25.879,-26.855,-32.227,-30.762,0.000
1714028630.518,-29.785,-27.832,-29.785,-15.625,0.000
1714028630.522,-32.227,-23.926,-31.738,-26.367,0.000
1714028630.526,-49.805,-29.297,-37.598,-37.598,0.000
1714028630.530,-44.434,-34.180,-35.156,-34.668,0.000
1714028630.534,-24.414,-30.273,-24.902,-12.695,0.000
1714028630.538,-32.715,-29.785,-21.973,-7.812,0.000
1714028630.542,-37.109,-33.203,-22.461,-15.137,0.000
1714028630.546,-38.086,-33.203,-23.926,-27.344,0.000
1714028630.550,-31.250,-27.344,-25.391,-28.809,0.000
1714028630.554,-30.273,-26.855,-19.043,-16.113,0.000
1714028630.558,-44.434,-28.320,-19.043,-9.277,0.000
1714028630.561,-40.527,-19.531,-23.926,-22.949,0.000
1714028630.565,-33.203,-18.066,-25.879,-34.180,0.000
1714028630.569,-38.086,-27.344,-24.414,-26.367,0.000
1714028630.573,-41.016,-30.273,-27.832,-18.066,0.000
1714028630.577,-36.621,-21.484,-30.273,-18.555,0.000
1714028630.581,-20.996,-15.625,-25.391,-22.461,0.000
1714028630.585,-31.250,-20.996,-24.902,-17.578,0.000
1714028630.589,-38.086,-23.926,-20.996,-26.367,0.000
1714028630.593,-28.809,-22.949,-14.648,-27.344,0.000
1714028630.597,-30.273,-28.809,-18.555,-28.809,0.000
1714028630.601,-33.203,-30.273,-24.902,-41.992,0.000
1714028630.604,-42.480,-30.273,-22.461,-20.508,0.000
1714028630.608,-37.109,-35.645,-23.926,-14.648,0.000
1714028630.612,-21.484,-31.250,-24.414,-25.391,0.000
1714028630.616,-26.855,-25.391,-20.020,-30.273,0.000
1714028630.620,-26.855,-22.461,-24.902,-28.809,0.000
1714028630.624,-34.180,-21.484,-33.203,-31.738,0.000
1714028630.628,-41.992,-22.461,-28.809,-26.855,0.000
1714028630.632,-40.039,-22.949,-28.809,-44.434,0.000
1714028630.636,-39.551,-23.926,-31.738,-55.664,0.000
1714028630.640,-32.715,-26.855,-33.203,-10.742,0.000
1714028630.643,-24.902,-27.832,-30.762,-18.066,0.000
1714028630.647,-30.762,-26.367,-26.367,-31.738,0.000
1714028630.651,-22.949,-23.926,-21.973,-13.672,0.000
1714028630.655,-17.090,-26.855,-20.508,-11.719,0.000
1714028630.659,-21.973,-30.273,-27.344,-18.066,0.000
1714028630.663,-21.484,-29.785,-33.203,-34.180,0.000
1714028630.667,-26.367,-28.320,-38.086,-32.227,0.000
1714028630.671,-32.227,-25.391,-34.180,-24.902,0.000
1714028630.675,-27.832,-26.367,-27.344,-35.156,0.000
1714028630.679,-19.531,-22.949,-27.832,-34.668,0.000
1714028630.683,-13.672,-23.926,-24.902,-20.996,0.000
1714028630.686,-8.789,-24.414,-21.973,-13.672,0.000
1714028630.690,-8.789,-19.531,-21.484,-13.672,0.000
1714028630.694,-5.859,-20.020,-21.973,-21.973,0.000
1714028630.698,8.789,-21.484,-25.391,-26.367,0.000
1714028630.702,5.859,-20.996,-25.391,-26.367,0.000
1714028630.706,-11.719,-22.949,-26.367,-22.949,0.000
1714028630.710,-20.508,-20.508,-24.414,-38.574,0.000
1714028630.714,-20.020,-23.438,-20.996,-31.738,0.000
1714028630.718,-18.555,-28.809,-26.855,-14.160,0.000
1714028630.722,-30.762,-29.785,-30.762,-15.625,0.000
1714028630.725,-32.227,-25.879,-27.832,-21.973,0.000
1714028630.729,-31.738,-24.902,-30.762,-35.645,0.000
1714028630.733,-31.250,-26.855,-29.785,-26.367,0.000
1714028630.737,-31.250,-29.785,-27.832,-21.484,0.000
1714028630.741,-34.180,-30.762,-30.762,-32.227,0.000
1714028630.745,-29.785,-26.367,-34.668,-39.062,0.000
1714028630.749,-34.668,-25.879,-31.250,-28.320,0.000
1714028630.753,-31.250,-25.391,-25.879,-20.996,0.000
1714028630.757,-32.227,-26.367,-28.320,-35.156,0.000
1714028630.761,-39.551,-30.762,-33.691,-49.316,0.000
1714028630.764,-28.809,-29.785,-35.645,-44.434,0.000
1714028630.768,-31.738,-27.344,-30.762,-40.527,0.000
1714028630.772,-29.785,-23.438,-36.133,-37.598,0.000
1714028630.776,-27.832,-24.902,-41.016,-43.945,0.000
1714028630.780,-41.016,-28.809,-31.738,-38.574,0.000
1714028630.784,-35.156,-27.832,-25.879,-24.902,0.000
1714028630.788,-15.625,-30.762,-22.461,-21.973,0.000
1714028630.792,-13.672,-30.762,-22.949,-24.902,0.000
1714028630.796,-19.531,-29.297,-27.832,-24.414,0.000
1714028630.800,-20.508,-30.762,-27.344,-28.809,0.000
1714028630.803,-23.926,-31.250,-21.484,-25.391,0.000
1714028630.807,-20.996,-30.273,-20.020,-19.531,0.000
1714028630.811,-23.438,-29.297,-22.461,-30.762,0.000
1714028630.815,-28.320,-24.902,-20.996,-45.898,0.000
1714028630.819,-25.391,-24.902,-20.996,-47.363,0.000
1714028630.823,-27.344,-25.391,-24.902,-35.645,0.000
1714028630.827,-27.344,-23.926,-26.367,-41.016,0.000
1714028630.831,-31.738,-26.855,-20.020,-40.527,0.000
1714028630.835,-31.250,-23.926,-19.531,-36.621,0.000
1714028630.839,-19.531,-18.066,-19.531,-31.738,0.000
1714028630.843,-12.695,-20.996,-14.160,-28.320,0.000
1714028630.847,-24.414,-23.926,-20.508,-43.945,0.000
1714028630.850,-28.809,-21.484,-29.297,-43.945,0.000
1714028630.854,-28.320,-24.414,-28.809,-37.598,0.000
1714028630.858,-29.297,-25.879,-32.227,-37.598,0.000
1714028630.862,-22.949,-19.043,-41.504,-37.598,0.000
1714028630.866,-28.809,-23.438,-37.598,-33.203,0.000
1714028630.870,-24.414,-27.344,-31.738,-12.695,0.000
1714028630.874,-19.531,-24.414,-31.250,-24.414,0.000
1714028630.878,-26.855,-31.738,-29.297,-34.668,0.000
1714028630.882,-29.785,-31.738,-29.297,-24.902,0.000
1714028630.886,-29.297,-25.391,-31.250,-35.645,0.000
1714028630.890,-24.414,-20.996,-29.297,-35.156,0.000
1714028630.893,-35.645,-21.973,-27.832,-30.762,0.000
1714028630.897,-41.992,-26.855,-31.250,-25.879,0.000
1714028630.901,-21.484,-24.414,-32.715,-15.137,0.000
1714028630.905,-30.273,-25.879,-30.273,-28.320,0.000
1714028630.909,-37.598,-32.227,-23.926,-36.133,0.000
1714028630.913,-25.879,-36.621,-26.855,-26.855,0.000
1714028630.917,-29.297,-36.133,-31.250,-21.973,0.000
1714028630.921,-29.297,-35.645,-26.367,-21.973,0.000
1714028630.925,-21.484,-30.762,-29.297,-21.973,0.000
1714028630.929,-21.484,-28.320,-33.203,-29.785,0.000
1714028630.932,-20.996,-32.227,-32.227,-25.391,0.000
1714028630.936,-21.973,-32.227,-30.762,-19.043,0.000
1714028630.940,-13.184,-27.344,-30.762,-16.113,0.000
1714028630.944,-14.648,-29.297,-31.738,-26.855,0.000
1714028630.948,-27.344,-30.273,-35.156,-39.551,0.000
1714028630.952,-18.066,-26.855,-32.227,-27.832,0.000
1714028630.956,-2.930,-28.320,-29.297,-9.277,0.000
1714028630.960,3.906,-25.879,-30.762,-5.371,0.000
1714028630.964,-2.441,-25.879,-29.785,-23.438,0.000
1714028630.968,-13.672,-32.715,-26.367,-22.461,0.000
1714028630.972,-13.672,-30.273,-21.484,-11.230,0.000
1714028630.975,-24.414,-28.809,-22.949,-21.973,0.000
1714028630.979,-37.109,-31.250,-19.043,-29.297,0.000
1714028630.983,-30.762,-25.391,-15.625,-26.855,0.000
1714028630.987,-34.180,-21.973,-17.090,-20.020,0.000
1714028630.991,-25.879,-21.484,-20.020,-38.086,0.000
1714028630.995,-16.113,-20.996,-27.344,-39.062,0.000
1714028630.999,-22.461,-27.344,-30.273,-19.043,0.000
1714028631.003,-28.809,-25.879,-32.227,-12.207,0.000
1714028631.007,-29.785,-25.391,-37.109,-20.020,0.000
1714028631.011,-11.230,-23.438,-29.297,-24.414,0.000
1714028631.015,-18.555,-21.484,-22.461,-31.250,0.000
1714028631.018,-32.715,-25.879,-25.391,-27.344,0.000
1714028631.022,-28.809,-24.414,-24.414,-20.020,0.000
1714028631.026,-41.016,-23.926,-25.879,-30.762,0.000
1714028631.030,-35.645,-21.973,-29.297,-45.898,0.000
1714028631.034,-17.578,-18.066,-29.297,-34.180,0.000
1714028631.038,-16.602,-22.949,-29.297,-14.648,0.000
1714028631.042,-21.484,-30.273,-28.809,-25.879,0.000
1714028631.046,-31.738,-26.855,-28.809,-33.691,0.000
1714028631.050,-16.113,-21.973,-29.297,-23.926,0.000
1714028631.054,-16.113,-23.438,-23.926,-16.113,0.000
1714028631.057,-29.785,-28.320,-18.555,-17.090,0.000
1714028631.061,-22.949,-33.203,-19.043,-20.508,0.000
1714028631.065,-20.996,-32.227,-17.578,-22.949,0.000
1714028631.069,-25.391,-29.785,-20.996,-20.508,0.000
1714028631.073,-21.973,-26.367,-28.809,-21.484,0.000
1714028631.077,-19.531,-30.762,-25.879,-24.902,0.000
1714028631.081,-30.762,-32.227,-25.879,-32.227,0.000
1714028631.085,-41.992,-26.855,-25.391,-34.180,0.000
1714028631.089,-41.016,-26.367,-21.484,-35.156,0.000
1714028631.093,-31.250,-27.832,-24.902,-33.691,0.000
1714028631.097,-29.785,-27.832,-22.461,-18.555,0.000
1714028631.100,-29.785,-28.320,-17.578,-24.414,0.000
1714028631.104,-34.668,-27.344,-22.461,-35.645,0.000
1714028631.108,-40.527,-26.855,-27.344,-40.039,0.000
1714028631.112,-39.062,-28.809,-31.250,-43.457,0.000
1714028631.116,-29.297,-25.391,-32.227,-33.691,0.000
1714028631.120,-31.738,-34.668,-33.203,-30.762,0.000
1714028631.124,-30.273,-38.086,-32.715,-35.645,0.000
1714028631.128,-31.250,-29.785,-29.785,-39.551,0.000
1714028631.132,-37.598,-30.762,-27.832,-55.176,0.000
1714028631.136,-28.320,-26.855,-22.461,-48.828,0.000
1714028631.139,-30.762,-28.320,-29.785,-30.273,0.000
1714028631.143,-23.438,-30.273,-32.715,-15.625,0.000
1714028631.147,-20.996,-26.855,-24.414,-19.531,0.000
1714028631.151,-31.738,-24.902,-23.438,-39.551,0.000
1714028631.155,-27.832,-25.391,-20.020,-31.250,0.000
1714028631.159,-19.531,-27.832,-22.461,-26.855,0.000
1714028631.163,-28.320,-24.902,-25.879,-38.574,0.000
1714028631.167,-31.250,-20.996,-24.902,-42.969,0.000
1714028631.171,-41.992,-26.367,-25.879,-40.039,0.000
1714028631.175,-34.668,-23.438,-23.438,-25.879,0.000
1714028631.178,-39.062,-24.414,-23.926,-35.645,0.000
1714028631.182,-47.363,-31.738,-24.414,-23.438,0.000
1714028631.186,-31.250,-27.344,-26.367,-13.184,0.000
1714028631.190,-24.902,-20.996,-29.297,-33.691,0.000
1714028631.194,-15.137,-23.926,-28.809,-36.621,0.000
1714028631.198,-13.672,-23.438,-28.809,-31.738,0.000
1714028631.202,-15.625,-20.020,-26.855,-26.855,0.000
1714028631.206,-28.320,-29.785,-30.273,-38.086,0.000
1714028631.210,-35.645,-37.109,-27.832,-27.832,0.000
1714028631.214,-28.809,-37.598,-28.320,-32.715,0.000
1714028631.218,-22.949,-35.645,-35.156,-50.781,0.000
1714028631.221,-25.391,-35.156,-34.180,-48.340,0.000
1714028631.225,-26.367,-37.598,-31.738,-37.598,0.000
1714028631.229,-25.879,-38.574,-32.227,-35.645,0.000
1714028631.233,-36.133,-38.086,-27.832,-26.855,0.000
1714028631.237,-40.039,-34.180,-27.832,-26.367,0.000
1714028631.241,-42.480,-31.738,-29.297,-43.945,0.000
1714028631.245,-44.922,-28.809,-35.156,-51.758,0.000
1714028631.249,-46.387,-23.926,-36.133,-41.504,0.000
1714028631.253,-44.922,-25.391,-25.879,-41.504,0.000
1714028631.257,-32.227,-27.344,-27.832,-31.250,0.000
1714028631.261,-28.809,-26.367,-29.785,-15.137,0.000
1714028631.264,-27.832,-31.250,-23.438,-10.742,0.000
1714028631.268,-31.738,-29.297,-23.438,-2.930,0.000
1714028631.272,-53.223,-27.832,-31.250,-16.602,0.000
1714028631.276,-47.363,-32.227,-30.762,-23.926,0.000
1714028631.280,-31.738,-28.320,-28.809,-31.250,0.000
1714028631.284,-15.137,-18.555,-29.297,-29.785,0.000
