timestamps,TP9,AF7,AF8,TP10,Right AUX
1714028217.328,-34.180,-27.832,-19.043,-31.250,0.000
1714028217.332,-21.484,-24.902,-17.090,-19.043,0.000
1714028217.336,-18.066,-24.414,-18.555,-19.531,0.000
1714028217.340,-25.391,-27.344,-20.996,-25.391,0.000
1714028217.344,-24.414,-22.949,-28.809,-27.344,0.000
1714028217.347,-22.461,-24.414,-29.785,-19.043,0.000
1714028217.351,-25.391,-26.367,-22.949,-18.066,0.000
1714028217.355,-25.879,-24.414,-26.367,-25.879,0.000
1714028217.359,-19.531,-20.996,-29.785,-15.625,0.000
1714028217.363,-20.508,-24.902,-23.926,-11.719,0.000
1714028217.367,-20.996,-32.715,-16.602,-15.137,0.000
1714028217.371,-18.555,-32.227,-22.949,-12.207,0.000
1714028217.371,-18.555,-32.227,-22.949,-12.207,0.000
1714028217.375,-29.785,-33.203,-28.320,-24.902,0.000
1714028217.379,-38.086,-34.668,-29.785,-34.180,0.000
1714028217.383,-30.762,-29.785,-32.227,-25.391,0.000
1714028217.387,-30.762,-29.297,-29.297,-27.344,0.000
1714028217.390,-28.320,-29.297,-28.320,-28.320,0.000
1714028217.394,-24.902,-26.855,-29.785,-20.020,0.000
1714028217.398,-26.367,-28.320,-28.809,-13.672,0.000
1714028217.402,-29.297,-25.879,-31.250,-13.184,0.000
1714028217.406,-31.250,-28.320,-28.320,-20.508,0.000
1714028217.410,-32.715,-26.367,-25.391,-38.086,0.000
1714028217.414,-37.598,-24.414,-34.668,-37.598,0.000
1714028217.418,-35.156,-27.832,-37.598,-26.367,0.000
1714028217.422,-27.832,-29.785,-31.250,-27.832,0.000
1714028217.426,-27.344,-22.949,-32.227,-25.879,0.000
1714028217.430,-32.715,-23.438,-29.785,-23.926,0.000
1714028217.433,-30.762,-28.320,-23.926,-20.508,0.000
1714028217.437,-30.273,-27.344,-25.391,-26.367,0.000
1714028217.441,-27.832,-23.926,-25.391,-32.715,0.000
1714028217.445,-28.320,-25.879,-23.926,-28.320,0.000
1714028217.449,-32.227,-32.227,-28.320,-20.020,0.000
1714028217.453,-33.203,-31.738,-26.367,-20.996,0.000
1714028217.457,-38.574,-31.738,-26.367,-40.039,0.000
1714028217.461,-23.438,-26.855,-32.715,-30.273,0.000
1714028217.465,-6.348,-26.367,-29.297,-3.906,0.000
1714028217.469,-30.762,-32.715,-33.203,-19.043,0.000
1714028217.472,-51.270,-28.809,-32.715,-39.551,0.000
1714028217.476,-39.551,-27.832,-30.762,-34.668,0.000
1714028217.480,-35.156,-34.180,-33.691,-26.367,0.000
1714028217.484,-43.457,-34.668,-33.691,-28.809,0.000
1714028217.488,-38.086,-36.621,-36.621,-34.668,0.000
1714028217.492,-26.855,-32.227,-37.109,-20.508,0.000
1714028217.496,-24.414,-20.996,-36.133,-10.742,0.000
1714028217.500,-28.809,-23.438,-29.785,-12.207,0.000
1714028217.504,-24.414,-30.273,-31.250,-13.184,0.000
1714028217.508,-23.926,-28.320,-33.691,-24.414,0.000
1714028217.511,-28.809,-30.762,-33.203,-30.762,0.000
1714028217.515,-28.320,-31.250,-33.203,-27.344,0.000
1714028217.519,-33.691,-25.879,-30.762,-19.043,0.000
1714028217.523,-30.762,-23.926,-29.297,-20.508,0.000
1714028217.527,-28.320,-25.391,-38.086,-24.414,0.000
1714028217.531,-27.832,-28.809,-38.086,-16.602,0.000
1714028217.535,-23.926,-23.926,-26.367,-14.160,0.000
1714028217.539,-23.438,-24.902,-29.785,-16.602,0.000
1714028217.543,-21.484,-28.809,-32.715,-22.949,0.000
1714028217.547,-27.344,-29.297,-29.785,-27.832,0.000
1714028217.551,-32.715,-34.180,-36.133,-23.926,0.000
1714028217.554,-33.691,-34.668,-39.062,-27.832,0.000
1714028217.558,-34.668,-33.691,-32.227,-26.367,0.000
1714028217.562,-28.809,-30.762,-30.273,-18.066,0.000
1714028217.566,-19.043,-30.762,-23.438,-11.230,0.000
1714028217.570,-11.719,-31.738,-22.461,-7.812,0.000
1714028217.574,-11.719,-27.832,-25.391,-14.160,0.000
1714028217.578,-14.648,-26.855,-28.809,-24.414,0.000
1714028217.582,-16.113,-26.855,-31.738,-20.508,0.000
1714028217.586,-15.625,-25.391,-29.297,-13.672,0.000
1714028217.590,-19.531,-29.785,-28.320,-24.902,0.000
1714028217.594,-22.461,-28.809,-30.273,-31.250,0.000
1714028217.597,-23.926,-23.926,-28.320,-23.438,0.000
1714028217.601,-21.973,-24.414,-24.414,-17.090,0.000
1714028217.605,-5.859,-22.949,-27.344,-14.648,0.000
1714028217.609,-14.160,-23.438,-32.715,-20.508,0.000
1714028217.613,-34.668,-20.996,-27.344,-34.180,0.000
1714028217.617,-41.504,-18.066,-20.996,-34.668,0.000
1714028217.621,-51.270,-32.227,-22.949,-29.297,0.000
1714028217.625,-43.945,-34.180,-29.297,-31.738,0.000
1714028217.629,-23.438,-27.344,-26.855,-25.391,0.000
1714028217.633,-10.742,-25.879,-24.414,-11.230,0.000
1714028217.636,-29.297,-24.902,-22.461,-11.719,0.000
1714028217.640,-33.203,-29.785,-24.414,-24.414,0.000
1714028217.644,-12.207,-23.926,-32.227,-27.344,0.000
1714028217.648,-27.344,-19.043,-34.668,-25.879,0.000
1714028217.652,-28.809,-20.508,-25.879,-22.949,0.000
1714028217.656,-29.785,-29.785,-22.949,-25.879,0.000
1714028217.660,-32.227,-34.668,-28.809,-31.738,0.000
1714028217.664,-27.344,-29.785,-28.809,-28.320,0.000
1714028217.668,-35.156,-24.414,-28.320,-24.414,0.000
1714028217.672,-28.320,-22.949,-25.391,-27.832,0.000
1714028217.676,-24.414,-30.273,-21.484,-28.320,0.000
1714028217.679,-30.273,-33.203,-20.508,-23.926,0.000
1714028217.683,-29.785,-23.438,-19.043,-19.043,0.000
1714028217.687,-28.809,-20.508,-21.973,-17.578,0.000
1714028217.691,-31.738,-28.320,-29.785,-21.973,0.000
1714028217.695,-30.762,-32.227,-34.180,-31.250,0.000
1714028217.699,-25.391,-35.156,-39.551,-35.156,0.000
1714028217.703,-26.367,-35.645,-39.062,-38.574,0.000
1714028217.707,-22.461,-35.156,-38.086,-32.227,0.000
1714028217.711,-17.578,-33.203,-34.180,-25.391,0.000
1714028217.715,-23.926,-31.250,-31.250,-29.297,0.000
1714028217.719,-22.461,-24.902,-39.062,-28.320,0.000
1714028217.722,-17.578,-24.902,-37.598,-26.855,0.000
1714028217.726,-20.996,-25.879,-28.809,-30.273,0.000
1714028217.730,-23.438,-24.414,-25.879,-26.367,0.000
1714028217.734,-20.996,-30.762,-28.320,-12.695,0.000
1714028217.738,-22.949,-34.668,-33.203,-21.484,0.000
1714028217.742,-25.391,-27.832,-30.273,-29.297,0.000
1714028217.746,-24.902,-22.461,-25.391,-23.438,0.000
1714028217.750,-29.297,-23.438,-34.668,-31.738,0.000
1714028217.754,-26.855,-27.344,-38.574,-35.645,0.000
1714028217.758,-22.949,-27.832,-31.738,-34.180,0.000
1714028217.762,-27.832,-29.297,-32.715,-24.902,0.000
1714028217.765,-34.180,-27.832,-30.273,-22.461,0.000
1714028217.769,-34.180,-21.484,-22.949,-24.902,0.000
1714028217.773,-32.227,-24.414,-27.344,-21.484,0.000
1714028217.777,-33.691,-35.156,-30.273,-24.414,0.000
1714028217.781,-31.250,-34.180,-30.273,-20.508,0.000
1714028217.785,-28.320,-29.297,-34.668,-22.461,0.000
1714028217.789,-30.762,-28.320,-28.809,-29.785,0.000
1714028217.793,-29.297,-31.250,-20.020,-30.273,0.000
1714028217.797,-26.855,-37.109,-23.926,-26.855,0.000
1714028217.801,-30.273,-35.645,-32.715,-32.227,0.000
1714028217.804,-34.668,-35.156,-40.527,-39.551,0.000
1714028217.808,-33.691,-31.250,-37.598,-39.551,0.000
1714028217.812,-34.668,-29.785,-27.832,-42.969,0.000
1714028217.816,-39.551,-33.691,-34.180,-38.574,0.000
1714028217.820,-34.668,-26.855,-36.133,-38.086,0.000
1714028217.824,-28.809,-28.809,-28.809,-35.156,0.000
1714028217.828,-27.832,-31.250,-27.832,-26.367,0.000
1714028217.832,-22.949,-20.508,-32.715,-28.320,0.000
1714028217.836,-24.902,-21.973,-33.691,-34.180,0.000
1714028217.840,-24.414,-21.484,-36.133,-34.668,0.000
1714028217.844,-25.879,-17.578,-42.969,-25.879,0.000
1714028217.847,-29.297,-20.020,-40.039,-19.531,0.000
1714028217.851,-28.320,-24.902,-29.297,-24.414,0.000
1714028217.855,-29.297,-30.762,-23.926,-31.250,0.000
1714028217.859,-28.320,-28.320,-27.832,-30.762,0.000
1714028217.863,-25.879,-30.273,-25.391,-34.180,0.000
1714028217.867,-20.020,-30.762,-26.855,-29.785,0.000
1714028217.871,-25.879,-30.273,-30.273,-30.273,0.000
1714028217.875,-32.227,-28.320,-27.832,-42.480,0.000
1714028217.879,-29.297,-24.902,-26.855,-36.133,0.000
1714028217.883,-38.574,-30.762,-30.273,-35.645,0.000
1714028217.886,-35.645,-37.109,-27.832,-34.180,0.000
1714028217.890,-31.250,-36.621,-20.508,-29.297,0.000
1714028217.894,-27.344,-29.785,-16.113,-28.320,0.000
1714028217.898,-24.414,-27.344,-11.230,-27.344,0.000
1714028217.902,-34.668,-28.809,-16.602,-32.227,0.000
1714028217.906,-27.344,-26.855,-21.484,-28.320,0.000
1714028217.910,-30.273,-29.785,-23.438,-32.227,0.000
1714028217.914,-39.062,-29.785,-32.227,-30.273,0.000
1714028217.918,-35.156,-25.879,-31.738,-20.508,0.000
1714028217.922,-45.898,-35.645,-26.855,-36.133,0.000
1714028217.926,-51.270,-39.062,-25.879,-38.574,0.000
1714028217.929,-23.926,-31.250,-27.344,-13.184,0.000
1714028217.933,-20.020,-25.391,-34.668,-11.230,0.000
1714028217.937,-43.457,-27.832,-36.133,-35.645,0.000
1714028217.941,-42.480,-27.344,-32.227,-42.480,0.000
1714028217.945,-32.715,-22.949,-27.344,-40.527,0.000
1714028217.949,-35.645,-25.391,-37.109,-47.852,0.000
1714028217.953,-32.715,-20.508,-40.527,-46.875,0.000
1714028217.957,-32.715,-17.578,-32.715,-45.898,0.000
1714028217.961,-41.016,-19.531,-37.598,-46.875,0.000
1714028217.965,-42.969,-21.973,-41.504,-43.945,0.000
1714028217.968,-39.551,-32.227,-41.016,-41.016,0.000
1714028217.972,-34.180,-30.762,-41.016,-39.062,0.000
1714028217.976,-30.762,-23.926,-34.668,-39.551,0.000
1714028217.980,-29.785,-24.902,-36.621,-36.133,0.000
1714028217.984,-25.391,-27.832,-37.109,-24.902,0.000
1714028217.988,-24.902,-23.438,-32.227,-26.367,0.000
1714028217.992,-15.137,-12.695,-31.250,-31.738,0.000
1714028217.996,-15.137,-16.602,-32.715,-27.832,0.000
1714028218.000,-25.879,-24.902,-36.621,-28.809,0.000
1714028218.004,-21.973,-21.973,-42.969,-33.691,0.000
1714028218.008,-20.020,-17.090,-41.016,-31.738,0.000
1714028218.011,-25.391,-14.648,-28.809,-29.785,0.000
1714028218.015,-33.203,-20.020,-29.785,-29.297,0.000
1714028218.019,-29.297,-21.973,-35.645,-25.879,0.000
1714028218.023,-19.531,-18.555,-31.250,-30.273,0.000
1714028218.027,-15.625,-20.020,-30.273,-42.480,0.000
1714028218.031,-14.160,-21.484,-34.668,-39.551,0.000
1714028218.035,-11.230,-23.926,-38.086,-39.551,0.000
1714028218.039,-3.906,-24.902,-38.574,-41.504,0.000
1714028218.043,-8.789,-25.391,-31.250,-36.621,0.000
1714028218.047,-16.113,-24.902,-24.902,-33.691,0.000
1714028218.051,-15.625,-24.414,-22.949,-30.762,0.000
1714028218.054,-21.484,-25.391,-23.926,-29.785,0.000
1714028218.058,-28.809,-27.344,-33.203,-34.180,0.000
1714028218.062,-35.156,-34.668,-39.551,-35.645,0.000
1714028218.066,-38.574,-33.203,-32.227,-21.973,0.000
1714028218.070,-30.273,-22.461,-22.949,-15.137,0.000
1714028218.074,-27.832,-21.973,-23.926,-22.949,0.000
1714028218.078,-30.273,-24.414,-22.949,-27.344,0.000
1714028218.082,-26.367,-27.832,-16.113,-19.531,0.000
1714028218.086,-26.367,-23.926,-19.043,-20.996,0.000
1714028218.090,-28.320,-22.461,-28.809,-31.250,0.000
1714028218.094,-30.273,-22.461,-31.250,-31.250,0.000
1714028218.097,-32.715,-20.508,-33.203,-31.250,0.000
1714028218.101,-32.227,-22.461,-31.738,-35.645,0.000
1714028218.105,-33.203,-19.043,-24.902,-33.691,0.000
1714028218.109,-39.551,-17.578,-25.391,-29.785,0.000
1714028218.113,-38.574,-25.879,-26.367,-34.668,0.000
1714028218.117,-33.691,-28.320,-25.391,-33.203,0.000
1714028218.121,-33.203,-28.320,-20.996,-30.762,0.000
1714028218.125,-34.668,-32.227,-21.973,-36.621,0.000
1714028218.129,-35.645,-37.598,-34.668,-39.062,0.000
1714028218.133,-35.156,-37.109,-34.668,-38.574,0.000
1714028218.136,-37.598,-34.180,-31.250,-41.504,0.000
1714028218.140,-35.156,-36.133,-33.203,-47.363,0.000
1714028218.144,-29.297,-36.621,-27.832,-43.457,0.000
1714028218.148,-31.250,-38.086,-26.367,-37.598,0.000
1714028218.152,-39.551,-38.086,-34.180,-34.180,0.000
1714028218.156,-39.062,-37.109,-35.645,-27.344,0.000
1714028218.160,-26.855,-30.762,-31.738,-21.973,0.000
1714028218.164,-11.719,-31.250,-31.250,-7.324,0.000
1714028218.168,-19.043,-36.133,-31.250,-15.137,0.000
1714028218.172,-41.504,-29.785,-29.297,-37.598,0.000
1714028218.176,-35.156,-29.785,-26.367,-35.156,0.000
1714028218.179,-18.066,-26.855,-30.273,-21.973,0.000
1714028218.183,-16.113,-22.949,-40.039,-21.973,0.000
1714028218.187,-10.254,-24.414,-37.598,-21.484,0.000
1714028218.191,-7.812,-20.020,-33.203,-21.973,0.000
1714028218.195,-6.836,-20.020,-34.180,-22.461,0.000
1714028218.199,5.371,-22.949,-32.715,-1.465,0.000
1714028218.203,5.371,-22.461,-25.879,4.883,0.000
1714028218.207,6.836,-29.297,-28.809,-7.812,0.000
1714028218.211,14.648,-29.785,-30.762,0.488,0.000
1714028218.215,16.602,-23.438,-28.320,4.395,0.000
1714028218.219,13.184,-23.926,-28.320,3.418,0.000
1714028218.222,14.648,-31.250,-24.902,-0.977,0.000
1714028218.226,13.672,-30.762,-22.949,-5.859,0.000
1714028218.230,8.301,-21.973,-21.973,-9.277,0.000
1714028218.234,0.977,-24.414,-16.602,-10.254,0.000
1714028218.238,-4.395,-27.832,-16.602,-14.160,0.000
1714028218.242,-10.742,-34.180,-23.438,-23.438,0.000
1714028218.246,-14.648,-42.480,-31.738,-19.531,0.000
1714028218.250,-20.996,-44.434,-31.250,-22.949,0.000
1714028218.254,-20.020,-34.668,-26.855,-27.344,0.000
1714028218.258,-12.695,-28.809,-26.855,-24.414,0.000
1714028218.261,-16.602,-32.227,-24.902,-22.461,0.000
1714028218.265,-18.555,-31.250,-23.926,-28.809,0.000
1714028218.269,-12.207,-28.809,-26.367,-35.156,0.000
1714028218.273,-8.301,-26.855,-34.180,-27.344,0.000
1714028218.277,-12.207,-25.391,-27.344,-23.926,0.000
1714028218.281,-17.578,-27.344,-24.902,-24.414,0.000
1714028218.285,-14.648,-24.414,-28.809,-18.555,0.000
1714028218.289,-13.672,-24.902,-34.668,-22.949,0.000
1714028218.293,-23.438,-33.691,-41.016,-32.715,0.000
1714028218.297,-28.320,-37.109,-27.344,-35.156,0.000
1714028218.300,-23.926,-31.738,-20.508,-26.855,0.000
1714028218.304,-23.438,-30.762,-16.602,-15.625,0.000
1714028218.308,-21.973,-29.297,-7.812,-16.602,0.000
1714028218.312,-24.902,-24.902,-9.277,-20.020,0.000
1714028218.316,-26.855,-26.855,-15.137,-12.207,0.000
1714028218.320,-32.227,-39.551,-17.090,-14.648,0.000
1714028218.324,-33.691,-48.340,-14.160,-20.020,0.000
1714028218.328,-30.762,-32.227,-7.324,-19.531,0.000
1714028218.332,-35.645,-23.926,-10.254,-23.438,0.000
1714028218.336,-33.203,-29.297,-11.719,-17.578,0.000
1714028218.340,-30.762,-24.902,-16.602,-22.461,0.000
1714028218.343,-30.273,-27.344,-19.043,-28.809,0.000
1714028218.347,-26.367,-32.227,-19.531,-18.555,0.000
1714028218.351,-24.902,-28.809,-18.066,-14.160,0.000
1714028218.355,-30.762,-31.250,-15.625,-24.414,0.000
1714028218.359,-29.785,-30.273,-19.043,-27.344,0.000
1714028218.363,-26.367,-27.832,-18.555,-22.461,0.000
1714028218.367,-27.832,-27.344,-20.508,-19.531,0.000
1714028218.371,-23.438,-24.902,-18.066,-21.973,0.000
1714028218.375,-24.414,-27.832,-18.066,-26.855,0.000
1714028218.379,-31.250,-32.715,-19.531,-24.414,0.000
1714028218.383,-17.578,-28.809,-19.531,-11.230,0.000
1714028218.386,5.859,-19.531,-19.043,9.766,0.000
1714028218.390,-4.395,-20.996,-22.461,-5.859,0.000
1714028218.394,-33.203,-29.785,-32.715,-41.016,0.000
1714028218.398,-30.273,-27.344,-32.715,-33.691,0.000
1714028218.402,-18.066,-23.926,-36.621,-20.996,0.000
1714028218.406,-20.020,-30.273,-43.457,-29.785,0.000
1714028218.410,-13.184,-27.832,-46.875,-23.926,0.000
1714028218.414,-8.789,-23.438,-44.922,-13.672,0.000
1714028218.418,-10.742,-25.879,-39.062,-7.324,0.000
1714028218.422,-4.395,-26.855,-43.457,-3.906,0.000
1714028218.426,-3.906,-28.320,-47.852,-14.648,0.000
1714028218.429,-8.301,-27.344,-45.410,-14.160,0.000
1714028218.433,-1.953,-21.484,-34.180,-1.953,0.000
1714028218.437,-8.789,-25.391,-34.668,-3.906,0.000
1714028218.441,-14.160,-26.855,-44.922,-9.277,0.000
1714028218.445,-9.277,-20.020,-48.828,-19.043,0.000
1714028218.449,-9.277,-15.137,-49.316,-18.066,0.000
1714028218.453,-7.324,-19.043,-46.875,-15.625,0.000
1714028218.457,-9.277,-29.785,-49.316,-21.973,0.000
1714028218.461,-18.555,-25.391,-48.340,-27.344,0.000
1714028218.465,-19.043,-20.508,-39.551,-23.926,0.000
1714028218.469,-18.066,-26.855,-37.109,-24.902,0.000
1714028218.472,-21.973,-27.832,-33.691,-31.250,0.000
1714028218.476,-17.090,-21.484,-29.785,-29.297,0.000
1714028218.480,-14.648,-22.949,-35.645,-28.809,0.000
1714028218.484,-17.090,-25.391,-39.551,-26.367,0.000
1714028218.488,-16.113,-24.414,-39.062,-19.043,0.000
1714028218.492,-15.137,-25.391,-38.574,-19.043,0.000
1714028218.496,-18.555,-27.344,-32.715,-21.484,0.000
1714028218.500,-17.578,-27.832,-39.062,-12.207,0.000
1714028218.504,-13.672,-26.855,-43.457,-10.254,0.000
1714028218.508,-14.160,-24.414,-35.156,-20.020,0.000
1714028218.511,-14.648,-26.855,-29.297,-22.949,0.000
1714028218.515,-15.625,-25.879,-22.949,-20.996,0.000
1714028218.519,-15.625,-24.902,-37.109,-24.414,0.000
1714028218.523,-16.113,-37.109,-43.945,-27.344,0.000
1714028218.527,-19.531,-34.668,-37.598,-26.855,0.000
1714028218.531,-18.555,-20.020,-32.715,-27.832,0.000
1714028218.535,-19.043,-16.602,-28.320,-24.414,0.000
1714028218.539,-22.949,-20.996,-32.715,-24.902,0.000
1714028218.543,-27.344,-28.320,-41.504,-38.574,0.000
1714028218.547,-27.832,-29.297,-39.062,-35.645,0.000
1714028218.551,-21.973,-22.461,-36.621,-27.344,0.000
1714028218.554,-20.020,-19.531,-33.691,-26.855,0.000
1714028218.558,-15.625,-23.926,-35.645,-25.879,0.000
1714028218.562,-17.578,-22.949,-34.180,-31.738,0.000
1714028218.566,-29.297,-21.973,-31.250,-37.598,0.000
1714028218.570,-29.785,-20.996,-40.039,-29.297,0.000
1714028218.574,-27.832,-28.809,-35.156,-23.926,0.000
1714028218.578,-20.020,-33.691,-24.414,-16.113,0.000
1714028218.582,-3.418,-22.461,-25.879,-9.277,0.000
1714028218.586,-9.277,-19.531,-27.832,-24.902,0.000
1714028218.590,-24.902,-21.973,-31.738,-40.039,0.000
1714028218.594,-25.879,-27.344,-31.250,-33.203,0.000
1714028218.597,-32.227,-25.391,-32.715,-34.180,0.000
1714028218.601,-38.086,-23.438,-34.668,-41.504,0.000
1714028218.605,-30.273,-29.297,-27.832,-30.273,0.000
1714028218.609,-31.738,-32.227,-29.785,-27.832,0.000
1714028218.613,-33.203,-35.645,-37.109,-28.320,0.000
1714028218.617,-23.438,-29.785,-32.227,-20.020,0.000
1714028218.621,-20.508,-25.879,-28.320,-18.555,0.000
1714028218.625,-26.855,-26.367,-26.367,-32.227,0.000
1714028218.629,-34.668,-28.809,-32.227,-36.621,0.000
1714028218.633,-36.621,-26.855,-33.691,-25.879,0.000
1714028218.636,-33.691,-31.250,-29.297,-27.344,0.000
1714028218.640,-26.367,-34.180,-26.855,-31.250,0.000
1714028218.644,-24.414,-31.738,-18.066,-25.879,0.000
1714028218.648,-21.973,-29.297,-11.719,-19.043,0.000
1714028218.652,-15.137,-26.367,-19.043,-15.137,0.000
1714028218.656,-21.973,-28.809,-27.832,-26.855,0.000
1714028218.660,-24.902,-27.344,-38.086,-29.785,0.000
1714028218.664,-21.973,-24.414,-40.527,-19.531,0.000
1714028218.668,-27.344,-30.273,-30.762,-19.043,0.000
1714028218.672,-24.414,-30.273,-21.484,-27.344,0.000
1714028218.675,-18.555,-24.414,-21.973,-28.320,0.000
1714028218.679,-19.043,-26.855,-20.508,-27.344,0.000
1714028218.683,-23.926,-29.785,-23.926,-31.738,0.000
1714028218.687,-21.484,-31.738,-34.180,-29.785,0.000
1714028218.691,-23.926,-34.668,-31.738,-34.180,0.000
1714028218.695,-27.344,-33.203,-32.227,-39.062,0.000
1714028218.699,-23.438,-28.320,-34.180,-29.785,0.000
1714028218.703,-24.902,-31.250,-30.273,-31.250,0.000
1714028218.707,-29.785,-29.297,-32.715,-31.738,0.000
1714028218.711,-31.250,-29.297,-34.180,-30.273,0.000
1714028218.715,-29.297,-35.156,-26.367,-30.762,0.000
1714028218.718,-26.855,-28.320,-24.902,-21.973,0.000
1714028218.722,-21.973,-31.250,-35.645,-27.344,0.000
1714028218.726,-21.484,-31.738,-41.016,-34.668,0.000
1714028218.730,-21.973,-23.926,-29.785,-34.180,0.000
1714028218.734,-23.438,-30.273,-20.996,-25.391,0.000
1714028218.738,-19.531,-32.715,-27.832,-20.996,0.000
1714028218.742,-18.066,-28.320,-24.414,-25.879,0.000
1714028218.746,-23.438,-23.926,-24.902,-26.367,0.000
1714028218.750,-21.484,-26.367,-29.297,-23.926,0.000
1714028218.754,-16.113,-30.762,-21.973,-17.090,0.000
1714028218.758,-15.137,-23.438,-22.461,-17.578,0.000
1714028218.761,-20.996,-25.391,-23.926,-33.203,0.000
1714028218.765,-21.973,-28.809,-21.973,-32.227,0.000
1714028218.769,-16.602,-21.973,-20.996,-16.602,0.000
1714028218.773,-16.113,-19.043,-18.555,-12.695,0.000
1714028218.777,-19.043,-20.508,-25.391,-21.973,0.000
1714028218.781,-20.020,-33.203,-29.297,-23.438,0.000
1714028218.785,-25.879,-41.992,-33.203,-22.461,0.000
1714028218.789,-24.414,-26.855,-31.250,-22.949,0.000
1714028218.793,-21.484,-26.855,-21.484,-24.902,0.000
1714028218.797,-22.949,-35.156,-26.855,-27.832,0.000
1714028218.801,-20.996,-22.461,-34.180,-26.855,0.000
1714028218.804,-24.414,-16.113,-29.297,-30.273,0.000
1714028218.808,-30.273,-21.973,-24.902,-34.668,0.000
1714028218.812,-27.832,-23.438,-27.344,-28.320,0.000
1714028218.816,-28.809,-22.461,-26.367,-26.367,0.000
1714028218.820,-31.250,-22.949,-23.926,-29.297,0.000
1714028218.824,-24.414,-29.785,-32.227,-34.668,0.000
1714028218.828,-21.973,-28.809,-31.250,-38.086,0.000
1714028218.832,-20.508,-15.625,-26.855,-33.203,0.000
1714028218.836,-20.996,-16.113,-29.297,-34.180,0.000
1714028218.840,-24.902,-23.438,-25.391,-33.203,0.000
1714028218.843,-25.391,-23.926,-33.203,-32.227,0.000
1714028218.847,-28.320,-26.855,-41.504,-33.203,0.000
1714028218.851,-25.391,-33.203,-34.180,-25.391,0.000
1714028218.855,-22.949,-29.297,-30.762,-26.855,0.000
1714028218.859,-28.320,-25.879,-25.879,-27.832,0.000
1714028218.863,-28.809,-30.273,-24.414,-22.949,0.000
1714028218.867,-23.926,-26.855,-28.320,-23.438,0.000
1714028218.871,-25.879,-24.414,-30.273,-28.320,0.000
1714028218.875,-27.344,-26.855,-33.691,-32.227,0.000
1714028218.879,-29.785,-22.949,-38.574,-35.156,0.000
1714028218.883,-33.203,-29.785,-33.691,-32.227,0.000
1714028218.886,-24.902,-31.738,-33.203,-18.555,0.000
1714028218.890,-27.832,-18.555,-27.344,-23.926,0.000
1714028218.894,-33.691,-17.090,-17.090,-29.785,0.000
1714028218.898,-32.227,-23.438,-23.926,-25.391,0.000
1714028218.902,-31.250,-27.832,-29.297,-26.855,0.000
1714028218.906,-31.738,-28.809,-28.809,-28.320,0.000
1714028218.910,-33.691,-31.738,-23.438,-34.668,0.000
1714028218.914,-34.180,-34.668,-26.855,-37.109,0.000
1714028218.918,-31.738,-24.414,-30.273,-35.645,0.000
1714028218.922,-29.297,-26.855,-25.879,-34.668,0.000
1714028218.926,-31.250,-30.273,-28.809,-37.109,0.000
1714028218.929,-35.156,-29.297,-33.691,-41.504,0.000
1714028218.933,-33.203,-34.668,-31.250,-39.062,0.000
1714028218.937,-28.320,-34.180,-28.320,-29.785,0.000
1714028218.941,-25.391,-32.227,-32.715,-37.598,0.000
1714028218.945,-21.973,-33.691,-32.715,-47.363,0.000
1714028218.949,-14.648,-37.109,-29.297,-34.180,0.000
1714028218.953,-9.766,-32.715,-31.250,-29.785,0.000
1714028218.957,-10.254,-30.273,-30.273,-35.645,0.000
1714028218.961,-7.812,-25.879,-28.809,-36.621,0.000
1714028218.965,-13.184,-24.902,-30.762,-33.691,0.000
1714028218.968,-23.926,-19.043,-28.320,-29.297,0.000
1714028218.972,-22.949,-16.602,-25.879,-35.645,0.000
1714028218.976,-23.926,-24.902,-30.273,-38.086,0.000
1714028218.980,-24.414,-23.438,-20.508,-30.762,0.000
1714028218.984,-22.949,-25.391,-17.090,-25.879,0.000
1714028218.988,-30.762,-33.691,-24.414,-29.785,0.000
1714028218.992,-36.133,-44.434,-23.926,-33.691,0.000
1714028218.996,-35.645,-38.574,-21.973,-32.715,0.000
1714028219.000,-37.598,-28.320,-24.902,-31.250,0.000
1714028219.004,-31.738,-27.344,-29.785,-32.227,0.000
1714028219.007,-27.832,-23.438,-29.297,-38.086,0.000
1714028219.011,-30.273,-22.949,-29.785,-39.062,0.000
1714028219.015,-29.297,-30.762,-29.785,-36.133,0.000
1714028219.019,-29.297,-34.180,-25.879,-29.785,0.000
1714028219.023,-30.762,-27.832,-27.344,-34.668,0.000
1714028219.027,-30.762,-27.344,-30.273,-40.527,0.000
1714028219.031,-39.062,-30.273,-31.250,-41.992,0.000
1714028219.035,-37.598,-31.738,-34.668,-35.645,0.000
1714028219.039,-25.879,-36.621,-40.039,-21.484,0.000
1714028219.043,-24.902,-40.039,-29.297,-28.320,0.000
1714028219.047,-30.762,-30.273,-22.949,-37.598,0.000
1714028219.050,-32.227,-21.973,-25.879,-36.133,0.000
1714028219.054,-38.086,-29.297,-27.832,-38.086,0.000
1714028219.058,-39.551,-30.273,-33.691,-34.180,0.000
1714028219.062,-31.738,-22.461,-33.691,-34.668,0.000
1714028219.066,-34.668,-28.809,-33.691,-36.621,0.000
1714028219.070,-38.086,-32.227,-34.668,-35.645,0.000
1714028219.074,-35.645,-28.809,-35.156,-45.898,0.000
1714028219.078,-37.109,-32.227,-37.109,-48.340,0.000
1714028219.082,-40.527,-35.156,-41.016,-41.992,0.000
1714028219.086,-34.668,-32.227,-38.574,-30.762,0.000
1714028219.090,-25.391,-30.273,-28.809,-24.414,0.000
1714028219.093,-24.414,-34.180,-29.785,-26.855,0.000
1714028219.097,-28.320,-33.203,-34.180,-26.367,0.000
1714028219.101,-29.785,-35.156,-33.203,-20.508,0.000
1714028219.105,-28.320,-30.273,-31.250,-24.414,0.000
1714028219.109,-25.879,-28.320,-26.855,-30.273,0.000
1714028219.113,-25.391,-32.715,-22.949,-30.762,0.000
1714028219.117,-25.879,-25.879,-23.438,-26.367,0.000
1714028219.121,-24.414,-24.414,-26.367,-24.414,0.000
1714028219.125,-28.320,-26.855,-30.273,-33.691,0.000
1714028219.129,-29.297,-28.320,-34.180,-34.668,0.000
1714028219.132,-23.438,-33.203,-24.902,-23.438,0.000
1714028219.136,-25.391,-35.645,-20.020,-24.414,0.000
1714028219.140,-30.762,-33.691,-32.715,-32.715,0.000
1714028219.144,-30.273,-29.297,-39.551,-31.738,0.000
1714028219.148,-28.320,-27.832,-32.227,-26.855,0.000
1714028219.152,-23.926,-25.879,-36.133,-22.461,0.000
1714028219.156,-20.508,-19.531,-40.039,-22.461,0.000
1714028219.160,-24.414,-21.973,-32.227,-31.738,0.000
1714028219.164,-33.203,-28.809,-27.344,-34.180,0.000
1714028219.168,-26.855,-28.809,-28.809,-25.391,0.000
1714028219.172,-22.949,-27.344,-38.086,-24.902,0.000
1714028219.175,-31.250,-31.250,-37.598,-34.180,0.000
1714028219.179,-22.949,-32.227,-16.602,-29.297,0.000
1714028219.183,-14.648,-25.879,-17.090,-24.414,0.000
1714028219.187,-22.461,-24.414,-24.414,-28.809,0.000
1714028219.191,-27.832,-26.855,-22.461,-30.273,0.000
1714028219.195,-33.203,-29.297,-20.996,-38.574,0.000
1714028219.199,-32.715,-21.484,-16.113,-27.832,0.000
1714028219.203,-25.391,-18.066,-13.672,-19.531,0.000
1714028219.207,-30.762,-20.996,-14.160,-38.086,0.000
1714028219.211,-32.715,-20.996,-24.414,-44.434,0.000
1714028219.215,-26.855,-28.809,-28.809,-37.598,0.000
1714028219.218,-44.434,-28.320,-27.832,-50.293,0.000
1714028219.222,-70.801,-27.832,-25.391,-75.195,0.000
1714028219.226,-84.961,-33.691,-13.184,-91.797,0.000
1714028219.230,-94.727,-40.039,-19.531,-101.562,0.000
1714028219.234,-99.121,-46.387,-25.391,-96.680,0.000
1714028219.238,-116.699,-46.387,-12.207,-108.398,0.000
1714028219.242,-129.395,-38.574,-10.742,-128.418,0.000
1714028219.246,-130.859,-38.086,-2.441,-131.348,0.000
1714028219.250,-139.648,-44.434,9.766,-137.207,0.000
1714028219.254,-139.648,-45.410,14.160,-135.742,0.000
1714028219.258,-148.926,-48.828,15.137,-142.578,0.000
1714028219.261,-166.016,-52.734,22.949,-149.414,0.000
1714028219.265,-152.832,-48.828,30.273,-131.348,0.000
1714028219.269,-150.879,-40.527,26.855,-129.883,0.000
1714028219.273,-150.879,-40.039,20.020,-133.301,0.000
1714028219.277,-131.836,-47.852,23.438,-121.094,0.000
1714028219.281,-132.812,-54.199,23.438,-118.164,0.000
1714028219.285,-122.559,-48.828,16.602,-109.863,0.000
1714028219.289,-103.027,-37.109,17.090,-101.074,0.000
1714028219.293,-111.328,-36.133,13.672,-110.352,0.000
1714028219.297,-110.352,-41.992,5.859,-101.562,0.000
1714028219.300,-89.844,-40.527,1.465,-83.008,0.000
1714028219.304,-88.867,-37.109,-5.859,-81.543,0.000
1714028219.308,-84.961,-40.039,-11.719,-82.520,0.000
1714028219.312,-69.824,-37.109,-9.766,-74.219,0.000
1714028219.316,-62.988,-32.715,-12.695,-64.941,0.000
1714028219.320,-55.176,-30.273,-22.461,-61.523,0.000
1714028219.324,-48.828,-32.227,-25.879,-51.758,0.000
1714028219.328,-48.340,-28.320,-31.738,-48.340,0.000
1714028219.332,-45.898,-20.996,-39.062,-55.664,0.000
1714028219.336,-45.898,-17.090,-42.480,-51.758,0.000
1714028219.340,-44.922,-15.625,-40.527,-46.875,0.000
1714028219.343,-41.992,-17.090,-43.457,-46.387,0.000
1714028219.347,-45.898,-18.066,-48.340,-51.270,0.000
1714028219.351,-43.457,-15.625,-46.387,-48.340,0.000
1714028219.355,-34.180,-16.602,-40.039,-35.645,0.000
1714028219.359,-28.320,-17.090,-39.551,-32.227,0.000
1714028219.363,-36.133,-14.648,-44.922,-41.504,0.000
1714028219.367,-39.062,-22.949,-48.340,-41.016,0.000
1714028219.371,-46.875,-25.391,-49.316,-41.504,0.000
1714028219.375,-64.941,-21.484,-46.387,-62.012,0.000
1714028219.379,-60.059,-17.578,-44.922,-64.453,0.000
1714028219.382,-66.406,-15.137,-31.738,-66.406,0.000
1714028219.386,-82.520,-15.625,-22.461,-82.520,0.000
1714028219.390,-77.148,-21.973,-16.602,-89.355,0.000
1714028219.394,-81.055,-28.809,-14.160,-91.309,0.000
1714028219.398,-79.590,-24.902,-15.625,-85.449,0.000
1714028219.402,-60.547,-20.996,-4.883,-66.895,0.000
1714028219.406,-61.035,-27.832,-2.441,-64.941,0.000
1714028219.410,-69.824,-31.738,-18.066,-71.289,0.000
1714028219.414,-67.871,-33.203,-27.832,-62.012,0.000
1714028219.418,-54.688,-39.062,-22.461,-48.340,0.000
1714028219.422,-46.387,-38.086,-17.090,-44.922,0.000
1714028219.425,-44.434,-27.832,-21.973,-45.410,0.000
1714028219.429,-29.297,-20.508,-27.832,-28.320,0.000
1714028219.433,-25.391,-26.855,-32.715,-17.090,0.000
1714028219.437,-26.855,-31.738,-39.062,-21.484,0.000
1714028219.441,-5.859,-31.250,-49.316,-11.719,0.000
1714028219.445,3.906,-34.180,-50.781,-0.488,0.000
1714028219.449,0.977,-28.320,-38.086,3.906,0.000
1714028219.453,3.418,-23.926,-35.156,9.766,0.000
1714028219.457,7.324,-29.297,-41.504,14.160,0.000
1714028219.461,12.207,-33.203,-53.223,12.695,0.000
1714028219.464,14.160,-24.414,-51.270,11.230,0.000
1714028219.468,14.160,-20.020,-43.457,17.090,0.000
1714028219.472,15.625,-23.438,-53.223,23.438,0.000
1714028219.476,15.137,-30.273,-58.105,16.113,0.000
1714028219.480,16.602,-33.203,-50.781,14.160,0.000
1714028219.484,16.602,-31.250,-48.828,19.043,0.000
1714028219.488,17.090,-31.738,-55.176,19.531,0.000
1714028219.492,18.555,-26.855,-55.664,15.625,0.000
1714028219.496,14.648,-24.902,-55.176,14.160,0.000
1714028219.500,14.160,-28.809,-65.918,22.461,0.000
1714028219.504,17.090,-32.715,-67.871,24.414,0.000
1714028219.507,17.578,-32.715,-54.199,24.414,0.000
1714028219.511,18.066,-32.227,-48.828,22.461,0.000
1714028219.515,13.184,-32.227,-43.457,23.438,0.000
1714028219.519,7.324,-36.133,-43.457,24.902,0.000
1714028219.523,5.371,-38.574,-54.199,20.020,0.000
1714028219.527,7.812,-34.180,-55.664,18.555,0.000
1714028219.531,16.113,-26.367,-51.758,20.996,0.000
1714028219.535,19.043,-25.879,-44.922,19.531,0.000
1714028219.539,15.137,-26.855,-41.016,13.672,0.000
1714028219.543,8.789,-33.203,-48.340,5.859,0.000
1714028219.547,4.883,-35.156,-49.805,7.324,0.000
1714028219.550,3.418,-31.250,-46.875,13.672,0.000
1714028219.554,0.488,-27.832,-46.875,9.766,0.000
1714028219.558,5.859,-20.508,-45.410,11.719,0.000
1714028219.562,16.602,-20.020,-43.457,20.020,0.000
1714028219.566,10.254,-26.855,-41.992,20.996,0.000
1714028219.570,2.930,-25.879,-38.086,16.113,0.000
1714028219.574,0.977,-23.926,-40.527,10.254,0.000
1714028219.578,-0.977,-25.879,-41.504,7.324,0.000
1714028219.582,-1.465,-30.273,-38.086,9.277,0.000
1714028219.586,-3.906,-38.086,-47.363,5.371,0.000
1714028219.590,-1.465,-31.250,-48.340,2.930,0.000
1714028219.593,-3.906,-26.367,-49.805,6.836,0.000
1714028219.597,-8.789,-30.762,-54.688,14.160,0.000
1714028219.601,-4.883,-32.715,-51.270,11.719,0.000
1714028219.605,-6.348,-32.715,-48.828,-2.930,0.000
1714028219.609,-8.789,-32.227,-43.457,4.395,0.000
1714028219.613,-8.789,-36.621,-42.969,5.859,0.000
1714028219.617,-7.812,-33.203,-46.387,-3.418,0.000
1714028219.621,-6.348,-24.414,-44.434,-1.953,0.000
1714028219.625,-7.812,-19.531,-34.180,-6.836,0.000
1714028219.629,-12.207,-20.508,-36.133,-9.277,0.000
1714028219.632,-12.695,-24.902,-42.969,-2.930,0.000
1714028219.636,-11.719,-24.902,-40.039,-3.906,0.000
1714028219.640,-17.578,-29.785,-35.156,-9.766,0.000
1714028219.644,-19.043,-35.645,-32.715,-7.324,0.000
1714028219.648,-20.996,-32.715,-39.062,-6.348,0.000
1714028219.652,-20.996,-29.785,-41.992,-6.836,0.000
1714028219.656,-9.277,-26.855,-38.574,0.000,0.000
1714028219.660,-9.277,-24.414,-39.551,2.441,0.000
1714028219.664,-14.648,-25.391,-47.852,-7.812,0.000
1714028219.668,-12.695,-24.902,-53.223,-15.625,0.000
1714028219.672,-10.254,-22.461,-46.387,-13.184,0.000
1714028219.675,-8.789,-20.996,-35.645,-8.301,0.000
1714028219.679,-16.602,-24.414,-38.086,-20.996,0.000
1714028219.683,-27.832,-26.367,-40.039,-31.738,0.000
1714028219.687,-21.484,-21.973,-38.574,-18.555,0.000
1714028219.691,-18.066,-19.531,-37.598,-19.531,0.000
1714028219.695,-22.949,-23.926,-41.992,-30.273,0.000
1714028219.699,-23.438,-31.738,-43.945,-24.414,0.000
1714028219.703,-25.879,-30.762,-39.551,-23.926,0.000
1714028219.707,-28.320,-29.785,-39.551,-34.668,0.000
1714028219.711,-28.809,-31.738,-35.156,-29.785,0.000
1714028219.714,-23.926,-29.297,-30.762,-20.020,0.000
1714028219.718,-26.367,-36.133,-35.156,-19.531,0.000
1714028219.722,-28.809,-30.273,-31.738,-16.602,0.000
1714028219.726,-28.320,-22.949,-33.691,-18.555,0.000
1714028219.730,-27.344,-24.414,-41.504,-23.438,0.000
1714028219.734,-28.809,-29.785,-37.109,-28.809,0.000
1714028219.738,-26.855,-34.180,-34.668,-25.391,0.000
1714028219.742,-23.438,-29.297,-39.551,-16.602,0.000
1714028219.746,-23.926,-28.809,-38.086,-18.066,0.000
1714028219.750,-25.879,-28.320,-29.785,-23.438,0.000
1714028219.754,-30.273,-28.320,-30.273,-25.391,0.000
1714028219.757,-24.414,-28.809,-36.133,-20.020,0.000
1714028219.761,-15.625,-26.367,-35.156,-12.207,0.000
1714028219.765,-21.484,-30.273,-33.691,-11.719,0.000
1714028219.769,-26.367,-35.156,-28.809,-18.555,0.000
1714028219.773,-29.297,-31.250,-28.320,-27.832,0.000
1714028219.777,-27.344,-26.367,-21.484,-22.949,0.000
1714028219.781,-25.879,-30.273,-11.719,-17.578,0.000
1714028219.785,-26.367,-33.691,-22.461,-13.184,0.000
1714028219.789,-14.648,-27.832,-30.762,-9.277,0.000
1714028219.793,-16.602,-26.367,-26.855,-19.531,0.000
1714028219.797,-20.508,-26.855,-21.973,-23.926,0.000
1714028219.800,-19.531,-28.809,-24.902,-15.137,0.000
1714028219.804,-15.625,-30.273,-24.902,-9.277,0.000
1714028219.808,-6.348,-32.715,-21.484,-14.160,0.000
1714028219.812,-12.695,-31.250,-23.438,-22.461,0.000
1714028219.816,-10.254,-24.902,-20.996,-19.531,0.000
1714028219.820,-2.930,-24.414,-24.902,-15.137,0.000
1714028219.824,2.441,-23.438,-30.762,-20.996,0.000
1714028219.828,-2.441,-22.949,-32.227,-20.508,0.000
1714028219.832,-11.230,-30.762,-37.109,-13.184,0.000
1714028219.836,-13.672,-30.762,-30.273,-8.789,0.000
1714028219.839,-19.531,-24.902,-19.531,-12.207,0.000
1714028219.843,-23.438,-30.273,-19.043,-15.625,0.000
1714028219.847,-31.250,-33.203,-28.809,-21.484,0.000
1714028219.851,-26.855,-23.926,-34.668,-19.043,0.000
1714028219.855,-16.602,-24.902,-23.926,-15.625,0.000
1714028219.859,-22.949,-29.785,-19.531,-22.461,0.000
1714028219.863,-25.879,-27.344,-24.902,-27.832,0.000
1714028219.867,-20.996,-24.414,-26.855,-21.484,0.000
1714028219.871,-17.090,-21.484,-24.902,-12.207,0.000
1714028219.875,-19.531,-23.926,-27.832,-12.695,0.000
1714028219.879,-19.531,-25.391,-30.273,-16.113,0.000
1714028219.882,-19.043,-20.996,-22.949,-14.160,0.000
1714028219.886,-17.090,-19.531,-20.996,-17.090,0.000
1714028219.890,-16.113,-20.020,-27.344,-22.461,0.000
1714028219.894,-19.531,-16.113,-33.203,-16.113,0.000
1714028219.898,-17.578,-20.020,-32.715,-10.742,0.000
1714028219.902,-20.508,-24.902,-26.855,-9.766,0.000
1714028219.906,-23.438,-22.461,-29.297,-6.348,0.000
1714028219.910,-20.020,-29.297,-32.227,-7.324,0.000
1714028219.914,-21.973,-38.086,-32.715,-15.137,0.000
1714028219.918,-22.461,-31.738,-32.227,-18.066,0.000
1714028219.922,-15.137,-23.438,-29.785,-9.766,0.000
1714028219.925,-18.066,-23.926,-41.504,-14.648,0.000
1714028219.929,-20.508,-27.344,-47.852,-25.879,0.000
1714028219.933,-16.113,-28.320,-42.480,-19.531,0.000
1714028219.937,-15.625,-30.273,-48.340,-13.672,0.000
1714028219.941,-15.625,-31.250,-46.387,-19.043,0.000
1714028219.945,-18.555,-31.250,-30.762,-28.320,0.000
1714028219.949,-19.531,-27.344,-25.391,-22.461,0.000
1714028219.953,-20.996,-20.508,-33.691,-20.996,0.000
1714028219.957,-22.461,-20.996,-40.527,-25.391,0.000
1714028219.961,-20.508,-20.508,-42.480,-21.484,0.000
1714028219.964,-21.484,-16.602,-40.039,-18.066,0.000
1714028219.968,-27.832,-17.090,-35.156,-21.484,0.000
1714028219.972,-15.137,-18.555,-35.645,-10.254,0.000
1714028219.976,-10.742,-15.137,-23.438,-5.371,0.000
1714028219.980,-40.039,-18.066,-13.672,-28.320,0.000
1714028219.984,-43.457,-25.391,-22.949,-20.996,0.000
1714028219.988,-31.738,-19.531,-25.391,-7.324,0.000
1714028219.992,-38.574,-17.578,-23.438,-29.785,0.000
1714028219.996,-48.340,-23.926,-23.926,-32.227,0.000
1714028220.000,-43.945,-31.250,-19.043,-21.484,0.000
1714028220.004,-40.039,-37.109,-21.973,-24.414,0.000
1714028220.007,-38.086,-32.227,-23.438,-15.625,0.000
1714028220.011,-41.016,-28.809,-17.578,-14.160,0.000
1714028220.015,-41.016,-26.855,-20.020,-21.484,0.000
1714028220.019,-33.691,-26.855,-23.438,-19.531,0.000
1714028220.023,-29.297,-27.344,-20.508,-27.344,0.000
1714028220.027,-27.344,-26.367,-20.996,-27.344,0.000
1714028220.031,-29.297,-28.809,-24.902,-26.367,0.000
1714028220.035,-30.762,-31.250,-18.066,-30.762,0.000
1714028220.039,-33.691,-29.785,-16.113,-26.367,0.000
1714028220.043,-36.133,-30.273,-24.902,-34.668,0.000
1714028220.047,-35.645,-29.785,-28.320,-33.691,0.000
1714028220.050,-34.668,-25.879,-26.367,-29.785,0.000
1714028220.054,-36.621,-29.785,-25.391,-34.668,0.000
1714028220.058,-32.715,-37.109,-24.902,-35.645,0.000
1714028220.062,-28.320,-36.133,-20.020,-33.691,0.000
1714028220.066,-25.391,-37.109,-20.020,-24.414,0.000
1714028220.070,-24.414,-37.109,-33.203,-20.508,0.000
1714028220.074,-24.414,-32.227,-41.992,-17.090,0.000
1714028220.078,-21.973,-33.203,-29.785,-15.625,0.000
1714028220.082,-18.066,-29.785,-24.414,-15.625,0.000
1714028220.086,-14.648,-22.461,-30.762,-9.766,0.000
1714028220.089,-17.578,-24.902,-33.691,-12.695,0.000
1714028220.093,-15.137,-35.156,-34.180,-19.531,0.000
1714028220.097,-13.184,-32.715,-29.785,-14.648,0.000
1714028220.101,-19.043,-29.785,-24.902,-8.301,0.000
1714028220.105,-28.809,-32.227,-34.668,-23.438,0.000
1714028220.109,-29.297,-23.926,-34.180,-26.855,0.000
1714028220.113,-23.926,-21.484,-30.273,-21.973,0.000
1714028220.117,-24.414,-21.973,-32.715,-21.484,0.000
1714028220.121,-28.809,-24.414,-35.156,-18.066,0.000
1714028220.125,-32.227,-32.227,-36.133,-24.414,0.000
1714028220.129,-29.297,-40.527,-31.250,-27.832,0.000
1714028220.132,-31.250,-36.133,-31.250,-25.879,0.000
1714028220.136,-37.109,-28.809,-32.227,-27.344,0.000
1714028220.140,-34.180,-29.297,-32.227,-29.785,0.000
1714028220.144,-33.691,-29.785,-34.180,-27.832,0.000
1714028220.148,-37.109,-29.297,-35.645,-18.066,0.000
1714028220.152,-31.738,-25.879,-31.738,-14.160,0.000
1714028220.156,-27.832,-25.391,-28.320,-18.555,0.000
1714028220.160,-27.832,-30.273,-28.809,-21.484,0.000
1714028220.164,-31.250,-31.738,-33.203,-19.531,0.000
1714028220.168,-34.668,-32.715,-43.457,-22.949,0.000
1714028220.171,-30.762,-32.715,-44.434,-24.414,0.000
1714028220.175,-28.809,-28.320,-33.203,-21.484,0.000
1714028220.179,-31.250,-21.973,-34.180,-21.484,0.000
1714028220.183,-31.738,-20.996,-37.109,-23.438,0.000
1714028220.187,-22.949,-26.855,-37.598,-22.949,0.000
1714028220.191,-20.996,-31.738,-38.086,-18.555,0.000
1714028220.195,-29.297,-32.715,-29.297,-17.578,0.000
1714028220.199,-30.762,-29.785,-35.645,-15.137,0.000
1714028220.203,-27.832,-26.855,-45.898,-18.066,0.000
1714028220.207,-27.832,-30.273,-37.598,-21.973,0.000
1714028220.211,-27.344,-32.715,-28.320,-16.113,0.000
1714028220.214,-16.602,-22.949,-32.715,-14.160,0.000
1714028220.218,-16.113,-17.090,-31.250,-15.625,0.000
1714028220.222,-21.973,-30.273,-25.391,-19.043,0.000
1714028220.226,-29.297,-38.574,-32.227,-23.926,0.000
1714028220.230,-39.062,-31.738,-34.668,-23.926,0.000
1714028220.234,-37.598,-31.738,-32.715,-20.020,0.000
1714028220.238,-38.086,-32.227,-33.691,-26.367,0.000
1714028220.242,-39.551,-30.273,-34.668,-34.668,0.000
1714028220.246,-36.133,-28.809,-32.715,-32.715,0.000
1714028220.250,-36.621,-21.973,-35.156,-24.414,0.000
1714028220.254,-34.180,-25.879,-31.250,-21.973,0.000
1714028220.257,-31.250,-29.785,-26.367,-25.391,0.000
1714028220.261,-35.645,-30.273,-27.344,-26.855,0.000
1714028220.265,-33.203,-34.668,-24.414,-27.832,0.000
1714028220.269,-24.902,-30.273,-23.926,-18.066,0.000
1714028220.273,-20.508,-25.391,-27.832,-15.137,0.000
1714028220.277,-20.996,-22.949,-25.391,-21.973,0.000
1714028220.281,-31.738,-20.996,-23.926,-31.250,0.000
1714028220.285,-31.250,-27.832,-23.438,-27.344,0.000
1714028220.289,-22.949,-28.320,-27.344,-23.438,0.000
1714028220.293,-29.297,-22.461,-35.156,-31.250,0.000
1714028220.296,-32.715,-25.391,-29.297,-29.297,0.000
1714028220.300,-25.879,-26.367,-22.949,-24.902,0.000
1714028220.304,-20.508,-20.996,-27.344,-23.438,0.000
1714028220.308,-19.531,-19.531,-27.832,-22.949,0.000
1714028220.312,-17.578,-23.926,-26.855,-23.438,0.000
1714028220.316,-13.184,-28.809,-32.715,-17.090,0.000
1714028220.320,-18.555,-28.320,-36.133,-19.043,0.000
1714028220.324,-20.020,-24.414,-36.621,-23.926,0.000
1714028220.328,-15.625,-20.996,-32.715,-23.438,0.000
1714028220.332,-22.461,-24.902,-35.156,-19.043,0.000
1714028220.336,-29.297,-29.785,-39.551,-24.902,0.000
1714028220.339,-25.879,-29.297,-36.621,-33.691,0.000
1714028220.343,-23.926,-24.902,-36.133,-33.691,0.000
1714028220.347,-34.180,-27.344,-47.852,-37.109,0.000
1714028220.351,-31.250,-25.391,-47.852,-30.762,0.000
1714028220.355,-20.508,-20.996,-40.039,-21.484,0.000
1714028220.359,-27.344,-20.996,-43.945,-19.531,0.000
1714028220.363,-30.762,-22.461,-44.922,-20.996,0.000
1714028220.367,-27.832,-22.949,-45.898,-21.973,0.000
1714028220.371,-31.738,-21.973,-45.898,-27.344,0.000
1714028220.375,-31.738,-26.367,-39.551,-33.691,0.000
1714028220.379,-31.250,-27.344,-40.039,-31.250,0.000
1714028220.382,-29.785,-29.785,-38.086,-26.855,0.000
1714028220.386,-30.273,-25.879,-43.945,-26.855,0.000
1714028220.390,-25.391,-18.555,-39.551,-24.414,0.000
1714028220.394,-24.414,-21.973,-35.156,-27.832,0.000
1714028220.398,-30.762,-18.066,-38.574,-31.738,0.000
1714028220.402,-27.344,-12.695,-27.344,-18.066,0.000
1714028220.406,-30.273,-16.602,-22.461,-17.578,0.000
1714028220.410,-38.086,-21.484,-28.809,-35.645,0.000
1714028220.414,-39.062,-26.855,-35.645,-37.598,0.000
1714028220.418,-39.551,-33.203,-38.574,-35.156,0.000
1714028220.422,-36.621,-32.715,-39.062,-34.180,0.000
1714028220.425,-31.738,-30.273,-39.062,-38.574,0.000
1714028220.429,-28.809,-24.902,-30.762,-34.180,0.000
1714028220.433,-29.785,-20.020,-29.785,-25.879,0.000
1714028220.437,-30.762,-23.438,-28.320,-32.715,0.000
1714028220.441,-30.273,-23.926,-28.320,-40.527,0.000
1714028220.445,-34.668,-22.461,-38.086,-45.898,0.000
1714028220.449,-36.621,-27.344,-38.574,-36.133,0.000
1714028220.453,-32.227,-28.320,-35.645,-21.973,0.000
1714028220.457,-31.738,-24.414,-31.250,-26.855,0.000
1714028220.461,-31.738,-24.414,-26.367,-33.691,0.000
1714028220.464,-34.668,-35.156,-20.996,-35.156,0.000
1714028220.468,-37.598,-36.621,-17.090,-29.785,0.000
1714028220.472,-26.367,-19.531,-23.438,-25.879,0.000
1714028220.476,-21.973,-17.578,-32.227,-30.273,0.000
1714028220.480,-30.273,-26.855,-34.180,-33.203,0.000
1714028220.484,-26.367,-28.320,-22.461,-24.902,0.000
1714028220.488,-16.602,-24.414,-20.508,-17.090,0.000
1714028220.492,-25.391,-27.344,-24.902,-23.926,0.000
1714028220.496,-33.203,-28.320,-23.926,-28.320,0.000
1714028220.500,-23.438,-19.531,-20.996,-20.508,0.000
1714028220.503,-23.438,-20.020,-17.090,-18.555,0.000
1714028220.507,-30.762,-21.484,-22.461,-25.879,0.000
1714028220.511,-27.344,-18.066,-27.344,-31.250,0.000
1714028220.515,-31.250,-23.926,-24.902,-31.250,0.000
1714028220.519,-41.016,-31.250,-28.320,-35.645,0.000
1714028220.523,-34.180,-23.926,-29.785,-32.715,0.000
1714028220.527,-26.855,-20.020,-22.949,-29.297,0.000
1714028220.531,-26.855,-21.973,-20.508,-26.367,0.000
1714028220.535,-30.273,-21.973,-20.996,-24.414,0.000
1714028220.539,-33.203,-27.832,-27.344,-23.926,0.000
1714028220.543,-30.762,-33.203,-31.738,-21.484,0.000
1714028220.546,-26.367,-32.715,-23.438,-21.973,0.000
1714028220.550,-25.391,-31.250,-20.020,-18.066,0.000
1714028220.554,-24.902,-26.367,-26.367,-19.531,0.000
1714028220.558,-21.484,-26.855,-20.996,-22.461,0.000
1714028220.562,-20.020,-24.902,-19.531,-19.531,0.000
1714028220.566,-23.926,-20.996,-29.785,-23.438,0.000
1714028220.570,-21.484,-23.438,-27.832,-25.391,0.000
1714028220.574,-19.531,-20.996,-26.855,-22.461,0.000
1714028220.578,-25.391,-21.973,-29.297,-29.785,0.000
1714028220.582,-27.832,-26.855,-29.297,-29.785,0.000
1714028220.586,-34.180,-25.391,-32.227,-25.391,0.000
1714028220.589,-35.156,-29.785,-26.855,-34.668,0.000
1714028220.593,-26.367,-28.809,-26.855,-34.668,0.000
1714028220.597,-20.020,-27.344,-32.715,-19.043,0.000
1714028220.601,-19.531,-32.227,-22.949,-12.695,0.000
1714028220.605,-28.320,-35.645,-23.926,-22.949,0.000
1714028220.609,-32.715,-37.109,-35.645,-32.715,0.000
1714028220.613,-34.180,-33.691,-30.762,-30.762,0.000
1714028220.617,-41.504,-33.691,-27.832,-27.832,0.000
1714028220.621,-37.598,-31.250,-27.832,-25.391,0.000
1714028220.625,-33.691,-31.738,-30.273,-30.273,0.000
1714028220.628,-36.133,-34.180,-39.062,-32.227,0.000
1714028220.632,-35.156,-32.227,-34.668,-18.066,0.000
1714028220.636,-36.133,-33.203,-28.320,-18.066,0.000
1714028220.640,-30.762,-31.738,-28.809,-21.973,0.000
1714028220.644,-25.391,-27.344,-29.297,-12.695,0.000
1714028220.648,-28.809,-25.879,-30.762,-10.742,0.000
1714028220.652,-27.832,-27.832,-30.273,-11.719,0.000
1714028220.656,-27.344,-30.762,-36.133,-20.020,0.000
1714028220.660,-30.273,-27.344,-34.180,-22.461,0.000
1714028220.664,-24.414,-20.020,-28.320,-17.090,0.000
1714028220.668,-24.414,-21.484,-36.621,-14.648,0.000
1714028220.671,-30.762,-30.762,-46.387,-20.996,0.000
1714028220.675,-28.809,-41.504,-50.781,-26.367,0.000
1714028220.679,-24.902,-35.156,-47.363,-18.066,0.000
1714028220.683,-25.391,-24.414,-39.551,-19.043,0.000
1714028220.687,-16.602,-26.367,-41.504,-20.996,0.000
1714028220.691,-10.254,-27.832,-46.387,-17.090,0.000
1714028220.695,-9.277,-22.461,-42.480,-23.926,0.000
1714028220.699,-9.277,-24.414,-44.434,-25.391,0.000
1714028220.703,-1.953,-23.926,-51.270,-22.461,0.000
1714028220.707,0.488,-24.414,-46.387,-28.809,0.000
1714028220.711,-6.836,-30.273,-39.551,-23.438,0.000
1714028220.714,-14.160,-30.273,-39.062,-16.602,0.000
1714028220.718,-23.926,-31.738,-41.504,-13.672,0.000
1714028220.722,-20.996,-29.297,-37.109,-9.766,0.000
1714028220.726,-22.949,-26.367,-32.227,-23.438,0.000
1714028220.730,-36.133,-28.809,-41.016,-29.297,0.000
1714028220.734,-38.086,-29.785,-44.922,-17.090,0.000
1714028220.738,-41.992,-36.133,-41.504,-22.949,0.000
1714028220.742,-42.480,-39.062,-36.133,-32.715,0.000
1714028220.746,-37.109,-32.715,-38.574,-27.832,0.000
1714028220.750,-41.016,-29.785,-47.852,-32.715,0.000
1714028220.754,-32.715,-30.762,-33.203,-28.320,0.000
1714028220.757,-27.344,-29.785,-19.043,-25.879,0.000
1714028220.761,-29.785,-27.344,-34.180,-30.273,0.000
1714028220.765,-35.156,-30.762,-44.922,-33.203,0.000
1714028220.769,-40.039,-27.344,-48.828,-29.785,0.000
1714028220.773,-36.133,-24.414,-48.340,-27.344,0.000
1714028220.777,-37.598,-32.715,-49.805,-38.086,0.000
1714028220.781,-36.133,-31.738,-52.246,-32.227,0.000
1714028220.785,-34.180,-26.855,-43.945,-24.414,0.000
1714028220.789,-33.203,-25.879,-40.527,-25.391,0.000
1714028220.793,-34.180,-25.879,-43.945,-29.297,0.000
1714028220.797,0.000,-23.926,-43.945,-35.156,0.000
1714028220.800,0.000,-22.461,-43.945,-36.133,0.000
1714028220.804,0.000,-27.832,-45.410,-32.227,0.000
1714028220.808,0.000,-30.762,-49.316,-27.344,0.000
1714028220.812,0.000,-27.832,-42.969,-23.926,0.000
1714028220.816,0.000,-32.227,-36.621,-18.555,0.000
1714028220.820,0.000,-35.645,-40.039,-4.883,0.000
1714028220.824,0.000,-28.809,-43.945,5.371,0.000
1714028220.828,0.000,-20.508,-46.875,-17.578,0.000
1714028220.832,0.000,-18.066,-40.527,-36.621,0.000
1714028220.836,0.000,-21.973,-37.598,-32.715,0.000
1714028220.839,0.000,-26.855,-41.504,-38.574,0.000
1714028220.843,-20.508,-26.367,-41.016,-35.645,0.000
1714028220.847,-22.461,-23.926,-43.457,-39.551,0.000
1714028220.851,-25.879,-24.902,-46.387,-42.969,0.000
1714028220.855,-20.508,-23.926,-45.410,-33.203,0.000
1714028220.859,-19.043,-26.367,-45.410,-24.902,0.000
1714028220.863,-15.137,-24.414,-45.410,-23.438,0.000
1714028220.867,-12.207,-23.438,-42.969,-18.555,0.000
1714028220.871,-14.160,-29.297,-44.922,-13.672,0.000
1714028220.875,-21.973,-30.762,-44.434,-30.762,0.000
1714028220.878,-18.066,-24.414,-38.574,-34.668,0.000
1714028220.882,-16.602,-27.344,-41.016,-31.250,0.000
1714028220.886,-21.484,-31.738,-39.551,-32.715,0.000
1714028220.890,-22.461,-29.297,-35.645,-31.250,0.000
1714028220.894,-23.926,-27.832,-38.574,-35.645,0.000
1714028220.898,-24.902,-23.926,-32.715,-36.621,0.000
1714028220.902,-22.461,-24.902,-27.832,-34.180,0.000
1714028220.906,-14.160,-29.297,-23.438,-25.879,0.000
1714028220.910,-20.020,-30.273,-23.926,-29.297,0.000
1714028220.914,-23.438,-32.227,-33.203,-28.320,0.000
1714028220.918,-23.438,-30.762,-31.738,-24.414,0.000
1714028220.921,-20.996,-25.391,-25.879,-31.738,0.000
1714028220.925,-15.625,-21.973,-30.762,-31.738,0.000
1714028220.929,-17.090,-21.973,-34.180,-31.250,0.000
1714028220.933,-24.414,-29.297,-32.227,-40.527,0.000
1714028220.937,-25.879,-35.645,-32.715,-41.992,0.000
1714028220.941,-16.602,-34.180,-35.645,-35.156,0.000
1714028220.945,-12.207,-31.738,-35.156,-33.203,0.000
1714028220.949,-18.066,-27.344,-37.109,-30.762,0.000
1714028220.953,-20.508,-21.973,-40.527,-27.832,0.000
1714028220.957,-18.555,-20.996,-30.762,-26.367,0.000
1714028220.961,-13.672,-22.461,-27.344,-30.273,0.000
1714028220.964,-17.090,-22.949,-31.250,-35.156,0.000
1714028220.968,-24.902,-25.391,-28.320,-31.250,0.000
1714028220.972,-22.949,-23.438,-25.879,-27.344,0.000
1714028220.976,-24.414,-20.996,-31.250,-36.133,0.000
1714028220.980,-29.785,-27.344,-36.621,-42.480,0.000
1714028220.984,-31.738,-25.391,-41.992,-35.156,0.000
1714028220.988,-27.344,-20.508,-41.504,-32.227,0.000
1714028220.992,-27.832,-23.438,-36.133,-32.715,0.000
1714028220.996,-30.273,-28.809,-35.645,-31.738,0.000
1714028221.000,-24.414,-27.344,-34.668,-31.250,0.000
1714028221.003,-23.438,-29.785,-22.949,-30.762,0.000
1714028221.007,-25.879,-36.133,-24.902,-33.203,0.000
1714028221.011,-26.367,-31.738,-31.250,-39.062,0.000
1714028221.015,-29.297,-27.344,-29.785,-39.551,0.000
1714028221.019,-24.414,-28.320,-29.297,-27.832,0.000
1714028221.023,-19.531,-23.926,-25.391,-29.297,0.000
1714028221.027,-20.508,-19.531,-27.344,-33.203,0.000
1714028221.031,-21.973,-24.414,-25.391,-27.344,0.000
1714028221.035,-19.531,-26.855,-16.113,-26.855,0.000
1714028221.039,-17.578,-20.996,-20.020,-28.809,0.000
1714028221.043,-22.949,-19.043,-25.879,-26.855,0.000
1714028221.046,-22.461,-20.996,-25.391,-23.926,0.000
1714028221.050,-20.020,-20.996,-27.344,-20.508,0.000
1714028221.054,-16.113,-20.508,-21.973,-20.508,0.000
1714028221.058,-20.996,-20.996,-15.625,-29.785,0.000
1714028221.062,-29.785,-24.902,-22.949,-30.273,0.000
1714028221.066,-27.832,-25.879,-37.598,-24.414,0.000
1714028221.070,-33.203,-22.949,-37.109,-34.180,0.000
1714028221.074,-31.250,-21.484,-21.973,-31.250,0.000
1714028221.078,-26.367,-22.461,-18.066,-28.320,0.000
1714028221.082,-31.250,-24.902,-24.902,-28.809,0.000
1714028221.086,-33.203,-26.367,-24.902,-28.809,0.000
1714028221.089,-26.855,-23.438,-17.578,-30.273,0.000
1714028221.093,-23.438,-20.020,-22.461,-27.832,0.000
1714028221.097,-32.227,-24.902,-21.973,-26.367,0.000
1714028221.101,-33.691,-29.297,-26.367,-25.391,0.000
1714028221.105,-31.250,-32.227,-33.203,-27.832,0.000
1714028221.109,-31.250,-28.809,-31.250,-22.949,0.000
1714028221.113,-35.156,-33.203,-33.203,-31.738,0.000
1714028221.117,-40.039,-35.156,-27.344,-35.645,0.000
1714028221.121,-36.621,-30.273,-19.531,-19.531,0.000
1714028221.125,-35.645,-27.344,-18.555,-23.438,0.000
1714028221.129,-40.527,-25.391,-18.555,-28.320,0.000
1714028221.132,-41.992,-35.156,-27.344,-19.531,0.000
1714028221.136,-40.527,-33.203,-29.785,-23.438,0.000
1714028221.140,-37.598,-22.461,-24.902,-33.691,0.000
1714028221.144,-35.645,-20.508,-25.391,-32.227,0.000
1714028221.148,-34.180,-23.926,-27.832,-28.320,0.000
1714028221.152,-31.250,-27.344,-30.762,-17.090,0.000
1714028221.156,-28.320,-24.902,-27.344,-11.719,0.000
1714028221.160,-28.320,-20.020,-22.461,-26.855,0.000
1714028221.164,-32.227,-26.367,-24.902,-31.738,0.000
1714028221.168,-32.227,-28.809,-34.668,-33.203,0.000
1714028221.171,-21.484,-23.926,-36.621,-29.297,0.000
1714028221.175,-11.230,-22.949,-26.855,-18.066,0.000
1714028221.179,-26.367,-29.297,-18.555,-24.902,0.000
1714028221.183,-36.621,-32.715,-15.625,-29.297,0.000
1714028221.187,-32.715,-34.668,-15.625,-28.320,0.000
1714028221.191,-32.227,-32.715,-15.137,-31.250,0.000
1714028221.195,-34.668,-29.785,-19.531,-35.645,0.000
1714028221.199,-42.969,-31.738,-21.973,-31.738,0.000
1714028221.203,-46.387,-31.738,-20.508,-24.414,0.000
1714028221.207,-42.969,-32.715,-22.461,-27.344,0.000
1714028221.211,-36.133,-38.086,-20.020,-28.320,0.000
1714028221.214,-31.738,-43.457,-15.625,-27.344,0.000
1714028221.218,-34.180,-36.133,-14.648,-28.320,0.000
1714028221.222,-29.297,-24.902,-20.996,-32.227,0.000
1714028221.226,-32.227,-29.297,-32.715,-34.668,0.000
1714028221.230,-36.133,-33.691,-33.203,-32.227,0.000
1714028221.234,-26.367,-27.832,-24.902,-23.438,0.000
1714028221.238,-30.273,-28.320,-24.414,-25.391,0.000
1714028221.242,-32.227,-35.156,-31.250,-29.297,0.000
1714028221.246,-30.273,-37.598,-28.809,-26.367,0.000
1714028221.250,-33.203,-31.250,-20.020,-34.668,0.000
1714028221.254,-28.809,-28.809,-17.090,-29.785,0.000
1714028221.257,-21.973,-28.320,-24.414,-21.973,0.000
1714028221.261,-27.344,-30.762,-31.250,-23.438,0.000
1714028221.265,-27.344,-29.785,-28.320,-20.020,0.000
1714028221.269,-20.508,-27.832,-26.367,-14.648,0.000
1714028221.273,-14.160,-28.320,-22.949,-20.508,0.000
1714028221.277,-17.578,-30.762,-20.996,-27.344,0.000
1714028221.281,-22.949,-32.227,-18.066,-21.973,0.000
1714028221.285,-13.184,-23.926,-11.719,-10.254,0.000
1714028221.289,-17.578,-20.508,-16.113,-13.672,0.000
1714028221.293,-32.227,-29.297,-26.855,-27.832,0.000
1714028221.296,-32.715,-32.227,-25.879,-30.273,0.000
1714028221.300,-25.391,-28.320,-22.949,-21.484,0.000
1714028221.304,-27.832,-33.203,-26.855,-20.020,0.000
1714028221.308,-32.715,-34.180,-30.273,-30.762,0.000
1714028221.312,-38.086,-29.785,-26.367,-34.668,0.000
1714028221.316,-33.691,-28.320,-28.320,-28.320,0.000
1714028221.320,-27.344,-26.367,-27.832,-29.297,0.000
1714028221.324,-34.668,-34.180,-29.785,-38.574,0.000
1714028221.328,-34.668,-35.156,-35.156,-37.109,0.000
1714028221.332,-30.273,-28.809,-34.668,-29.785,0.000
1714028221.336,-35.156,-27.344,-33.691,-24.902,0.000
1714028221.339,-29.297,-21.973,-23.926,-29.297,0.000
1714028221.343,-27.832,-23.438,-23.438,-41.504,0.000
1714028221.347,-34.668,-34.180,-30.762,-45.410,0.000
1714028221.351,-33.203,-38.086,-24.902,-35.645,0.000
1714028221.355,-25.879,-27.832,-22.949,-26.367,0.000
1714028221.359,-29.297,-22.461,-31.250,-30.762,0.000
1714028221.363,-32.715,-27.832,-31.738,-26.855,0.000
1714028221.367,-30.273,-24.414,-30.762,-17.090,0.000
1714028221.371,-30.762,-15.137,-28.320,-14.160,0.000
1714028221.375,-33.691,-21.973,-23.438,-22.461,0.000
1714028221.379,-39.551,-28.809,-31.250,-32.715,0.000
1714028221.382,-33.691,-23.926,-32.715,-27.344,0.000
1714028221.386,-25.391,-23.926,-27.344,-23.438,0.000
1714028221.390,-25.879,-23.926,-29.297,-28.320,0.000
1714028221.394,-28.320,-26.855,-32.227,-25.879,0.000
1714028221.398,-27.344,-26.367,-29.297,-19.043,0.000
1714028221.402,-24.902,-20.020,-21.973,-21.973,0.000
1714028221.406,-23.438,-21.973,-21.973,-20.020,0.000
1714028221.410,-21.973,-28.809,-26.367,-27.344,0.000
1714028221.414,-25.391,-29.785,-25.879,-31.250,0.000
1714028221.418,-30.762,-31.250,-29.785,-26.855,0.000
1714028221.421,-34.668,-32.227,-35.645,-26.367,0.000
1714028221.425,-36.133,-27.832,-35.156,-28.809,0.000
1714028221.429,-36.133,-25.879,-32.715,-41.992,0.000
1714028221.433,-40.527,-30.762,-30.762,-41.992,0.000
1714028221.437,-40.527,-38.086,-31.738,-25.879,0.000
1714028221.441,-35.156,-36.133,-33.691,-22.461,0.000
1714028221.445,-41.504,-27.832,-36.133,-35.156,0.000
1714028221.449,-44.434,-26.367,-33.203,-34.668,0.000
1714028221.453,-40.039,-24.902,-30.762,-25.879,0.000
1714028221.457,-35.156,-21.484,-30.273,-27.832,0.000
1714028221.461,-32.715,-26.855,-28.809,-26.855,0.000
1714028221.464,-30.762,-31.738,-36.133,-26.855,0.000
1714028221.468,-25.879,-29.785,-37.109,-29.785,0.000
1714028221.472,-25.391,-27.344,-37.109,-22.949,0.000
1714028221.476,-20.020,-21.973,-32.227,-25.879,0.000
1714028221.480,-16.602,-16.113,-28.809,-31.250,0.000
1714028221.484,-19.531,-13.184,-32.227,-20.996,0.000
1714028221.488,-20.020,-18.066,-28.809,-18.555,0.000
1714028221.492,-24.902,-21.484,-28.320,-25.879,0.000
1714028221.496,-30.273,-26.367,-35.645,-36.133,0.000
1714028221.500,-28.320,-28.809,-38.574,-34.668,0.000
1714028221.504,-29.785,-25.879,-32.715,-32.715,0.000
1714028221.507,-27.344,-24.902,-28.320,-37.109,0.000
1714028221.511,-21.484,-26.367,-26.855,-29.785,0.000
1714028221.515,-24.414,-26.855,-31.250,-25.391,0.000
1714028221.519,-30.273,-23.926,-26.367,-29.785,0.000
1714028221.523,-25.879,-20.020,-27.344,-29.297,0.000
1714028221.527,-16.602,-22.949,-33.203,-20.508,0.000
1714028221.531,-22.461,-27.344,-28.809,-17.090,0.000
1714028221.535,-27.344,-22.461,-27.344,-20.508,0.000
1714028221.539,-25.391,-17.090,-27.344,-16.602,0.000
1714028221.543,-25.879,-21.484,-21.484,-22.949,0.000
1714028221.546,-22.461,-21.973,-26.855,-33.691,0.000
1714028221.550,-19.531,-17.090,-28.809,-23.926,0.000
1714028221.554,-22.461,-21.973,-23.926,-15.137,0.000
1714028221.558,-27.344,-24.902,-33.203,-21.973,0.000
1714028221.562,-30.273,-24.902,-35.156,-25.391,0.000
1714028221.566,-24.414,-22.949,-28.320,-20.020,0.000
1714028221.570,-23.926,-22.461,-26.367,-21.973,0.000
1714028221.574,-30.273,-25.879,-35.645,-24.902,0.000
1714028221.578,-25.879,-23.926,-38.574,-25.391,0.000
1714028221.582,-29.297,-24.414,-30.273,-30.273,0.000
1714028221.586,-31.738,-26.367,-27.832,-33.203,0.000
1714028221.589,-27.344,-30.762,-24.414,-34.180,0.000
1714028221.593,-35.645,-35.645,-29.297,-37.598,0.000
1714028221.597,-39.062,-30.762,-37.598,-37.109,0.000
1714028221.601,-29.297,-30.273,-40.039,-27.344,0.000
1714028221.605,-24.902,-33.691,-44.922,-29.297,0.000
1714028221.609,-25.391,-33.691,-46.875,-43.945,0.000
1714028221.613,-18.555,-31.738,-41.504,-45.410,0.000
1714028221.617,-16.113,-24.902,-35.645,-41.992,0.000
1714028221.621,-21.973,-36.133,-26.367,-36.133,0.000
1714028221.625,-25.391,-44.434,-25.879,-39.062,0.000
1714028221.628,-29.297,-34.668,-32.715,-41.992,0.000
1714028221.632,-34.668,-33.691,-37.598,-38.574,0.000
1714028221.636,-38.086,-33.203,-43.457,-34.180,0.000
1714028221.640,-40.527,-33.691,-39.551,-31.738,0.000
1714028221.644,-42.969,-36.621,-33.691,-32.715,0.000
1714028221.648,-40.039,-30.273,-32.227,-30.762,0.000
1714028221.652,-37.109,-31.250,-27.832,-30.273,0.000
1714028221.656,-42.480,-35.645,-25.391,-37.598,0.000
1714028221.660,-43.457,-27.832,-30.762,-45.898,0.000
1714028221.664,-39.062,-31.738,-37.109,-38.574,0.000
1714028221.668,-44.434,-36.133,-41.992,-33.691,0.000
1714028221.671,-41.504,-25.879,-35.156,-36.621,0.000
1714028221.675,-32.715,-23.926,-30.762,-42.480,0.000
1714028221.679,-33.203,-26.855,-28.809,-39.551,0.000
1714028221.683,-32.715,-26.367,-24.414,-33.691,0.000
1714028221.687,-33.691,-28.809,-26.367,-35.156,0.000
1714028221.691,-37.598,-30.762,-29.297,-33.691,0.000
1714028221.695,-31.250,-27.832,-24.902,-30.273,0.000
1714028221.699,-26.855,-21.973,-20.508,-26.855,0.000
1714028221.703,-29.785,-26.855,-28.320,-23.926,0.000
1714028221.707,-26.367,-28.320,-31.250,-19.531,0.000
1714028221.710,-19.531,-20.996,-22.949,-20.508,0.000
1714028221.714,-22.461,-25.391,-20.020,-27.344,0.000
1714028221.718,-21.484,-28.809,-17.578,-31.250,0.000
1714028221.722,-18.555,-25.391,-16.113,-26.855,0.000
1714028221.726,-24.902,-26.855,-26.367,-24.414,0.000
1714028221.730,-26.367,-30.273,-33.203,-23.926,0.000
1714028221.734,-23.438,-27.344,-26.367,-24.414,0.000
1714028221.738,-25.391,-30.273,-27.344,-31.250,0.000
1714028221.742,-30.273,-36.621,-32.227,-35.156,0.000
1714028221.746,-30.273,-31.738,-27.832,-34.668,0.000
1714028221.750,-25.879,-32.227,-25.879,-28.320,0.000
1714028221.753,-28.320,-35.156,-30.273,-28.809,0.000
1714028221.757,-29.785,-32.227,-23.926,-31.250,0.000
1714028221.761,-31.738,-32.715,-24.902,-28.809,0.000
1714028221.765,-32.715,-37.598,-28.809,-29.785,0.000
1714028221.769,-28.320,-36.133,-28.320,-23.438,0.000
1714028221.773,-27.344,-30.273,-24.414,-19.531,0.000
1714028221.777,-30.762,-31.738,-18.555,-28.809,0.000
1714028221.781,-28.809,-30.762,-20.996,-32.227,0.000
1714028221.785,-26.855,-28.320,-27.832,-28.809,0.000
1714028221.789,-33.203,-30.762,-31.738,-37.598,0.000
1714028221.793,-36.133,-26.855,-27.344,-40.039,0.000
1714028221.796,-34.668,-27.344,-27.344,-41.016,0.000
1714028221.800,-29.297,-31.738,-32.227,-35.645,0.000
1714028221.804,-25.879,-31.250,-27.344,-25.879,0.000
1714028221.808,-26.367,-37.598,-20.020,-30.762,0.000
1714028221.812,-25.391,-35.645,-20.508,-27.344,0.000
1714028221.816,-24.902,-25.391,-19.531,-18.066,0.000
1714028221.820,-23.926,-26.367,-19.043,-20.996,0.000
1714028221.824,-21.973,-24.902,-19.531,-25.391,0.000
1714028221.828,-24.902,-28.809,-23.926,-24.902,0.000
1714028221.832,-23.926,-32.715,-34.668,-17.090,0.000
1714028221.836,-23.438,-26.855,-29.297,-16.113,0.000
1714028221.839,-20.996,-25.879,-22.461,-17.090,0.000
1714028221.843,-16.113,-24.902,-24.902,-22.461,0.000
1714028221.847,-20.020,-23.926,-29.297,-25.391,0.000
1714028221.851,-22.461,-19.043,-26.367,-17.578,0.000
1714028221.855,-20.020,-15.625,-25.879,-11.230,0.000
1714028221.859,-20.020,-20.996,-24.902,-10.254,0.000
1714028221.863,-27.832,-25.879,-26.855,-19.043,0.000
1714028221.867,-25.879,-30.273,-27.832,-24.902,0.000
1714028221.871,-22.461,-32.715,-19.531,-23.926,0.000
1714028221.875,-24.414,-32.715,-20.996,-24.414,0.000
1714028221.879,-27.344,-31.250,-26.367,-27.832,0.000
1714028221.882,-26.367,-25.879,-23.438,-21.973,0.000
1714028221.886,-18.555,-21.484,-17.090,-11.719,0.000
1714028221.890,-19.531,-22.461,-15.625,-23.926,0.000
1714028221.894,-27.832,-28.320,-18.555,-36.621,0.000
1714028221.898,-31.738,-27.344,-22.949,-34.668,0.000
1714028221.902,-33.203,-24.902,-27.832,-32.227,0.000
1714028221.906,-31.738,-29.297,-26.855,-29.785,0.000
1714028221.910,-33.203,-28.809,-21.973,-34.668,0.000
1714028221.914,-38.574,-26.855,-21.484,-39.062,0.000
1714028221.918,-33.203,-27.344,-21.484,-32.227,0.000
1714028221.921,-27.344,-24.414,-23.926,-25.879,0.000
1714028221.925,-28.320,-32.227,-20.508,-29.785,0.000
1714028221.929,-26.855,-37.598,-20.020,-30.273,0.000
1714028221.933,-33.203,-25.391,-25.391,-27.832,0.000
1714028221.937,-36.133,-21.973,-26.855,-29.297,0.000
1714028221.941,-29.785,-26.367,-28.320,-33.203,0.000
1714028221.945,-27.832,-20.020,-28.809,-36.133,0.000
1714028221.949,-28.809,-19.531,-30.762,-26.855,0.000
1714028221.953,-26.367,-24.902,-21.973,-16.113,0.000
1714028221.957,-22.949,-23.438,-20.996,-26.855,0.000
1714028221.961,-22.461,-21.973,-31.250,-28.809,0.000
1714028221.964,-22.949,-19.531,-25.391,-23.438,0.000
1714028221.968,-24.414,-18.555,-20.996,-17.090,0.000
1714028221.972,-30.273,-24.414,-25.879,-16.602,0.000
1714028221.976,-30.273,-36.621,-28.320,-25.879,0.000
1714028221.980,-29.785,-31.738,-25.879,-28.320,0.000
1714028221.984,-31.250,-28.809,-26.367,-25.879,0.000
1714028221.988,-27.344,-28.320,-30.273,-26.367,0.000
1714028221.992,-21.484,-20.996,-34.668,-25.879,0.000
1714028221.996,-20.020,-18.066,-30.762,-19.043,0.000
1714028222.000,-20.508,-18.066,-25.879,-20.508,0.000
1714028222.003,-17.578,-24.902,-33.203,-27.344,0.000
1714028222.007,-18.066,-25.391,-24.414,-26.367,0.000
1714028222.011,-22.461,-28.320,-19.531,-22.461,0.000
1714028222.015,-27.832,-29.785,-28.320,-24.414,0.000
1714028222.019,-29.785,-26.367,-33.203,-26.367,0.000
1714028222.023,-21.484,-20.996,-35.156,-25.391,0.000
1714028222.027,-19.043,-19.531,-43.945,-21.484,0.000
1714028222.031,-16.602,-25.391,-41.504,-22.461,0.000
1714028222.035,-16.113,-29.297,-38.574,-27.344,0.000
1714028222.039,-22.461,-28.320,-42.480,-25.391,0.000
1714028222.043,-20.508,-24.902,-33.203,-23.926,0.000
1714028222.046,-19.531,-23.926,-31.250,-26.855,0.000
1714028222.050,-21.484,-29.785,-32.227,-24.902,0.000
1714028222.054,-26.367,-34.180,-31.250,-20.996,0.000
1714028222.058,-35.645,-32.227,-39.551,-27.832,0.000
1714028222.062,-36.133,-30.762,-34.668,-30.273,0.000
1714028222.066,-32.715,-32.227,-23.926,-23.438,0.000
1714028222.070,-35.156,-32.715,-26.855,-23.926,0.000
1714028222.074,-34.668,-22.461,-24.414,-28.809,0.000
1714028222.078,-34.180,-27.832,-26.855,-32.227,0.000
1714028222.082,-38.086,-34.668,-33.691,-25.391,0.000
1714028222.085,-32.227,-28.320,-26.367,-20.020,0.000
1714028222.089,-25.391,-25.879,-20.020,-27.344,0.000
1714028222.093,-31.250,-26.855,-24.414,-34.180,0.000
1714028222.097,-27.344,-28.809,-29.297,-25.879,0.000
1714028222.101,-21.484,-25.391,-26.367,-16.602,0.000
1714028222.105,-27.832,-23.926,-17.090,-24.414,0.000
1714028222.109,-34.668,-27.344,-17.090,-31.738,0.000
1714028222.113,-34.180,-29.297,-26.367,-29.297,0.000
1714028222.117,-29.785,-29.297,-26.367,-29.785,0.000
1714028222.121,-28.809,-29.785,-22.461,-30.762,0.000
1714028222.125,-25.391,-27.832,-20.020,-22.949,0.000
1714028222.128,-26.367,-24.414,-21.484,-24.414,0.000
1714028222.132,-33.203,-26.855,-25.391,-27.832,0.000
1714028222.136,-30.762,-27.344,-24.414,-18.066,0.000
1714028222.140,-29.785,-23.926,-24.902,-19.043,0.000
1714028222.144,-37.109,-23.926,-23.926,-22.949,0.000
1714028222.148,-40.039,-26.855,-24.414,-27.344,0.000
1714028222.152,-34.180,-24.902,-28.320,-29.785,0.000
1714028222.156,-29.785,-26.367,-29.297,-35.645,0.000
1714028222.160,-27.832,-34.668,-31.738,-38.574,0.000
1714028222.164,-29.297,-33.691,-27.832,-34.180,0.000
1714028222.168,-25.879,-25.879,-28.320,-28.809,0.000
1714028222.171,-22.461,-21.484,-31.738,-26.367,0.000
1714028222.175,-25.879,-23.438,-32.227,-33.203,0.000
1714028222.179,-22.949,-22.949,-35.156,-30.762,0.000
1714028222.183,-26.855,-23.926,-40.039,-36.133,0.000
1714028222.187,-29.297,-26.855,-41.016,-32.715,0.000
1714028222.191,-25.879,-22.949,-37.109,-21.973,0.000
1714028222.195,-26.855,-18.555,-38.574,-29.297,0.000
1714028222.199,-29.785,-21.973,-32.715,-32.227,0.000
1714028222.203,-31.738,-27.344,-21.973,-32.227,0.000
1714028222.207,-28.809,-29.785,-23.438,-37.109,0.000
1714028222.211,-29.297,-26.855,-34.668,-39.551,0.000
1714028222.214,-33.691,-26.367,-32.227,-33.691,0.000
1714028222.218,-34.668,-37.598,-26.367,-28.320,0.000
1714028222.222,-26.855,-42.969,-31.738,-28.320,0.000
1714028222.226,-16.113,-40.527,-35.645,-18.555,0.000
1714028222.230,-9.277,-34.668,-36.621,-12.207,0.000
1714028222.234,-15.137,-26.367,-33.203,-17.578,0.000
1714028222.238,-15.625,-20.996,-29.785,-17.090,0.000
1714028222.242,-16.602,-20.508,-33.203,-23.438,0.000
1714028222.246,-19.043,-23.926,-38.086,-17.090,0.000
1714028222.250,-2.930,-23.438,-33.203,3.418,0.000
1714028222.254,-6.836,-25.879,-25.879,-3.906,0.000
1714028222.257,-12.207,-25.391,-27.832,-16.602,0.000
1714028222.261,-5.859,-26.367,-40.039,-14.160,0.000
1714028222.265,-1.953,-30.273,-46.875,-1.465,0.000
1714028222.269,11.230,-24.414,-40.527,16.602,0.000
1714028222.273,9.766,-19.043,-41.016,4.395,0.000
1714028222.277,0.977,-25.391,-46.875,-11.719,0.000
1714028222.281,8.301,-25.391,-43.945,4.395,0.000
1714028222.285,15.137,-21.973,-39.062,15.625,0.000
1714028222.289,18.555,-21.973,-41.016,14.648,0.000
1714028222.293,20.996,-20.020,-33.203,10.742,0.000
1714028222.296,17.578,-25.879,-35.645,1.953,0.000
1714028222.300,18.066,-25.879,-53.711,5.859,0.000
1714028222.304,14.160,-22.949,-62.988,5.859,0.000
1714028222.308,13.672,-24.902,-58.594,0.488,0.000
1714028222.312,13.184,-28.320,-52.246,-1.953,0.000
1714028222.316,8.301,-28.320,-44.922,0.488,0.000
1714028222.320,7.324,-25.879,-41.016,4.395,0.000
1714028222.324,13.672,-24.414,-43.457,6.348,0.000
1714028222.328,15.625,-18.555,-38.574,2.441,0.000
1714028222.332,8.789,-18.555,-37.109,3.418,0.000
1714028222.336,6.836,-21.484,-43.457,4.395,0.000
1714028222.339,5.859,-21.484,-48.828,4.883,0.000
1714028222.343,-3.418,-27.344,-46.875,-2.441,0.000
1714028222.347,-7.324,-35.156,-44.922,-7.812,0.000
1714028222.351,-6.836,-32.227,-47.852,0.488,0.000
1714028222.355,-6.836,-28.809,-46.875,0.488,0.000
1714028222.359,-9.766,-25.879,-41.504,-8.301,0.000
1714028222.363,-13.672,-27.344,-42.480,-11.719,0.000
1714028222.367,-9.766,-31.250,-41.992,-1.465,0.000
1714028222.371,-16.113,-27.832,-38.086,-6.836,0.000
1714028222.375,-21.484,-25.391,-36.621,-21.484,0.000
1714028222.378,-17.578,-27.344,-40.527,-21.973,0.000
1714028222.382,-17.090,-32.715,-38.086,-13.184,0.000
1714028222.386,-20.508,-35.156,-39.551,-14.160,0.000
1714028222.386,-20.508,-35.156,-39.551,-14.160,0.000
1714028222.390,-21.484,-30.762,-38.574,-24.414,0.000
1714028222.394,-17.090,-25.879,-30.762,-22.949,0.000
1714028222.398,-24.414,-27.832,-31.738,-15.625,0.000
1714028222.402,-25.391,-32.715,-28.320,-19.531,0.000
1714028222.406,-20.020,-37.598,-29.297,-24.902,0.000
1714028222.410,-23.438,-36.621,-38.574,-25.879,0.000
1714028222.414,-25.391,-34.668,-42.969,-20.508,0.000
1714028222.418,-26.855,-40.527,-44.922,-21.973,0.000
1714028222.421,-29.297,-41.016,-39.062,-29.297,0.000
1714028222.425,-30.762,-39.551,-41.016,-29.297,0.000
1714028222.429,-33.691,-33.691,-41.992,-32.715,0.000
1714028222.433,-30.273,-21.973,-34.180,-29.785,0.000
1714028222.437,-27.832,-16.113,-23.926,-22.461,0.000
1714028222.441,-29.297,-23.926,-18.555,-25.391,0.000
1714028222.445,-29.785,-30.273,-21.484,-27.832,0.000
1714028222.449,-31.250,-28.320,-23.926,-24.902,0.000
1714028222.453,-32.227,-21.973,-25.879,-27.832,0.000
1714028222.457,-29.297,-21.484,-20.996,-28.809,0.000
1714028222.461,-25.391,-31.738,-21.484,-27.344,0.000
1714028222.464,-28.809,-31.738,-21.484,-27.832,0.000
1714028222.468,-37.598,-34.668,-17.578,-32.715,0.000
1714028222.472,-39.551,-37.598,-22.461,-36.133,0.000
1714028222.476,-43.457,-31.738,-22.949,-37.109,0.000
1714028222.480,-39.062,-32.227,-8.301,-36.621,0.000
1714028222.484,-29.785,-28.809,-10.254,-28.320,0.000
1714028222.488,-30.273,-15.625,-20.508,-25.391,0.000
1714028222.492,-33.691,-23.438,-18.555,-30.762,0.000
1714028222.496,-35.156,-27.344,-21.484,-36.133,0.000
1714028222.500,-35.156,-32.715,-23.438,-29.297,0.000
1714028222.504,-33.203,-39.062,-18.555,-22.461,0.000
1714028222.507,-38.574,-27.832,-17.090,-37.109,0.000
1714028222.511,-39.062,-32.227,-12.695,-44.922,0.000
1714028222.515,-33.691,-40.039,-16.602,-35.156,0.000
1714028222.519,-34.180,-32.227,-34.180,-31.738,0.000
1714028222.523,-37.109,-30.762,-37.598,-38.086,0.000
1714028222.527,-31.250,-40.039,-30.273,-40.527,0.000
1714028222.531,-9.766,-31.738,-30.762,-31.738,0.000
1714028222.535,-4.883,-25.391,-31.250,-33.203,0.000
1714028222.539,-14.648,-23.438,-28.809,-41.992,0.000
1714028222.543,-20.020,-18.066,-24.902,-42.969,0.000
1714028222.546,-26.855,-17.578,-27.344,-41.992,0.000
1714028222.550,-20.508,-21.973,-26.367,-29.297,0.000
1714028222.554,-27.832,-25.879,-25.391,-24.902,0.000
1714028222.558,-47.363,-29.785,-28.809,-35.156,0.000
1714028222.562,-44.434,-31.250,-30.762,-40.039,0.000
1714028222.566,-37.109,-29.785,-32.715,-33.203,0.000
1714028222.570,-37.598,-24.414,-32.227,-32.227,0.000
1714028222.574,-34.180,-23.926,-25.879,-33.203,0.000
1714028222.578,-36.621,-24.414,-21.973,-39.062,0.000
1714028222.582,-36.621,-22.949,-25.879,-35.156,0.000
1714028222.586,-34.668,-24.902,-28.809,-26.367,0.000
1714028222.589,-37.109,-21.973,-27.344,-24.414,0.000
1714028222.593,-33.691,-24.902,-26.367,-27.344,0.000
1714028222.597,-33.203,-32.715,-26.367,-33.691,0.000
1714028222.601,-37.109,-26.367,-26.855,-33.691,0.000
1714028222.605,-31.738,-25.391,-31.250,-34.180,0.000
1714028222.609,-29.297,-27.832,-31.250,-28.809,0.000
1714028222.613,-32.715,-22.949,-23.926,-31.738,0.000
1714028222.617,-34.668,-24.414,-28.809,-34.668,0.000
1714028222.621,-32.715,-32.227,-36.621,-33.691,0.000
1714028222.625,-28.320,-26.855,-25.879,-37.598,0.000
1714028222.629,-28.809,-18.555,-15.625,-38.086,0.000
1714028222.632,-30.762,-21.484,-21.973,-37.109,0.000
1714028222.636,-32.715,-28.320,-28.320,-32.715,0.000
1714028222.640,-35.156,-28.809,-28.809,-31.738,0.000
1714028222.644,-33.691,-36.621,-30.273,-32.715,0.000
1714028222.648,-27.344,-35.156,-27.832,-26.367,0.000
1714028222.652,-26.855,-20.996,-28.809,-20.508,0.000
1714028222.656,-24.414,-24.414,-29.785,-20.020,0.000
1714028222.660,-23.926,-26.855,-28.320,-22.461,0.000
1714028222.664,-30.762,-22.461,-30.762,-26.367,0.000
1714028222.668,-32.227,-31.250,-23.438,-25.879,0.000
1714028222.671,-30.273,-33.691,-21.484,-16.602,0.000
1714028222.675,-32.227,-27.344,-24.414,-19.531,0.000
1714028222.679,-30.762,-30.762,-20.020,-22.949,0.000
1714028222.683,-29.785,-28.320,-23.926,-20.020,0.000
1714028222.687,-31.738,-30.762,-26.367,-24.902,0.000
1714028222.691,-30.762,-38.574,-21.973,-20.508,0.000
1714028222.695,-34.668,-35.156,-31.250,-28.809,0.000
1714028222.699,-36.621,-29.785,-39.551,-31.738,0.000
1714028222.703,-32.715,-30.762,-25.879,-24.414,0.000
1714028222.707,-28.320,-27.832,-17.090,-29.297,0.000
1714028222.711,-25.879,-25.391,-25.391,-29.785,0.000
1714028222.714,-28.809,-29.297,-26.367,-27.832,0.000
1714028222.718,-35.156,-31.250,-23.438,-32.227,0.000
1714028222.722,-31.738,-24.414,-25.391,-29.785,0.000
1714028222.726,-25.879,-20.508,-24.902,-23.926,0.000
1714028222.730,-27.344,-23.438,-22.949,-28.320,0.000
1714028222.734,-31.738,-26.367,-19.531,-31.250,0.000
1714028222.738,-29.785,-22.949,-10.742,-25.879,0.000
1714028222.742,-27.832,-21.484,-20.508,-23.438,0.000
1714028222.746,-32.227,-28.809,-37.598,-27.344,0.000
1714028222.750,-31.738,-23.438,-35.645,-27.832,0.000
1714028222.753,-21.973,-16.602,-29.297,-20.508,0.000
1714028222.757,-21.973,-11.230,-27.344,-20.996,0.000
1714028222.761,-21.484,-6.348,-28.809,-26.855,0.000
1714028222.765,-17.578,-11.230,-26.367,-25.879,0.000
1714028222.769,-25.391,-20.508,-26.367,-26.855,0.000
1714028222.773,-24.902,-20.508,-23.926,-27.344,0.000
1714028222.777,-18.555,-23.926,-20.996,-24.902,0.000
1714028222.781,-23.438,-27.832,-30.762,-23.438,0.000
1714028222.785,-22.949,-20.508,-29.785,-20.020,0.000
1714028222.789,-20.508,-27.344,-22.461,-17.090,0.000
1714028222.793,-20.020,-27.832,-22.949,-26.367,0.000
1714028222.796,-23.926,-18.555,-23.926,-36.621,0.000
1714028222.800,-26.855,-17.090,-21.973,-32.227,0.000
1714028222.804,-19.531,-15.137,-23.926,-28.809,0.000
1714028222.808,-20.508,-18.066,-23.438,-28.320,0.000
1714028222.812,-28.809,-23.438,-23.926,-33.691,0.000
1714028222.816,-29.297,-31.250,-31.250,-32.227,0.000
1714028222.820,-27.832,-29.785,-32.715,-22.949,0.000
1714028222.824,-25.879,-27.832,-32.715,-23.926,0.000
1714028222.828,-31.738,-30.762,-31.250,-36.133,0.000
1714028222.832,-28.320,-24.902,-23.926,-30.273,0.000
1714028222.836,-21.973,-23.926,-19.043,-19.043,0.000
1714028222.839,-32.715,-31.250,-24.414,-34.668,0.000
1714028222.843,-29.297,-32.715,-27.832,-37.109,0.000
1714028222.847,-29.297,-29.785,-25.391,-26.855,0.000
1714028222.851,-39.062,-36.621,-25.879,-29.785,0.000
1714028222.855,-38.574,-39.062,-26.855,-34.668,0.000
1714028222.859,-39.551,-34.180,-25.391,-31.738,0.000
1714028222.863,-37.109,-38.574,-29.297,-28.320,0.000
1714028222.867,-30.273,-31.250,-31.250,-28.809,0.000
1714028222.871,-27.832,-22.461,-31.250,-25.879,0.000
1714028222.875,-29.785,-34.180,-30.273,-28.809,0.000
1714028222.878,-31.738,-35.156,-29.297,-36.621,0.000
1714028222.882,-30.273,-36.621,-37.598,-30.273,0.000
1714028222.886,-24.902,-35.645,-38.086,-18.066,0.000
1714028222.890,-26.367,-22.461,-30.273,-25.879,0.000
1714028222.894,-22.949,-20.996,-31.738,-25.879,0.000
1714028222.898,-7.812,-24.902,-23.926,-6.836,0.000
1714028222.902,-12.695,-29.297,-13.672,-6.836,0.000
1714028222.906,-29.297,-32.227,-20.508,-24.414,0.000
1714028222.910,-30.273,-35.645,-25.879,-32.715,0.000
1714028222.914,-26.855,-38.574,-20.020,-27.832,0.000
1714028222.918,-26.855,-44.434,-16.113,-19.043,0.000
1714028222.921,-24.902,-48.340,-18.555,-21.484,0.000
1714028222.925,-30.273,-45.410,-20.020,-31.250,0.000
1714028222.929,-30.273,-39.062,-17.578,-30.762,0.000
1714028222.933,-26.855,-39.551,-15.625,-26.367,0.000
1714028222.937,-30.273,-40.527,-18.066,-24.902,0.000
1714028222.941,-17.578,-31.738,-18.066,-16.113,0.000
1714028222.945,-10.742,-32.227,-13.672,-17.090,0.000
1714028222.949,-20.508,-36.133,-15.625,-20.508,0.000
1714028222.953,-22.461,-36.621,-26.855,-17.578,0.000
1714028222.957,-16.602,-31.738,-24.414,-20.508,0.000
1714028222.961,-20.508,-33.691,-16.602,-24.414,0.000
1714028222.964,-21.973,-38.086,-14.648,-23.438,0.000
1714028222.968,-16.113,-32.227,-15.625,-16.602,0.000
1714028222.972,-20.020,-28.320,-15.625,-12.695,0.000
1714028222.976,-25.879,-25.879,-14.648,-15.625,0.000
1714028222.980,-26.855,-23.438,-14.160,-21.973,0.000
1714028222.984,-24.902,-23.438,-16.602,-15.625,0.000
1714028222.988,-26.855,-21.973,-12.207,-8.789,0.000
1714028222.992,-25.879,-23.926,-13.184,-19.043,0.000
1714028222.996,-25.879,-30.762,-13.184,-26.367,0.000
1714028223.000,-28.809,-28.320,-10.742,-26.855,0.000
1714028223.004,-29.297,-24.414,-9.766,-22.461,0.000
1714028223.007,-32.715,-33.691,-12.207,-24.902,0.000
1714028223.011,-35.645,-34.668,-22.949,-24.902,0.000
1714028223.015,-34.180,-25.879,-22.949,-28.320,0.000
1714028223.019,-31.738,-22.461,-15.137,-27.832,0.000
1714028223.023,-33.691,-25.391,-17.090,-23.926,0.000
1714028223.027,-33.691,-24.414,-25.391,-28.320,0.000
1714028223.031,-37.109,-20.996,-26.367,-30.762,0.000
1714028223.035,-37.598,-22.461,-23.926,-31.738,0.000
1714028223.039,-27.832,-26.855,-30.273,-26.367,0.000
1714028223.043,-22.461,-26.367,-30.762,-22.949,0.000
1714028223.046,-24.902,-27.832,-22.461,-29.297,0.000
1714028223.050,-28.320,-28.320,-19.531,-30.762,0.000
1714028223.054,-27.832,-27.344,-22.461,-24.902,0.000
1714028223.058,-30.762,-25.879,-23.438,-31.250,0.000
1714028223.062,-32.227,-28.320,-23.438,-30.273,0.000
1714028223.066,-35.156,-32.715,-33.691,-25.391,0.000
1714028223.070,-38.574,-36.133,-37.109,-30.273,0.000
1714028223.074,-30.273,-37.109,-35.156,-22.461,0.000
1714028223.078,-25.391,-30.762,-29.297,-21.973,0.000
1714028223.082,-31.250,-30.273,-22.461,-30.273,0.000
1714028223.086,-34.668,-31.738,-28.320,-24.902,0.000
1714028223.089,-31.250,-29.785,-30.273,-29.297,0.000
1714028223.093,-29.297,-28.320,-21.484,-32.715,0.000
1714028223.097,-36.133,-27.832,-19.043,-32.715,0.000
1714028223.101,-34.180,-30.273,-26.367,-31.250,0.000
1714028223.105,-28.809,-33.691,-35.156,-26.367,0.000
1714028223.109,-32.715,-34.668,-35.645,-34.668,0.000
1714028223.113,-37.109,-29.785,-31.738,-41.016,0.000
1714028223.117,-37.598,-26.367,-36.133,-32.227,0.000
1714028223.121,-35.156,-24.414,-38.086,-24.902,0.000
1714028223.125,-33.203,-23.438,-35.645,-32.715,0.000
1714028223.128,-34.180,-27.344,-33.691,-40.039,0.000
1714028223.132,-33.691,-25.391,-24.902,-33.691,0.000
1714028223.136,-34.180,-22.949,-22.461,-26.855,0.000
1714028223.140,-32.715,-26.855,-31.250,-29.785,0.000
1714028223.144,-34.180,-27.832,-37.109,-34.180,0.000
1714028223.148,-35.156,-24.414,-32.715,-34.180,0.000
1714028223.152,-29.785,-32.227,-27.344,-30.273,0.000
1714028223.156,-32.227,-28.320,-29.785,-32.715,0.000
1714028223.160,-30.273,-17.090,-37.109,-34.180,0.000
1714028223.164,-25.879,-25.879,-32.227,-24.902,0.000
1714028223.168,-28.320,-23.926,-22.949,-22.461,0.000
1714028223.171,-28.320,-17.090,-25.879,-24.414,0.000
1714028223.175,-24.414,-19.531,-31.738,-28.320,0.000
1714028223.179,-23.438,-22.949,-37.109,-31.738,0.000
1714028223.183,-24.414,-25.391,-36.621,-31.250,0.000
1714028223.187,-23.926,-24.902,-34.180,-25.879,0.000
1714028223.191,-27.344,-25.879,-34.668,-24.902,0.000
1714028223.195,-29.297,-28.320,-40.039,-29.297,0.000
1714028223.199,-23.926,-33.203,-40.039,-22.461,0.000
1714028223.203,-27.832,-31.250,-36.621,-24.414,0.000
1714028223.207,-33.691,-28.809,-41.016,-30.273,0.000
1714028223.210,-31.250,-33.203,-40.527,-28.320,0.000
1714028223.214,-30.273,-32.227,-36.621,-30.762,0.000
1714028223.218,-29.785,-29.297,-36.621,-30.762,0.000
1714028223.222,-27.832,-32.715,-41.992,-22.461,0.000
1714028223.226,-27.344,-34.668,-39.551,-18.066,0.000
1714028223.230,-27.832,-35.645,-29.297,-22.949,0.000
1714028223.234,-29.297,-34.668,-31.250,-28.809,0.000
1714028223.238,-33.203,-30.762,-43.945,-34.668,0.000
1714028223.242,-33.203,-31.738,-45.898,-33.203,0.000
1714028223.246,-26.855,-32.227,-43.457,-29.297,0.000
1714028223.250,-22.461,-32.227,-45.410,-32.715,0.000
1714028223.253,-30.762,-31.738,-45.410,-36.621,0.000
1714028223.257,-39.551,-32.715,-46.875,-37.109,0.000
1714028223.261,-42.480,-33.691,-45.410,-41.016,0.000
1714028223.265,-39.551,-33.691,-45.410,-34.668,0.000
1714028223.269,-33.691,-34.668,-47.363,-22.949,0.000
1714028223.273,-28.320,-30.762,-40.527,-25.391,0.000
1714028223.277,-33.691,-28.320,-38.086,-36.133,0.000
1714028223.281,-36.133,-32.715,-43.945,-42.480,0.000
1714028223.285,-31.250,-35.645,-41.992,-35.156,0.000
1714028223.289,-33.691,-34.668,-31.250,-26.367,0.000
1714028223.293,-35.156,-38.086,-28.809,-29.785,0.000
1714028223.296,-29.785,-36.133,-36.621,-28.809,0.000
1714028223.300,-30.273,-29.297,-38.086,-26.855,0.000
1714028223.304,-33.203,-30.273,-31.738,-28.809,0.000
1714028223.308,-29.297,-27.832,-32.227,-27.832,0.000
1714028223.312,-28.320,-31.250,-40.527,-32.227,0.000
1714028223.316,-34.180,-34.180,-47.852,-29.297,0.000
1714028223.320,-31.250,-32.227,-37.109,-22.949,0.000
1714028223.324,-26.367,-29.785,-28.809,-29.785,0.000
1714028223.328,-28.320,-24.902,-35.156,-34.180,0.000
1714028223.332,-33.203,-28.809,-38.086,-29.297,0.000
1714028223.336,-32.715,-31.738,-31.738,-30.762,0.000
1714028223.339,-24.902,-30.273,-25.391,-30.273,0.000
1714028223.343,-21.973,-27.832,-20.996,-34.180,0.000
1714028223.347,-24.902,-29.297,-20.020,-36.621,0.000
1714028223.351,-29.297,-31.738,-26.367,-31.250,0.000
1714028223.355,-31.738,-33.691,-32.227,-32.227,0.000
1714028223.359,-26.367,-34.180,-31.250,-28.320,0.000
1714028223.363,-26.855,-30.273,-26.367,-27.344,0.000
1714028223.367,-19.531,-22.949,-21.973,-22.949,0.000
1714028223.371,-9.277,-15.625,-18.066,-20.508,0.000
1714028223.375,-6.348,-19.043,-20.508,-24.902,0.000
1714028223.378,-4.395,-19.043,-21.973,-23.926,0.000
1714028223.382,-3.418,-16.113,-20.020,-20.508,0.000
1714028223.386,-11.719,-24.414,-28.320,-20.020,0.000
1714028223.390,-18.555,-33.691,-38.086,-26.367,0.000
1714028223.394,-24.414,-37.109,-40.527,-39.062,0.000
1714028223.398,-27.832,-27.344,-36.133,-40.527,0.000
1714028223.402,-34.180,-23.926,-35.156,-27.344,0.000
1714028223.406,-31.250,-24.902,-38.574,-19.043,0.000
1714028223.410,-29.785,-21.973,-34.668,-30.273,0.000
1714028223.414,-33.203,-20.996,-28.809,-29.785,0.000
1714028223.418,-24.414,-18.066,-28.320,-16.113,0.000
1714028223.421,-27.832,-22.949,-30.273,-22.461,0.000
1714028223.425,-32.227,-32.715,-34.668,-32.227,0.000
1714028223.429,-38.086,-35.156,-43.945,-35.645,0.000
1714028223.433,-43.457,-35.645,-43.457,-28.809,0.000
1714028223.437,-33.203,-33.691,-39.062,-20.020,0.000
1714028223.441,-26.367,-34.180,-43.945,-17.090,0.000
1714028223.445,-18.555,-34.180,-38.574,-8.301,0.000
1714028223.449,-9.277,-30.762,-28.809,-1.465,0.000
1714028223.453,-16.602,-24.902,-28.809,-12.207,0.000
1714028223.457,-23.438,-23.926,-35.156,-26.855,0.000
1714028223.460,-20.020,-29.785,-38.574,-21.973,0.000
1714028223.464,-13.184,-28.320,-41.016,-11.719,0.000
1714028223.468,-10.254,-21.973,-39.062,-17.578,0.000
1714028223.472,-16.113,-23.926,-44.922,-29.297,0.000
1714028223.476,-16.602,-20.020,-56.641,-41.504,0.000
1714028223.480,-14.648,-14.160,-57.129,-39.062,0.000
1714028223.484,-15.137,-13.672,-53.711,-25.391,0.000
1714028223.488,-15.625,-15.137,-44.434,-27.344,0.000
1714028223.492,-13.184,-13.672,-38.574,-24.902,0.000
1714028223.496,-14.160,-18.066,-40.527,-24.902,0.000
1714028223.500,-17.090,-20.996,-40.527,-29.785,0.000
1714028223.503,-18.555,-21.484,-37.109,-27.832,0.000
1714028223.507,-14.648,-18.555,-34.668,-30.762,0.000
1714028223.511,-13.184,-14.160,-30.273,-30.273,0.000
1714028223.515,-15.137,-18.066,-34.180,-27.344,0.000
1714028223.519,-11.230,-14.160,-42.480,-26.367,0.000
1714028223.523,-8.789,-14.160,-35.156,-23.926,0.000
1714028223.527,-11.719,-21.973,-28.809,-21.973,0.000
1714028223.531,-16.602,-20.996,-33.203,-20.996,0.000
1714028223.535,-20.996,-19.531,-36.133,-20.508,0.000
1714028223.539,-25.391,-23.438,-33.203,-16.602,0.000
1714028223.543,-23.926,-25.879,-25.879,-21.973,0.000
1714028223.546,-19.043,-23.438,-24.414,-24.902,0.000
1714028223.550,-17.578,-22.461,-28.320,-14.648,0.000
1714028223.554,-19.531,-22.461,-30.273,-17.578,0.000
1714028223.558,-19.531,-20.508,-28.809,-23.926,0.000
1714028223.562,-22.461,-20.508,-24.902,-17.090,0.000
1714028223.566,-26.367,-24.414,-30.273,-9.766,0.000
1714028223.570,-24.414,-25.391,-34.180,-18.066,0.000
1714028223.574,-20.996,-22.461,-30.762,-23.438,0.000
1714028223.578,-16.113,-21.973,-25.391,-20.508,0.000
1714028223.582,-12.207,-25.391,-21.484,-18.066,0.000
1714028223.585,-14.648,-25.391,-27.832,-19.043,0.000
1714028223.589,-20.508,-22.949,-31.738,-23.438,0.000
1714028223.593,-20.508,-21.973,-26.855,-21.973,0.000
1714028223.597,-16.113,-20.508,-24.414,-17.578,0.000
1714028223.601,-22.461,-19.531,-27.344,-19.043,0.000
1714028223.605,-24.414,-23.438,-27.832,-24.902,0.000
1714028223.609,-17.578,-21.484,-25.391,-23.926,0.000
1714028223.613,-19.043,-16.602,-28.320,-23.438,0.000
1714028223.617,-22.461,-22.949,-32.715,-23.926,0.000
1714028223.621,-21.973,-24.414,-24.414,-22.461,0.000
1714028223.625,-18.555,-22.461,-24.902,-22.949,0.000
1714028223.628,-24.414,-24.902,-30.762,-22.949,0.000
1714028223.632,-30.273,-30.273,-30.762,-23.926,0.000
1714028223.636,-30.762,-32.715,-30.273,-28.320,0.000
1714028223.640,-34.180,-31.738,-26.855,-33.203,0.000
1714028223.644,-38.086,-34.668,-23.438,-33.203,0.000
1714028223.648,-41.016,-36.621,-27.832,-35.645,0.000
1714028223.652,-38.574,-37.598,-31.738,-28.320,0.000
1714028223.656,-30.762,-31.250,-28.809,-16.602,0.000
1714028223.660,-24.414,-26.367,-27.832,-11.719,0.000
1714028223.664,-25.391,-32.227,-23.926,-15.137,0.000
1714028223.668,-35.156,-36.133,-25.391,-22.949,0.000
1714028223.671,-40.039,-36.133,-31.250,-25.879,0.000
1714028223.675,-36.133,-33.203,-39.062,-27.344,0.000
1714028223.679,-30.762,-27.344,-39.062,-32.227,0.000
1714028223.683,-19.531,-24.902,-44.434,-20.996,0.000
1714028223.687,-3.418,-23.438,-43.945,-2.441,0.000
1714028223.691,-14.648,-25.391,-29.785,-13.184,0.000
1714028223.695,-36.621,-28.320,-24.902,-31.250,0.000
1714028223.699,-28.320,-31.250,-22.949,-28.320,0.000
1714028223.703,-17.578,-31.738,-19.043,-15.625,0.000
1714028223.707,-13.184,-35.156,-25.391,-2.441,0.000
1714028223.710,-14.648,-33.203,-31.250,-0.488,0.000
1714028223.714,-23.438,-34.180,-33.203,-9.766,0.000
1714028223.718,-18.555,-35.156,-37.109,-4.395,0.000
1714028223.722,-14.160,-30.273,-36.621,-3.418,0.000
1714028223.726,-12.207,-28.809,-39.551,-7.812,0.000
1714028223.730,-10.742,-31.250,-44.922,-4.395,0.000
1714028223.734,-15.137,-31.738,-42.480,4.395,0.000
1714028223.738,-19.043,-27.344,-36.133,-0.488,0.000
1714028223.742,-18.555,-26.855,-35.645,-6.836,0.000
1714028223.746,-21.484,-29.297,-32.715,-5.859,0.000
1714028223.750,-17.090,-26.855,-25.879,-3.906,0.000
1714028223.753,-7.324,-21.973,-34.180,3.906,0.000
1714028223.757,-11.230,-26.367,-41.016,-10.254,0.000
1714028223.761,-16.602,-33.691,-40.039,-20.020,0.000
1714028223.765,-17.578,-30.762,-41.016,-11.719,0.000
1714028223.769,-13.184,-20.508,-38.086,-8.301,0.000
1714028223.773,-13.184,-18.066,-39.062,-17.578,0.000
1714028223.777,-15.625,-27.832,-46.875,-21.484,0.000
1714028223.781,-17.578,-30.273,-47.363,-23.438,0.000
1714028223.785,-20.508,-30.273,-38.574,-28.809,0.000
1714028223.789,-23.438,-36.621,-34.668,-29.297,0.000
1714028223.792,-21.973,-34.180,-39.062,-30.273,0.000
1714028223.796,-17.578,-27.832,-41.016,-29.297,0.000
1714028223.800,-18.555,-25.879,-34.668,-27.344,0.000
1714028223.804,-20.020,-22.949,-33.203,-25.391,0.000
1714028223.808,-16.113,-20.996,-34.668,-23.438,0.000
1714028223.812,-13.672,-25.391,-32.715,-19.043,0.000
1714028223.816,-14.648,-28.809,-31.738,-9.277,0.000
1714028223.820,-15.625,-28.320,-26.367,-6.836,0.000
1714028223.824,-19.043,-30.762,-19.531,-7.324,0.000
1714028223.828,-20.508,-30.273,-14.648,-9.766,0.000
1714028223.832,-17.090,-22.949,-23.438,-16.113,0.000
1714028223.835,-20.508,-26.367,-42.480,-17.578,0.000
1714028223.839,-25.879,-29.785,-44.922,-19.531,0.000
1714028223.843,-19.531,-24.902,-37.598,-20.508,0.000
1714028223.847,-23.438,-28.809,-37.109,-24.414,0.000
1714028223.851,-29.785,-31.738,-44.434,-23.926,0.000
1714028223.855,-24.902,-26.367,-44.434,-20.996,0.000
1714028223.859,-22.949,-26.855,-34.668,-24.414,0.000
1714028223.863,-20.020,-30.273,-35.156,-21.973,0.000
1714028223.867,-20.508,-30.762,-39.551,-15.625,0.000
1714028223.871,-23.438,-30.273,-45.898,-15.137,0.000
1714028223.875,-20.020,-26.367,-41.992,-25.391,0.000
1714028223.878,-24.902,-25.879,-38.574,-22.461,0.000
1714028223.882,-27.344,-26.367,-47.363,-16.113,0.000
1714028223.886,-21.973,-26.855,-42.480,-18.555,0.000
1714028223.890,-22.461,-28.320,-33.691,-23.438,0.000
1714028223.894,-21.973,-30.273,-34.668,-32.715,0.000
1714028223.898,-23.438,-35.156,-38.086,-34.180,0.000
1714028223.902,-26.855,-33.203,-36.621,-28.809,0.000
1714028223.906,-28.809,-25.391,-37.598,-27.832,0.000
1714028223.910,-33.203,-27.344,-36.621,-32.227,0.000
1714028223.914,-34.180,-32.227,-41.504,-27.344,0.000
1714028223.917,-35.156,-31.738,-42.480,-23.926,0.000
1714028223.921,-31.738,-31.738,-32.715,-18.555,0.000
1714028223.925,-14.160,-32.715,-29.785,-4.395,0.000
1714028223.929,-6.836,-27.832,-21.973,-8.301,0.000
1714028223.933,-15.625,-26.367,-19.043,-16.602,0.000
1714028223.937,-26.855,-28.809,-32.715,-23.438,0.000
1714028223.941,-35.645,-33.203,-36.133,-31.250,0.000
1714028223.945,-42.969,-32.715,-25.391,-41.992,0.000
1714028223.949,-45.410,-27.832,-23.438,-45.898,0.000
1714028223.953,-41.992,-20.020,-29.785,-38.086,0.000
1714028223.957,-42.969,-25.879,-33.691,-33.203,0.000
1714028223.960,-41.016,-35.156,-37.598,-31.250,0.000
1714028223.964,-35.156,-30.762,-30.762,-32.715,0.000
1714028223.968,-33.203,-27.832,-21.973,-27.344,0.000
1714028223.972,-30.273,-29.297,-26.367,-28.320,0.000
1714028223.976,-33.691,-35.645,-34.180,-44.434,0.000
1714028223.980,-38.574,-37.109,-29.785,-44.922,0.000
1714028223.984,-30.762,-36.621,-19.043,-29.297,0.000
1714028223.988,-27.344,-33.691,-19.043,-30.762,0.000
1714028223.992,-30.273,-28.809,-21.973,-35.645,0.000
1714028223.996,-26.855,-31.738,-21.973,-38.574,0.000
1714028224.000,-28.809,-34.668,-26.855,-37.598,0.000
1714028224.003,-25.879,-28.320,-35.156,-28.320,0.000
1714028224.007,-26.855,-24.414,-35.645,-29.785,0.000
1714028224.011,-30.762,-23.926,-29.785,-30.273,0.000
1714028224.015,-29.785,-27.832,-25.879,-26.367,0.000
1714028224.019,-27.344,-34.668,-25.879,-23.438,0.000
1714028224.023,-27.344,-28.320,-22.461,-31.250,0.000
1714028224.027,-28.320,-23.438,-24.902,-37.109,0.000
1714028224.031,-24.414,-28.809,-30.762,-32.227,0.000
1714028224.035,-18.555,-25.391,-23.926,-26.367,0.000
1714028224.039,-21.484,-28.320,-23.926,-28.320,0.000
1714028224.042,-25.879,-30.762,-33.691,-27.344,0.000
1714028224.046,-20.996,-29.297,-32.227,-22.461,0.000
1714028224.050,-17.090,-28.320,-31.738,-23.926,0.000
1714028224.054,-20.020,-22.461,-35.645,-22.461,0.000
1714028224.058,-21.973,-21.484,-33.203,-25.879,0.000
1714028224.062,-23.438,-25.879,-29.297,-25.391,0.000
1714028224.066,-25.391,-27.344,-33.203,-20.020,0.000
1714028224.070,-27.344,-26.855,-35.645,-21.484,0.000
1714028224.074,-29.297,-22.461,-30.273,-23.438,0.000
1714028224.078,-23.926,-14.648,-27.832,-24.414,0.000
1714028224.082,-22.949,-19.531,-30.273,-27.832,0.000
1714028224.085,-28.320,-25.391,-28.809,-24.902,0.000
1714028224.089,-27.832,-25.391,-29.297,-24.414,0.000
1714028224.093,-29.785,-25.391,-30.762,-31.738,0.000
1714028224.097,-31.250,-21.484,-25.879,-23.438,0.000
1714028224.101,-24.414,-17.090,-20.508,-16.602,0.000
1714028224.105,-26.367,-21.973,-20.020,-21.484,0.000
1714028224.109,-34.180,-27.344,-27.344,-19.531,0.000
1714028224.113,-32.227,-25.391,-32.227,-13.672,0.000
1714028224.117,-26.855,-31.250,-32.227,-21.973,0.000
1714028224.121,-30.762,-36.621,-32.715,-28.320,0.000
1714028224.125,-31.738,-32.227,-39.551,-24.414,0.000
1714028224.128,-32.227,-27.832,-39.551,-28.320,0.000
1714028224.132,-29.297,-23.438,-38.086,-27.832,0.000
1714028224.136,-29.785,-26.855,-37.109,-26.367,0.000
1714028224.140,-34.668,-31.250,-36.621,-29.297,0.000
1714028224.144,-34.180,-28.320,-40.527,-28.809,0.000
1714028224.148,-34.180,-25.391,-37.109,-29.785,0.000
1714028224.152,-32.227,-28.320,-37.598,-23.926,0.000
1714028224.156,-28.320,-29.785,-45.410,-17.578,0.000
1714028224.160,-29.297,-28.320,-46.387,-24.414,0.000
1714028224.164,-23.438,-31.250,-42.969,-26.367,0.000
1714028224.167,-18.066,-30.273,-35.645,-21.484,0.000
1714028224.171,-21.484,-22.949,-34.180,-23.438,0.000
1714028224.175,-25.391,-24.902,-31.738,-27.344,0.000
1714028224.179,-27.832,-28.320,-34.180,-28.809,0.000
1714028224.183,-25.391,-25.879,-41.504,-23.926,0.000
1714028224.187,-22.949,-24.902,-40.039,-25.879,0.000
1714028224.191,-21.973,-23.926,-34.180,-25.879,0.000
1714028224.195,-26.367,-28.320,-34.180,-21.973,0.000
1714028224.199,-27.344,-31.250,-41.016,-17.578,0.000
1714028224.203,-23.438,-24.414,-34.668,-18.555,0.000
1714028224.207,-20.996,-20.996,-26.367,-23.438,0.000
1714028224.210,-16.602,-17.090,-30.273,-18.555,0.000
1714028224.214,-14.648,-20.996,-33.203,-13.184,0.000
1714028224.218,-12.695,-25.391,-38.086,-13.184,0.000
1714028224.222,-15.137,-24.414,-39.551,-17.578,0.000
1714028224.226,-15.625,-24.414,-38.086,-18.555,0.000
1714028224.230,-10.254,-24.902,-33.203,-23.926,0.000
1714028224.234,-8.301,-20.508,-31.250,-28.320,0.000
1714028224.238,-1.465,-14.160,-37.598,-35.645,0.000
1714028224.242,10.254,-15.625,-38.574,-29.785,0.000
1714028224.246,7.324,-21.973,-29.785,-25.879,0.000
1714028224.250,-5.371,-29.785,-25.391,-31.250,0.000
1714028224.253,-3.906,-26.855,-34.668,-23.926,0.000
1714028224.257,-15.137,-25.391,-34.180,-27.344,0.000
1714028224.261,-30.762,-27.344,-31.738,-32.715,0.000
1714028224.265,-29.297,-23.926,-30.273,-24.414,0.000
1714028224.269,-31.738,-26.367,-29.785,-22.461,0.000
1714028224.273,-34.180,-26.855,-32.715,-22.949,0.000
1714028224.277,-37.598,-29.297,-38.574,-29.297,0.000
1714028224.281,-36.621,-29.785,-33.691,-27.832,0.000
1714028224.285,-34.668,-30.273,-24.902,-13.672,0.000
1714028224.289,-31.738,-32.227,-36.621,-10.254,0.000
1714028224.292,-25.879,-31.250,-42.480,-12.695,0.000
1714028224.296,-18.555,-27.832,-42.480,-10.742,0.000
1714028224.300,-17.090,-23.438,-44.922,-7.324,0.000
1714028224.304,-29.297,-24.414,-40.527,-20.020,0.000
1714028224.308,-34.180,-25.879,-32.715,-32.715,0.000
1714028224.312,-22.949,-24.902,-26.855,-23.438,0.000
1714028224.316,-13.672,-19.531,-24.902,-5.859,0.000
1714028224.320,-12.695,-20.996,-23.926,-2.930,0.000
1714028224.324,-12.207,-26.367,-23.438,-5.859,0.000
1714028224.328,-10.742,-29.297,-27.344,-15.137,0.000
1714028224.332,-13.184,-30.762,-37.598,-15.137,0.000
1714028224.335,-12.695,-26.367,-43.457,-7.324,0.000
1714028224.339,-14.648,-25.879,-34.180,-8.789,0.000
1714028224.343,-19.043,-26.367,-32.715,-17.090,0.000
1714028224.347,-15.625,-28.320,-34.668,-11.719,0.000
1714028224.351,-20.020,-27.832,-31.250,-6.348,0.000
1714028224.355,-20.508,-26.367,-28.809,-8.789,0.000
1714028224.359,-15.625,-29.785,-27.344,-6.836,0.000
1714028224.363,-17.578,-31.738,-28.320,-11.719,0.000
1714028224.367,-21.484,-31.250,-30.762,-12.695,0.000
1714028224.371,-18.555,-29.785,-37.598,-7.324,0.000
1714028224.375,-17.578,-26.855,-38.574,-14.648,0.000
1714028224.378,-19.043,-27.344,-32.715,-21.973,0.000
1714028224.382,-21.973,-30.762,-31.738,-20.996,0.000
1714028224.386,-21.973,-26.855,-29.785,-20.996,0.000
1714028224.390,-20.020,-23.438,-26.367,-22.461,0.000
1714028224.394,-14.648,-21.973,-25.879,-19.043,0.000
1714028224.398,-7.812,-17.578,-22.949,-20.020,0.000
1714028224.402,-10.254,-17.090,-18.555,-23.438,0.000
1714028224.406,-18.555,-19.043,-25.391,-29.297,0.000
1714028224.410,-18.066,-18.555,-29.297,-31.738,0.000
1714028224.414,-22.461,-19.531,-24.414,-28.320,0.000
1714028224.418,-25.879,-23.438,-24.414,-23.926,0.000
1714028224.421,-20.020,-20.996,-28.809,-18.066,0.000
1714028224.425,-20.996,-22.461,-27.344,-27.832,0.000
1714028224.429,-23.926,-29.785,-25.391,-33.203,0.000
1714028224.433,-22.461,-26.855,-25.879,-28.320,0.000
1714028224.437,-25.391,-27.832,-28.809,-23.926,0.000
1714028224.441,-22.461,-26.855,-29.785,-17.578,0.000
1714028224.445,-22.949,-17.578,-28.320,-21.484,0.000
1714028224.449,-26.367,-19.043,-27.344,-14.648,0.000
1714028224.453,-22.949,-27.344,-33.691,-7.324,0.000
1714028224.457,-22.949,-29.297,-33.203,-14.160,0.000
1714028224.460,-22.949,-31.738,-32.227,-20.020,0.000
1714028224.464,-21.973,-34.180,-34.668,-18.066,0.000
1714028224.468,-21.973,-28.320,-28.809,-10.742,0.000
1714028224.472,-15.137,-20.996,-21.484,-3.418,0.000
1714028224.476,-17.578,-16.113,-21.973,-12.207,0.000
1714028224.480,-25.879,-22.461,-29.785,-21.973,0.000
1714028224.484,-22.949,-27.344,-37.598,-13.672,0.000
1714028224.488,-25.879,-26.367,-33.203,-16.602,0.000
1714028224.492,-38.574,-29.785,-31.250,-21.973,0.000
1714028224.496,-33.203,-26.367,-39.062,-19.531,0.000
1714028224.500,-24.902,-20.996,-38.574,-17.090,0.000
1714028224.503,-17.578,-22.949,-34.180,-14.648,0.000
1714028224.507,-11.719,-25.391,-26.855,-20.020,0.000
1714028224.511,-22.461,-28.809,-23.926,-25.879,0.000
1714028224.515,-28.320,-30.273,-31.738,-27.344,0.000
1714028224.519,-26.367,-28.320,-36.621,-24.414,0.000
1714028224.523,-33.203,-25.391,-34.180,-31.250,0.000
1714028224.527,-35.156,-29.297,-37.598,-36.621,0.000
1714028224.531,-37.598,-34.180,-37.598,-32.227,0.000
1714028224.535,-38.086,-29.785,-31.738,-26.367,0.000
1714028224.539,-30.273,-27.344,-32.227,-18.555,0.000
1714028224.542,-24.414,-25.879,-32.227,-21.484,0.000
1714028224.546,-26.367,-25.391,-28.320,-25.391,0.000
1714028224.550,-32.715,-22.461,-27.344,-23.926,0.000
1714028224.554,-36.621,-27.344,-32.715,-23.926,0.000
1714028224.558,-34.668,-33.691,-34.180,-26.855,0.000
1714028224.562,-32.715,-32.227,-33.691,-28.809,0.000
1714028224.566,-41.504,-31.250,-35.645,-33.203,0.000
1714028224.570,-36.133,-24.902,-36.133,-29.785,0.000
1714028224.574,-26.367,-23.926,-29.785,-20.508,0.000
1714028224.578,-23.438,-22.461,-19.043,-23.438,0.000
1714028224.582,-21.484,-18.066,-12.207,-23.926,0.000
1714028224.585,-25.391,-19.043,-17.578,-17.090,0.000
1714028224.589,-25.879,-26.855,-18.555,-17.578,0.000
1714028224.593,-27.832,-24.902,-19.531,-21.973,0.000
1714028224.597,-35.156,-22.949,-30.273,-25.879,0.000
1714028224.601,-33.691,-25.879,-35.645,-18.555,0.000
1714028224.605,-31.250,-24.414,-35.156,-19.043,0.000
1714028224.609,-22.949,-20.996,-30.273,-26.855,0.000
1714028224.613,-6.348,-20.020,-35.156,-19.043,0.000
1714028224.617,-12.207,-28.320,-35.645,-12.695,0.000
1714028224.621,-31.250,-34.180,-29.297,-20.508,0.000
1714028224.625,-35.645,-23.926,-28.320,-36.133,0.000
1714028224.628,-33.691,-25.391,-24.902,-41.504,0.000
1714028224.632,-28.320,-34.180,-27.344,-24.902,0.000
1714028224.636,-22.949,-34.668,-34.180,-11.719,0.000
1714028224.640,-20.996,-33.203,-30.762,-18.555,0.000
1714028224.644,-19.531,-31.250,-23.438,-25.879,0.000
1714028224.648,-19.043,-32.227,-30.762,-29.297,0.000
1714028224.652,-23.926,-29.785,-39.062,-26.367,0.000
1714028224.656,-24.902,-28.320,-33.203,-27.832,0.000
1714028224.660,-18.066,-26.367,-29.785,-29.297,0.000
1714028224.664,-21.973,-30.762,-34.180,-25.879,0.000
1714028224.667,-24.902,-39.062,-33.203,-20.020,0.000
1714028224.671,-22.461,-36.133,-26.855,-19.043,0.000
1714028224.675,-24.902,-29.297,-25.391,-22.949,0.000
1714028224.679,-24.902,-27.832,-27.344,-27.344,0.000
1714028224.683,-23.438,-23.438,-25.391,-28.320,0.000
1714028224.687,-22.461,-20.996,-15.625,-25.879,0.000
1714028224.691,-16.602,-22.949,-17.578,-25.391,0.000
1714028224.695,-19.043,-25.391,-31.250,-28.320,0.000
1714028224.699,-26.367,-28.320,-25.879,-23.438,0.000
1714028224.703,-24.414,-28.320,-19.531,-14.648,0.000
1714028224.707,-23.438,-25.879,-20.020,-17.090,0.000
1714028224.710,-23.438,-25.879,-26.367,-17.578,0.000
1714028224.714,-29.297,-24.902,-35.156,-22.949,0.000
1714028224.718,-24.414,-19.043,-33.691,-23.438,0.000
1714028224.722,-19.043,-20.020,-32.715,-21.484,0.000
1714028224.726,-28.809,-32.715,-34.668,-23.926,0.000
1714028224.730,-29.785,-36.621,-33.203,-19.043,0.000
1714028224.734,-24.414,-36.133,-25.879,-14.160,0.000
1714028224.738,-21.484,-33.203,-21.973,-17.578,0.000
1714028224.742,-18.066,-28.320,-20.508,-25.879,0.000
1714028224.746,-20.508,-30.273,-23.926,-25.391,0.000
1714028224.750,-23.926,-28.809,-34.180,-22.461,0.000
1714028224.753,-24.414,-29.785,-36.133,-15.625,0.000
1714028224.757,-23.926,-25.879,-32.715,-13.672,0.000
1714028224.761,-21.973,-24.902,-28.809,-20.508,0.000
1714028224.765,-23.438,-28.809,-25.879,-17.578,0.000
1714028224.769,-20.020,-23.926,-27.344,-6.836,0.000
1714028224.773,-20.508,-21.484,-29.785,-7.812,0.000
1714028224.777,-23.438,-25.879,-28.809,-16.602,0.000
1714028224.781,-24.414,-29.785,-33.203,-22.461,0.000
1714028224.785,-26.855,-29.297,-32.227,-19.043,0.000
1714028224.789,-24.414,-23.926,-32.715,-15.625,0.000
1714028224.792,-22.461,-20.996,-39.551,-25.391,0.000
1714028224.796,-19.531,-23.926,-34.668,-24.414,0.000
1714028224.800,-20.020,-31.738,-30.762,-21.484,0.000
1714028224.804,-17.578,-29.297,-30.762,-22.461,0.000
1714028224.808,-16.113,-23.926,-26.855,-21.973,0.000
1714028224.812,-21.973,-25.391,-27.832,-23.438,0.000
1714028224.816,-19.531,-26.367,-30.762,-21.484,0.000
1714028224.820,-19.043,-29.297,-33.203,-25.391,0.000
1714028224.824,-30.762,-31.738,-37.598,-35.156,0.000
1714028224.828,-31.250,-35.645,-43.945,-37.109,0.000
1714028224.832,-19.043,-33.203,-41.504,-27.832,0.000
1714028224.835,-20.996,-27.832,-27.832,-23.926,0.000
1714028224.839,-28.320,-27.344,-23.438,-23.438,0.000
1714028224.843,-26.367,-28.320,-34.180,-26.855,0.000
1714028224.847,-26.855,-30.762,-36.621,-29.297,0.000
1714028224.851,-28.320,-32.715,-35.645,-23.926,0.000
1714028224.855,-28.809,-26.367,-34.180,-16.113,0.000
1714028224.859,-24.414,-20.996,-27.344,-13.184,0.000
1714028224.863,-29.297,-20.996,-26.367,-21.484,0.000
1714028224.867,-36.621,-21.484,-31.250,-21.973,0.000
1714028224.871,-30.273,-23.438,-34.668,-14.648,0.000
1714028224.875,-30.762,-25.391,-33.691,-16.602,0.000
1714028224.878,-36.621,-29.297,-32.715,-23.926,0.000
1714028224.882,-34.668,-31.250,-32.227,-23.926,0.000
1714028224.886,-31.250,-31.738,-32.227,-20.020,0.000
1714028224.890,-31.250,-30.762,-33.691,-25.391,0.000
1714028224.894,-35.156,-31.250,-37.109,-36.133,0.000
1714028224.898,-34.180,-30.273,-35.645,-33.203,0.000
1714028224.902,-30.762,-30.273,-35.156,-21.973,0.000
1714028224.906,-36.133,-32.715,-41.504,-24.902,0.000
1714028224.910,-37.109,-34.668,-40.039,-37.109,0.000
1714028224.914,-31.738,-32.227,-36.133,-37.598,0.000
1714028224.917,-26.855,-25.391,-30.762,-20.996,0.000
1714028224.921,-28.809,-24.902,-27.344,-16.602,0.000
1714028224.925,-33.691,-28.809,-21.973,-26.367,0.000
1714028224.929,-28.809,-26.855,-23.438,-22.461,0.000
1714028224.933,-30.762,-27.344,-32.715,-25.879,0.000
1714028224.937,-38.574,-31.738,-32.227,-37.109,0.000
1714028224.941,-39.062,-32.227,-34.180,-38.574,0.000
1714028224.945,-40.527,-31.738,-35.645,-39.551,0.000
1714028224.949,-38.086,-24.902,-31.738,-28.809,0.000
1714028224.953,-29.297,-24.414,-28.320,-19.531,0.000
1714028224.957,-29.785,-28.320,-28.320,-27.344,0.000
1714028224.960,-32.227,-28.809,-29.785,-31.250,0.000
1714028224.964,-32.227,-31.738,-32.227,-23.438,0.000
1714028224.968,-24.902,-29.297,-32.715,-15.625,0.000
1714028224.972,-25.879,-29.785,-28.320,-20.508,0.000
1714028224.976,-35.156,-29.297,-30.762,-21.484,0.000
1714028224.980,-32.227,-22.949,-24.414,-23.926,0.000
1714028224.984,-24.414,-18.066,-18.555,-20.996,0.000
1714028224.988,-19.531,-21.484,-22.949,-14.160,0.000
1714028224.992,-21.484,-25.879,-18.066,-15.137,0.000
1714028224.996,-23.926,-29.785,-11.230,-15.625,0.000
1714028224.999,-24.414,-24.902,-17.090,-11.719,0.000
1714028225.003,-27.344,-24.414,-22.949,-14.160,0.000
1714028225.007,-26.367,-28.320,-22.949,-20.020,0.000
1714028225.011,-24.414,-25.879,-23.926,-24.414,0.000
1714028225.015,-32.227,-29.297,-24.414,-25.879,0.000
1714028225.019,-28.809,-29.297,-18.066,-19.043,0.000
1714028225.023,-16.602,-27.344,-15.137,-15.625,0.000
1714028225.027,-18.555,-30.273,-12.207,-21.973,0.000
1714028225.031,-24.902,-27.344,-12.207,-22.461,0.000
1714028225.035,-21.973,-20.508,-19.043,-17.578,0.000
1714028225.039,-24.414,-22.949,-29.297,-12.695,0.000
1714028225.042,-23.926,-28.809,-26.367,-17.578,0.000
1714028225.046,-22.949,-27.344,-25.391,-30.762,0.000
1714028225.050,-28.809,-27.344,-31.738,-32.715,0.000
1714028225.054,-26.855,-25.391,-27.344,-30.762,0.000
1714028225.058,-21.973,-21.484,-27.344,-27.344,0.000
1714028225.062,-26.855,-20.020,-20.508,-26.855,0.000
1714028225.066,-30.273,-25.879,-17.578,-30.762,0.000
1714028225.070,-33.203,-25.391,-30.762,-33.691,0.000
1714028225.074,-37.109,-25.879,-29.785,-33.691,0.000
1714028225.078,-34.668,-33.203,-29.297,-35.645,0.000
1714028225.082,-32.227,-34.180,-34.180,-30.273,0.000
1714028225.085,-32.715,-36.621,-36.133,-20.996,0.000
1714028225.089,-27.832,-33.203,-30.273,-23.438,0.000
1714028225.093,-22.949,-31.250,-24.414,-24.902,0.000
1714028225.097,-24.902,-33.691,-28.320,-23.926,0.000
1714028225.101,-25.391,-28.809,-28.809,-22.461,0.000
1714028225.105,-20.508,-25.879,-20.508,-24.414,0.000
1714028225.109,-26.367,-30.762,-20.996,-33.203,0.000
1714028225.113,-33.691,-34.180,-27.832,-37.109,0.000
1714028225.117,-30.762,-34.668,-30.273,-33.691,0.000
1714028225.121,-26.367,-32.715,-30.762,-28.320,0.000
1714028225.124,-31.738,-29.297,-28.809,-27.344,0.000
1714028225.128,-35.156,-29.297,-28.809,-26.367,0.000
1714028225.132,-32.227,-27.344,-24.414,-24.902,0.000
1714028225.136,-29.785,-23.926,-22.461,-27.832,0.000
1714028225.140,-31.738,-29.297,-26.855,-36.133,0.000
1714028225.144,-30.762,-32.227,-26.367,-30.762,0.000
1714028225.148,-23.438,-26.367,-23.926,-17.578,0.000
1714028225.152,-24.902,-27.344,-21.484,-17.578,0.000
1714028225.156,-23.438,-30.762,-17.090,-17.090,0.000
1714028225.160,-20.020,-24.902,-14.648,-16.602,0.000
1714028225.164,-21.484,-18.066,-14.160,-20.996,0.000
1714028225.167,-25.879,-21.973,-15.625,-18.066,0.000
1714028225.171,-23.438,-26.855,-21.973,-17.578,0.000
1714028225.175,-18.555,-27.832,-30.762,-19.531,0.000
1714028225.179,-18.066,-33.691,-38.574,-24.414,0.000
1714028225.183,-18.555,-33.691,-39.551,-26.367,0.000
1714028225.187,-12.207,-29.785,-36.621,-23.926,0.000
1714028225.191,-6.348,-26.367,-30.762,-20.996,0.000
1714028225.195,-7.324,-20.020,-24.414,-20.508,0.000
1714028225.199,-14.160,-23.926,-26.855,-18.066,0.000
1714028225.203,-19.043,-32.715,-25.391,-18.555,0.000
1714028225.207,-22.461,-31.250,-19.531,-21.484,0.000
1714028225.210,-25.879,-30.762,-24.414,-28.320,0.000
1714028225.214,-28.809,-35.645,-28.809,-27.344,0.000
1714028225.218,-31.250,-38.574,-34.180,-20.020,0.000
1714028225.222,-34.668,-37.109,-41.992,-21.484,0.000
1714028225.226,-39.551,-31.738,-38.086,-25.879,0.000
1714028225.230,-44.434,-31.250,-35.156,-31.250,0.000
1714028225.234,-45.898,-39.062,-35.156,-27.832,0.000
1714028225.238,-39.062,-38.574,-31.250,-24.902,0.000
1714028225.242,-28.320,-34.668,-30.762,-30.762,0.000
1714028225.246,-22.461,-30.762,-31.738,-22.461,0.000
1714028225.250,-20.996,-28.809,-31.250,-11.230,0.000
1714028225.253,-20.020,-29.297,-28.320,-15.137,0.000
1714028225.257,-24.414,-28.320,-27.832,-18.555,0.000
1714028225.261,-20.020,-22.949,-29.785,-19.531,0.000
1714028225.265,-18.066,-25.879,-35.645,-26.855,0.000
1714028225.269,-25.391,-35.645,-35.645,-33.691,0.000
1714028225.273,-21.973,-31.738,-30.273,-33.691,0.000
1714028225.277,-20.996,-32.227,-27.832,-29.297,0.000
1714028225.281,-21.973,-33.203,-23.926,-21.484,0.000
1714028225.285,-26.367,-30.762,-23.926,-21.973,0.000
1714028225.289,-28.320,-32.715,-29.785,-29.785,0.000
1714028225.292,-18.555,-31.738,-28.320,-25.391,0.000
1714028225.296,-17.578,-26.367,-23.926,-17.090,0.000
1714028225.300,-25.391,-27.832,-25.391,-21.973,0.000
1714028225.304,-17.578,-26.367,-23.926,-19.043,0.000
1714028225.308,-15.625,-25.879,-20.996,-23.926,0.000
1714028225.312,-20.508,-27.344,-25.879,-28.809,0.000
1714028225.316,-20.020,-31.250,-28.320,-19.043,0.000
1714028225.320,-19.531,-34.668,-25.879,-21.484,0.000
1714028225.324,-17.090,-32.227,-29.785,-25.879,0.000
1714028225.328,-12.207,-29.297,-30.762,-20.996,0.000
1714028225.332,-4.395,-24.414,-26.367,-12.207,0.000
1714028225.335,-17.578,-24.414,-26.367,-11.719,0.000
1714028225.339,-35.156,-26.855,-28.809,-30.762,0.000
1714028225.343,-30.273,-28.809,-27.832,-38.574,0.000
1714028225.347,-30.762,-25.879,-23.926,-32.715,0.000
1714028225.351,-41.504,-25.391,-22.949,-24.414,0.000
1714028225.355,-41.016,-29.297,-24.902,-28.809,0.000
1714028225.359,-35.156,-27.832,-30.762,-35.156,0.000
1714028225.363,-32.715,-23.926,-32.715,-36.133,0.000
1714028225.367,-29.785,-27.344,-30.762,-27.832,0.000
1714028225.371,-29.785,-28.809,-29.785,-20.508,0.000
1714028225.374,-30.762,-25.391,-26.855,-29.297,0.000
1714028225.378,-27.344,-26.367,-23.438,-34.180,0.000
1714028225.382,-24.902,-24.902,-21.973,-25.391,0.000
1714028225.386,-23.926,-19.531,-21.484,-19.043,0.000
1714028225.390,-23.926,-20.508,-26.367,-24.414,0.000
1714028225.394,-24.414,-23.438,-30.762,-26.855,0.000
1714028225.398,-29.297,-25.391,-32.227,-24.902,0.000
1714028225.402,-27.832,-26.855,-27.832,-18.066,0.000
1714028225.406,-17.578,-21.484,-24.902,-17.578,0.000
1714028225.410,-21.484,-26.855,-30.762,-30.273,0.000
1714028225.414,-23.926,-34.180,-35.156,-28.320,0.000
1714028225.417,-20.508,-29.297,-29.297,-14.648,0.000
1714028225.421,-20.020,-34.668,-24.414,-12.207,0.000
1714028225.425,-18.066,-32.227,-29.297,-13.184,0.000
1714028225.429,-23.926,-23.438,-35.156,-20.996,0.000
1714028225.433,-20.508,-20.996,-38.574,-18.066,0.000
1714028225.437,-14.160,-17.090,-32.715,-18.066,0.000
1714028225.441,-19.531,-18.066,-28.809,-19.531,0.000
1714028225.445,-20.996,-21.973,-29.297,-20.508,0.000
1714028225.449,-19.043,-19.043,-29.785,-25.391,0.000
1714028225.453,-17.090,-22.949,-28.320,-20.996,0.000
1714028225.456,-15.137,-28.809,-26.855,-18.066,0.000
1714028225.460,-15.137,-28.320,-34.668,-23.438,0.000
1714028225.464,-17.578,-31.738,-36.621,-25.879,0.000
1714028225.468,-20.020,-29.785,-34.180,-17.578,0.000
1714028225.472,-20.020,-23.438,-34.180,-19.531,0.000
1714028225.476,-22.461,-21.973,-32.715,-23.438,0.000
1714028225.480,-24.902,-21.973,-28.809,-26.367,0.000
1714028225.484,-24.414,-20.996,-28.809,-28.809,0.000
1714028225.488,-20.996,-19.043,-30.273,-25.879,0.000
1714028225.492,-25.391,-22.461,-19.043,-23.926,0.000
1714028225.496,-19.043,-22.461,-19.043,-23.438,0.000
1714028225.499,-14.648,-25.391,-33.691,-21.484,0.000
1714028225.503,-21.484,-27.832,-32.227,-16.602,0.000
1714028225.507,-15.625,-23.438,-24.902,-17.090,0.000
1714028225.511,-12.207,-19.531,-28.320,-18.555,0.000
1714028225.515,-16.602,-20.020,-23.926,-16.113,0.000
1714028225.519,-20.508,-24.902,-19.043,-13.184,0.000
1714028225.523,-22.461,-28.809,-26.855,-14.648,0.000
1714028225.527,-24.902,-29.297,-30.273,-15.137,0.000
1714028225.531,-22.461,-29.297,-28.809,-13.184,0.000
1714028225.535,-21.484,-28.320,-26.367,-11.230,0.000
1714028225.539,-25.879,-25.879,-29.297,-11.719,0.000
1714028225.542,-26.855,-25.391,-33.691,-15.137,0.000
1714028225.546,-25.391,-25.879,-32.227,-21.973,0.000
1714028225.550,-27.344,-24.902,-35.645,-22.949,0.000
1714028225.554,-28.320,-26.855,-33.203,-20.508,0.000
1714028225.558,-22.461,-25.391,-29.785,-19.043,0.000
1714028225.562,-18.555,-20.020,-31.250,-15.137,0.000
1714028225.566,-21.973,-21.973,-25.879,-18.066,0.000
1714028225.570,-27.344,-20.020,-26.367,-25.879,0.000
1714028225.574,-30.273,-22.949,-29.785,-27.832,0.000
1714028225.578,-25.879,-22.949,-27.832,-30.762,0.000
1714028225.582,-29.297,-25.391,-27.832,-40.527,0.000
1714028225.585,-38.086,-26.367,-33.203,-37.598,0.000
1714028225.589,-35.645,-23.926,-37.109,-34.180,0.000
1714028225.593,-31.738,-29.297,-27.832,-38.574,0.000
1714028225.597,-38.574,-32.715,-23.438,-40.527,0.000
1714028225.601,-43.457,-28.320,-30.273,-36.133,0.000
1714028225.605,-34.180,-28.320,-29.297,-30.762,0.000
1714028225.609,-29.297,-28.809,-29.297,-33.691,0.000
1714028225.613,-28.809,-25.879,-26.855,-29.297,0.000
1714028225.617,-28.809,-28.320,-24.902,-29.297,0.000
1714028225.621,-27.344,-30.762,-30.273,-34.668,0.000
1714028225.625,-29.785,-29.785,-33.203,-35.156,0.000
1714028225.628,-31.738,-23.926,-38.086,-33.691,0.000
1714028225.632,-32.227,-28.320,-35.645,-38.574,0.000
1714028225.636,-30.762,-31.250,-29.785,-29.785,0.000
1714028225.640,-27.344,-24.902,-31.738,-21.484,0.000
1714028225.644,-32.715,-23.926,-34.180,-31.250,0.000
1714028225.648,-35.645,-24.414,-28.809,-29.785,0.000
1714028225.652,-32.227,-29.785,-29.297,-19.043,0.000
1714028225.656,-29.785,-29.785,-32.715,-23.438,0.000
1714028225.660,-27.344,-25.879,-30.762,-29.297,0.000
1714028225.664,-30.762,-23.438,-35.645,-21.973,0.000
1714028225.667,-36.621,-23.926,-32.715,-22.461,0.000
1714028225.671,-29.297,-23.438,-27.832,-22.949,0.000
1714028225.675,-20.508,-20.020,-25.391,-25.879,0.000
1714028225.679,-22.461,-21.973,-26.367,-31.250,0.000
1714028225.683,-26.367,-25.391,-30.762,-24.902,0.000
1714028225.687,-30.762,-25.391,-32.227,-27.344,0.000
1714028225.691,-28.320,-20.996,-30.273,-31.250,0.000
1714028225.695,-24.414,-20.508,-26.367,-26.855,0.000
1714028225.699,-24.414,-20.996,-19.531,-17.578,0.000
1714028225.703,-24.902,-20.020,-15.625,-15.625,0.000
1714028225.707,-23.926,-20.020,-25.879,-28.320,0.000
1714028225.710,-21.484,-22.949,-32.227,-30.273,0.000
1714028225.714,-20.508,-21.973,-34.668,-22.949,0.000
1714028225.718,-26.367,-19.531,-36.621,-20.996,0.000
1714028225.722,-31.738,-26.367,-37.598,-29.785,0.000
1714028225.726,-35.645,-29.297,-42.480,-39.062,0.000
1714028225.730,-33.691,-28.320,-40.527,-38.574,0.000
1714028225.734,-29.785,-31.738,-29.785,-28.809,0.000
1714028225.738,-28.809,-31.250,-28.809,-28.320,0.000
1714028225.742,-29.297,-33.691,-26.855,-35.645,0.000
1714028225.746,-27.832,-31.250,-24.414,-31.738,0.000
1714028225.749,-24.902,-21.484,-20.996,-22.461,0.000
1714028225.753,-20.996,-15.137,-22.461,-17.090,0.000
1714028225.757,-20.020,-17.090,-27.832,-23.438,0.000
1714028225.761,-20.020,-27.344,-24.902,-25.879,0.000
1714028225.765,-20.508,-29.785,-22.949,-21.484,0.000
1714028225.769,-19.043,-28.320,-27.832,-18.066,0.000
1714028225.773,-18.555,-31.738,-31.250,-17.578,0.000
1714028225.777,-27.832,-33.691,-32.715,-24.902,0.000
1714028225.781,-25.391,-29.297,-25.879,-20.996,0.000
1714028225.785,-18.555,-24.902,-21.973,-16.602,0.000
1714028225.789,-12.695,-21.973,-27.832,-10.742,0.000
1714028225.792,-16.113,-23.438,-31.738,-16.113,0.000
1714028225.796,-20.508,-24.902,-30.762,-26.855,0.000
1714028225.800,-13.672,-22.461,-30.762,-26.367,0.000
1714028225.804,-9.277,-28.320,-32.227,-21.484,0.000
1714028225.808,-8.301,-29.785,-27.344,-13.672,0.000
1714028225.812,-9.277,-24.902,-22.949,-18.066,0.000
1714028225.816,-12.207,-26.367,-27.344,-24.414,0.000
1714028225.820,-13.184,-24.902,-24.414,-25.879,0.000
1714028225.824,-14.648,-22.949,-27.344,-23.926,0.000
1714028225.828,-16.113,-27.832,-35.156,-20.508,0.000
1714028225.831,-12.695,-28.809,-30.273,-19.043,0.000
1714028225.835,-12.207,-26.367,-24.414,-9.277,0.000
1714028225.839,-16.113,-27.832,-27.344,-12.695,0.000
1714028225.843,-18.555,-27.344,-32.227,-19.043,0.000
1714028225.847,-23.438,-24.902,-28.809,-20.020,0.000
1714028225.851,-28.809,-22.461,-26.855,-22.461,0.000
1714028225.855,-26.367,-19.043,-25.391,-21.484,0.000
1714028225.859,-22.949,-20.996,-22.461,-20.020,0.000
1714028225.863,-27.832,-28.320,-25.879,-27.344,0.000
1714028225.867,-24.414,-30.762,-29.785,-27.344,0.000
1714028225.871,-23.926,-30.273,-29.785,-27.344,0.000
1714028225.874,-28.809,-28.809,-32.227,-29.785,0.000
1714028225.878,-29.297,-30.273,-28.809,-33.203,0.000
1714028225.882,-31.738,-32.715,-30.273,-33.203,0.000
1714028225.886,-33.203,-27.832,-33.203,-27.832,0.000
1714028225.890,-29.297,-20.020,-33.203,-30.273,0.000
1714028225.894,-27.344,-20.996,-35.645,-31.250,0.000
1714028225.898,-26.855,-22.461,-34.668,-34.668,0.000
1714028225.902,-26.855,-20.020,-32.227,-35.156,0.000
1714028225.906,-25.879,-17.090,-25.879,-36.133,0.000
1714028225.910,-22.461,-16.602,-29.297,-39.062,0.000
1714028225.914,-10.742,-15.625,-33.691,-26.855,0.000
1714028225.917,-15.625,-20.020,-28.320,-26.855,0.000
1714028225.921,-34.180,-26.855,-29.297,-40.527,0.000
1714028225.925,-31.738,-26.855,-31.250,-34.180,0.000
1714028225.929,-21.973,-24.902,-28.320,-30.762,0.000
1714028225.933,-19.531,-23.438,-27.344,-30.273,0.000
1714028225.937,-15.137,-22.461,-19.531,-19.043,0.000
1714028225.941,-15.137,-19.043,-17.090,-11.230,0.000
1714028225.945,-21.973,-18.066,-22.949,-21.973,0.000
1714028225.949,-20.996,-22.949,-23.926,-28.320,0.000
1714028225.953,-22.949,-21.973,-26.367,-20.508,0.000
1714028225.957,-25.879,-17.090,-28.320,-17.090,0.000
1714028225.960,-20.508,-15.625,-27.344,-25.879,0.000
1714028225.964,-22.461,-20.508,-30.273,-26.367,0.000
1714028225.968,-24.414,-21.973,-29.785,-17.090,0.000
1714028225.972,-13.184,-24.902,-21.973,-6.836,0.000
1714028225.976,-6.348,-23.926,-22.461,-5.371,0.000
1714028225.980,-22.461,-18.066,-27.344,-31.250,0.000
1714028225.984,-26.367,-12.207,-33.203,-38.086,0.000
1714028225.988,-15.137,-15.625,-35.645,-31.738,0.000
1714028225.992,-9.766,-20.508,-31.738,-28.809,0.000
1714028225.996,-12.695,-21.973,-33.203,-22.461,0.000
1714028225.999,-14.160,-23.438,-34.180,-19.531,0.000
1714028226.003,-11.719,-21.973,-35.645,-17.578,0.000
1714028226.007,-14.648,-25.879,-32.715,-22.949,0.000
1714028226.011,-15.137,-26.855,-32.715,-28.320,0.000
1714028226.015,-16.113,-26.855,-30.762,-24.902,0.000
1714028226.019,-13.672,-24.902,-22.949,-20.508,0.000
