timestamps,TP9,AF7,AF8,TP10,Right AUX
1714027285.654,-22.461,-23.438,-27.832,-19.531,0.000
1714027285.658,-19.043,-20.996,-20.020,-18.555,0.000
1714027285.662,-20.996,-22.949,-23.926,-24.902,0.000
1714027285.666,-26.855,-25.391,-29.785,-23.438,0.000
1714027285.670,-25.391,-23.926,-23.438,-12.695,0.000
1714027285.674,-19.531,-20.996,-24.902,-14.648,0.000
1714027285.678,-12.695,-18.555,-24.414,-9.277,0.000
1714027285.682,-20.508,-17.578,-19.043,-7.812,0.000
1714027285.686,-18.555,-18.066,-21.973,-13.672,0.000
1714027285.690,-10.742,-15.137,-19.531,-16.113,0.000
1714027285.693,-16.602,-17.090,-21.973,-25.879,0.000
1714027285.697,-16.113,-20.508,-27.832,-26.367,0.000
1714027285.697,-16.113,-20.508,-27.832,-26.367,0.000
1714027285.701,-12.207,-20.508,-23.926,-23.438,0.000
1714027285.705,-14.648,-24.414,-18.066,-27.344,0.000
1714027285.709,-21.484,-21.484,-16.113,-30.273,0.000
1714027285.713,-26.855,-17.578,-18.555,-27.832,0.000
1714027285.717,-29.297,-20.996,-21.973,-22.461,0.000
1714027285.721,-29.785,-22.461,-25.879,-22.461,0.000
1714027285.725,-30.273,-19.531,-28.320,-30.762,0.000
1714027285.729,-28.809,-16.113,-17.090,-39.062,0.000
1714027285.733,-24.414,-20.020,-17.090,-28.809,0.000
1714027285.736,-22.461,-18.555,-15.137,-17.090,0.000
1714027285.740,-21.484,-14.648,-11.719,-24.414,0.000
1714027285.744,-23.438,-16.602,-21.484,-27.832,0.000
1714027285.748,-22.949,-17.090,-13.672,-17.578,0.000
1714027285.752,-20.996,-22.949,-12.695,-13.672,0.000
1714027285.756,-25.879,-28.809,-20.996,-24.414,0.000
1714027285.760,-31.250,-28.320,-20.508,-33.691,0.000
1714027285.764,-34.668,-26.855,-27.344,-34.668,0.000
1714027285.768,-28.809,-31.250,-25.879,-27.344,0.000
1714027285.772,-28.320,-29.785,-21.973,-24.414,0.000
1714027285.776,-29.785,-26.855,-22.949,-26.367,0.000
1714027285.779,-22.461,-24.902,-22.461,-30.273,0.000
1714027285.783,-19.531,-23.926,-25.391,-23.438,0.000
1714027285.787,-18.066,-20.020,-21.484,-23.926,0.000
1714027285.791,-15.625,-14.160,-13.184,-31.738,0.000
1714027285.795,-20.996,-18.555,-20.020,-32.227,0.000
1714027285.799,-23.926,-25.879,-27.832,-36.621,0.000
1714027285.803,-26.855,-23.438,-28.320,-34.668,0.000
1714027285.807,-25.879,-21.484,-26.855,-32.227,0.000
1714027285.811,-17.578,-22.461,-20.020,-33.691,0.000
1714027285.815,-18.555,-20.020,-16.602,-26.855,0.000
1714027285.819,-19.531,-17.578,-12.207,-21.484,0.000
1714027285.822,-20.508,-19.043,-10.742,-30.273,0.000
1714027285.826,-18.555,-14.160,-13.672,-29.297,0.000
1714027285.830,-17.090,-15.137,-14.648,-16.113,0.000
1714027285.834,-17.578,-18.555,-13.672,-16.113,0.000
1714027285.838,-13.672,-17.578,-12.695,-17.090,0.000
1714027285.842,-15.137,-22.461,-20.996,-19.043,0.000
1714027285.846,-20.508,-23.438,-31.250,-24.902,0.000
1714027285.850,-20.508,-27.832,-33.203,-22.461,0.000
1714027285.854,-15.137,-26.855,-28.320,-18.066,0.000
1714027285.858,-19.531,-25.391,-23.926,-24.414,0.000
1714027285.862,-23.926,-28.320,-27.832,-24.414,0.000
1714027285.865,-23.438,-28.320,-20.508,-16.602,0.000
1714027285.869,-29.297,-29.785,-20.020,-19.043,0.000
1714027285.873,-25.391,-32.715,-36.621,-13.184,0.000
1714027285.877,-26.367,-24.414,-30.273,-15.625,0.000
1714027285.881,-33.203,-20.508,-24.902,-23.438,0.000
1714027285.885,-21.484,-22.949,-23.926,-12.695,0.000
1714027285.889,-20.996,-21.973,-10.742,-14.160,0.000
1714027285.893,-27.832,-22.949,-26.367,-25.879,0.000
1714027285.897,-25.879,-23.438,-37.109,-23.438,0.000
1714027285.901,-25.391,-19.531,-21.973,-12.695,0.000
1714027285.905,-22.461,-17.578,-16.602,-15.625,0.000
1714027285.908,-23.926,-19.531,-22.949,-21.484,0.000
1714027285.912,-32.715,-25.879,-29.297,-22.949,0.000
1714027285.916,-34.180,-28.809,-27.344,-20.996,0.000
1714027285.920,-26.367,-26.855,-20.996,-8.789,0.000
1714027285.924,-25.879,-25.391,-19.043,-13.672,0.000
1714027285.928,-29.785,-22.949,-28.320,-24.414,0.000
1714027285.932,-26.367,-20.508,-30.762,-20.020,0.000
1714027285.936,-24.414,-21.973,-21.973,-10.254,0.000
1714027285.940,-25.391,-20.508,-17.578,-10.254,0.000
1714027285.944,-25.391,-21.973,-16.113,-21.973,0.000
1714027285.947,-25.391,-22.461,-16.602,-16.602,0.000
1714027285.951,-28.809,-24.414,-20.996,-9.277,0.000
1714027285.955,-31.250,-20.996,-28.809,-20.996,0.000
1714027285.959,-31.250,-14.160,-34.180,-25.391,0.000
1714027285.963,-35.156,-18.066,-32.715,-20.020,0.000
1714027285.967,-36.621,-18.555,-24.902,-23.926,0.000
1714027285.971,-28.809,-16.602,-21.973,-25.391,0.000
1714027285.975,-26.855,-18.066,-26.367,-32.715,0.000
1714027285.979,-29.785,-15.625,-25.879,-38.086,0.000
1714027285.983,-29.297,-17.090,-18.066,-26.855,0.000
1714027285.986,-31.250,-16.113,-13.672,-20.020,0.000
1714027285.990,-30.762,-12.207,-8.301,-23.926,0.000
1714027285.994,-31.250,-10.742,-15.137,-24.414,0.000
1714027285.998,-34.180,-13.672,-27.832,-18.555,0.000
1714027286.002,-30.762,-18.066,-31.250,-16.113,0.000
1714027286.006,-19.531,-14.160,-39.551,-7.324,0.000
1714027286.010,-24.414,-11.230,-34.180,-7.812,0.000
1714027286.014,-40.527,-12.207,-25.391,-24.414,0.000
1714027286.018,-43.457,-13.672,-27.832,-23.438,0.000
1714027286.022,-37.598,-14.648,-21.973,-19.043,0.000
1714027286.026,-28.320,-16.113,-16.113,-14.648,0.000
1714027286.029,-20.020,-17.090,-22.461,-8.301,0.000
1714027286.033,-18.066,-15.137,-27.832,-4.395,0.000
1714027286.037,-15.137,-13.184,-29.785,-5.859,0.000
1714027286.041,-8.301,-13.672,-23.926,-6.348,0.000
1714027286.045,-15.137,-13.184,-15.625,-13.672,0.000
1714027286.049,-21.484,-10.742,-18.066,-12.207,0.000
1714027286.053,-17.578,-10.254,-27.344,1.953,0.000
1714027286.057,-19.531,-10.254,-25.391,-4.883,0.000
1714027286.061,-28.809,-17.090,-25.391,-20.020,0.000
1714027286.065,-33.203,-20.996,-25.879,-23.438,0.000
1714027286.068,-28.809,-22.461,-21.973,-20.508,0.000
1714027286.072,-31.250,-21.484,-25.391,-23.438,0.000
1714027286.076,-36.133,-22.461,-32.715,-27.832,0.000
1714027286.080,-33.691,-27.832,-38.086,-24.902,0.000
1714027286.084,-31.250,-25.391,-35.645,-23.926,0.000
1714027286.088,-24.414,-16.602,-23.926,-19.043,0.000
1714027286.092,-18.066,-14.160,-20.020,-16.113,0.000
1714027286.096,-25.391,-18.066,-18.555,-20.508,0.000
1714027286.100,-25.879,-17.090,-21.973,-17.090,0.000
1714027286.104,-19.531,-9.277,-20.020,-11.230,0.000
1714027286.108,-24.902,-10.254,-9.277,-14.160,0.000
1714027286.112,-25.391,-16.113,-19.043,-15.625,0.000
1714027286.115,-23.926,-19.043,-26.367,-17.578,0.000
1714027286.119,-26.367,-20.508,-20.996,-25.879,0.000
1714027286.123,-21.973,-16.602,-22.949,-25.879,0.000
1714027286.127,-25.391,-14.648,-29.785,-31.250,0.000
1714027286.131,-26.367,-20.996,-32.227,-32.227,0.000
1714027286.135,-19.043,-19.043,-24.902,-19.531,0.000
1714027286.139,-22.461,-16.113,-19.531,-21.973,0.000
1714027286.143,-27.344,-12.207,-25.391,-30.273,0.000
1714027286.147,-27.832,-9.277,-24.902,-30.762,0.000
1714027286.151,-27.344,-13.184,-11.230,-34.668,0.000
1714027286.155,-26.855,-15.625,-15.137,-34.668,0.000
1714027286.158,-30.273,-17.090,-23.926,-26.367,0.000
1714027286.162,-33.691,-16.602,-18.066,-30.273,0.000
1714027286.166,-33.203,-15.137,-23.438,-29.297,0.000
1714027286.170,-27.344,-13.184,-25.391,-26.367,0.000
1714027286.174,-22.949,-13.672,-18.555,-27.344,0.000
1714027286.178,-27.832,-20.020,-23.926,-35.645,0.000
1714027286.182,-30.762,-18.066,-29.785,-36.621,0.000
1714027286.186,-26.855,-14.648,-32.227,-33.203,0.000
1714027286.190,-29.297,-15.625,-28.809,-34.668,0.000
1714027286.194,-37.109,-21.484,-27.344,-37.109,0.000
1714027286.198,-38.574,-23.926,-35.645,-34.668,0.000
1714027286.201,-36.621,-20.020,-36.621,-29.297,0.000
1714027286.205,-32.227,-16.602,-33.691,-27.344,0.000
1714027286.209,-31.250,-17.090,-31.738,-32.227,0.000
1714027286.213,-30.273,-16.113,-31.738,-35.645,0.000
1714027286.217,0.000,-16.113,-35.645,-33.203,0.000
1714027286.221,0.000,-14.160,-29.785,-31.738,0.000
1714027286.225,0.000,-15.137,-25.391,-36.133,0.000
1714027286.229,0.000,-12.695,-23.438,-35.645,0.000
1714027286.233,0.000,-12.695,-15.625,-30.762,0.000
1714027286.237,0.000,-21.484,-20.996,-37.109,0.000
1714027286.241,0.000,-20.996,-31.738,-43.945,0.000
1714027286.244,0.000,-19.043,-33.203,-43.457,0.000
1714027286.248,0.000,-19.043,-27.344,-30.762,0.000
1714027286.252,0.000,-10.742,-18.555,-23.926,0.000
1714027286.256,0.000,-5.371,-21.973,-27.344,0.000
1714027286.260,0.000,-6.348,-18.066,-31.250,0.000
1714027286.264,-25.879,-9.766,-13.184,-29.297,0.000
1714027286.268,-26.855,-9.277,-19.531,-22.949,0.000
1714027286.272,-29.297,-13.184,-25.391,-25.391,0.000
1714027286.276,-36.621,-17.090,-26.855,-31.738,0.000
1714027286.280,-39.062,-16.602,-25.391,-30.273,0.000
1714027286.284,-34.180,-18.555,-22.949,-18.555,0.000
1714027286.287,-32.227,-16.602,-19.531,-11.719,0.000
1714027286.291,-31.738,-13.184,-17.090,-12.695,0.000
1714027286.295,-30.273,-15.137,-21.484,-13.672,0.000
1714027286.299,-34.668,-18.555,-19.531,-20.020,0.000
1714027286.303,-35.156,-13.184,-12.207,-20.996,0.000
1714027286.307,-33.203,-11.719,-16.602,-19.531,0.000
1714027286.311,-37.109,-13.672,-20.020,-23.438,0.000
1714027286.315,-38.086,-17.578,-20.508,-26.855,0.000
1714027286.319,-33.691,-18.066,-25.879,-22.461,0.000
1714027286.323,-35.156,-14.160,-24.414,-25.391,0.000
1714027286.326,-34.668,-15.625,-13.672,-28.809,0.000
1714027286.330,-38.574,-21.484,-22.949,-32.715,0.000
1714027286.334,-42.480,-26.855,-35.645,-33.691,0.000
1714027286.338,-37.109,-29.785,-34.180,-20.996,0.000
1714027286.342,-39.062,-26.367,-25.391,-26.367,0.000
1714027286.346,-38.574,-24.414,-18.555,-29.297,0.000
1714027286.350,-29.785,-27.832,-23.438,-25.391,0.000
1714027286.354,-26.367,-25.879,-28.809,-32.227,0.000
1714027286.358,-27.832,-21.973,-23.438,-33.691,0.000
1714027286.362,-22.949,-20.508,-26.367,-35.156,0.000
1714027286.366,-18.555,-18.555,-22.949,-23.438,0.000
1714027286.369,-20.508,-15.625,-11.230,-17.090,0.000
1714027286.373,-24.902,-17.090,-22.461,-32.227,0.000
1714027286.377,-29.785,-26.367,-27.344,-37.598,0.000
1714027286.381,-23.926,-20.996,-18.066,-30.273,0.000
1714027286.385,-23.438,-16.602,-20.508,-18.066,0.000
1714027286.389,-27.832,-15.625,-16.113,-22.461,0.000
1714027286.393,-25.391,-15.137,-18.066,-34.668,0.000
1714027286.397,-32.227,-23.926,-26.855,-36.621,0.000
1714027286.401,-30.762,-22.461,-20.020,-31.738,0.000
1714027286.405,-30.762,-21.973,-18.555,-30.273,0.000
1714027286.408,-34.668,-26.855,-24.414,-32.227,0.000
1714027286.412,-36.133,-30.762,-27.832,-36.133,0.000
1714027286.416,-34.668,-27.344,-30.762,-33.691,0.000
1714027286.420,-33.203,-24.414,-26.367,-34.180,0.000
1714027286.424,-28.809,-25.391,-26.367,-39.551,0.000
1714027286.428,-28.320,-26.367,-24.414,-35.645,0.000
1714027286.432,-38.574,-29.297,-18.066,-31.250,0.000
1714027286.436,-33.203,-26.855,-25.391,-24.414,0.000
1714027286.440,-29.785,-25.879,-31.738,-26.855,0.000
1714027286.444,-32.715,-29.785,-25.391,-37.598,0.000
1714027286.447,-31.250,-29.785,-27.344,-38.574,0.000
1714027286.451,-25.879,-25.879,-20.996,-33.691,0.000
1714027286.455,-22.461,-23.438,-18.066,-35.645,0.000
1714027286.459,-29.297,-28.320,-26.367,-40.527,0.000
1714027286.463,-36.621,-34.180,-22.949,-38.086,0.000
1714027286.467,-36.133,-26.855,-22.461,-34.180,0.000
1714027286.471,-34.180,-27.344,-24.414,-30.762,0.000
1714027286.475,-36.621,-33.203,-23.438,-29.297,0.000
1714027286.479,-39.062,-32.227,-23.926,-34.668,0.000
1714027286.483,-35.645,-31.250,-20.508,-30.273,0.000
1714027286.487,-35.645,-31.250,-24.414,-29.297,0.000
1714027286.490,-41.016,-33.691,-29.785,-32.227,0.000
1714027286.494,-41.504,-35.156,-34.180,-38.574,0.000
1714027286.498,-40.039,-36.621,-39.551,-36.621,0.000
1714027286.502,-41.992,-34.668,-37.598,-29.785,0.000
1714027286.506,-39.551,-34.668,-33.203,-32.715,0.000
1714027286.510,-33.203,-33.203,-25.391,-34.180,0.000
1714027286.514,-33.691,-35.645,-23.438,-29.785,0.000
1714027286.518,-33.203,-34.668,-33.691,-25.391,0.000
1714027286.522,-34.180,-27.344,-33.691,-27.832,0.000
1714027286.526,-34.668,-26.855,-32.227,-37.109,0.000
1714027286.530,-35.645,-28.809,-34.668,-41.992,0.000
1714027286.533,-35.645,-31.250,-34.180,-34.180,0.000
1714027286.537,-32.715,-30.762,-29.297,-33.691,0.000
1714027286.541,-37.109,-39.062,-30.273,-41.504,0.000
1714027286.545,-27.344,-36.621,-32.715,-34.668,0.000
1714027286.549,-23.438,-32.227,-30.762,-24.902,0.000
1714027286.553,-33.203,-31.738,-24.902,-28.809,0.000
1714027286.557,-38.574,-29.297,-14.648,-38.574,0.000
1714027286.561,-42.969,-31.738,-17.578,-40.039,0.000
1714027286.565,-34.180,-29.785,-27.344,-26.855,0.000
1714027286.569,-23.926,-20.508,-31.250,-18.555,0.000
1714027286.573,-23.926,-24.414,-25.391,-25.879,0.000
1714027286.576,-20.508,-30.273,-25.391,-24.414,0.000
1714027286.580,-16.602,-26.855,-22.949,-18.555,0.000
1714027286.584,-20.020,-29.785,-25.879,-22.461,0.000
1714027286.588,-21.973,-30.762,-32.227,-26.367,0.000
1714027286.592,-15.625,-27.832,-28.809,-21.973,0.000
1714027286.596,-14.160,-30.762,-21.484,-22.461,0.000
1714027286.600,-16.602,-25.879,-27.832,-27.832,0.000
1714027286.604,-15.137,-23.438,-32.715,-22.461,0.000
1714027286.608,-16.602,-27.344,-26.367,-19.531,0.000
1714027286.612,-25.879,-30.762,-28.809,-21.484,0.000
1714027286.616,-30.762,-27.344,-24.414,-18.555,0.000
1714027286.619,-30.762,-27.832,-27.344,-19.531,0.000
1714027286.623,-35.156,-32.227,-41.016,-20.996,0.000
1714027286.627,-39.062,-28.320,-41.016,-24.902,0.000
1714027286.631,-35.645,-28.809,-37.109,-27.344,0.000
1714027286.635,-36.621,-31.738,-35.156,-26.855,0.000
1714027286.639,-27.832,-25.879,-29.785,-27.344,0.000
1714027286.643,-24.902,-20.996,-27.832,-28.809,0.000
1714027286.647,-33.203,-29.297,-35.645,-37.598,0.000
1714027286.651,-30.273,-31.738,-36.621,-33.691,0.000
1714027286.655,-24.902,-30.762,-31.738,-27.344,0.000
1714027286.658,-25.391,-33.691,-33.203,-34.668,0.000
1714027286.662,-28.320,-31.250,-29.785,-32.715,0.000
1714027286.666,-31.738,-30.273,-28.320,-22.461,0.000
1714027286.670,-27.344,-25.391,-26.367,-16.113,0.000
1714027286.674,-25.879,-21.484,-27.344,-26.855,0.000
1714027286.678,-30.273,-23.438,-33.691,-37.598,0.000
1714027286.682,-27.832,-19.531,-36.133,-36.133,0.000
1714027286.686,-22.949,-15.625,-31.250,-28.809,0.000
1714027286.690,-22.461,-17.090,-30.273,-23.926,0.000
1714027286.694,-24.414,-22.461,-28.809,-27.832,0.000
1714027286.698,-32.227,-25.879,-24.414,-28.809,0.000
1714027286.701,-31.738,-26.367,-29.785,-21.973,0.000
1714027286.705,-27.832,-24.902,-27.344,-17.578,0.000
1714027286.709,-30.273,-24.902,-24.414,-18.555,0.000
1714027286.713,-29.785,-23.438,-21.973,-18.555,0.000
1714027286.717,-29.297,-23.926,-19.531,-25.391,0.000
1714027286.721,-31.738,-25.391,-29.297,-26.855,0.000
1714027286.725,-29.297,-23.926,-31.250,-20.996,0.000
1714027286.729,-29.785,-26.855,-32.715,-30.762,0.000
1714027286.733,-31.738,-26.367,-31.738,-32.715,0.000
1714027286.737,-28.809,-20.508,-24.902,-22.949,0.000
1714027286.740,-24.902,-22.461,-33.203,-22.461,0.000
1714027286.744,-16.113,-23.926,-42.969,-19.531,0.000
1714027286.748,-22.461,-20.508,-42.480,-20.996,0.000
1714027286.752,-42.480,-20.020,-39.062,-41.992,0.000
1714027286.756,-45.410,-21.484,-35.645,-45.410,0.000
1714027286.760,-35.156,-21.973,-36.133,-24.902,0.000
1714027286.764,-31.738,-26.855,-34.668,-16.602,0.000
1714027286.768,-29.297,-30.762,-34.180,-10.254,0.000
1714027286.772,-28.809,-33.691,-33.691,-12.207,0.000
1714027286.776,-32.227,-35.156,-40.039,-25.391,0.000
1714027286.780,-34.668,-31.250,-38.574,-30.762,0.000
1714027286.783,-32.227,-25.391,-31.738,-22.949,0.000
1714027286.787,-30.273,-25.879,-30.762,-18.066,0.000
1714027286.791,-29.785,-23.926,-31.250,-20.996,0.000
1714027286.795,-27.832,-22.949,-32.715,-21.973,0.000
1714027286.799,-28.320,-20.508,-30.762,-27.832,0.000
1714027286.803,-26.855,-17.090,-31.738,-27.832,0.000
1714027286.807,-23.438,-16.113,-27.832,-29.297,0.000
1714027286.811,-24.414,-18.066,-20.996,-35.156,0.000
1714027286.815,-27.832,-22.949,-21.484,-30.273,0.000
1714027286.819,-29.785,-24.902,-27.832,-25.879,0.000
1714027286.822,-29.297,-23.926,-34.180,-28.809,0.000
1714027286.826,-24.414,-19.531,-32.715,-31.738,0.000
1714027286.830,-20.508,-16.113,-30.273,-23.926,0.000
1714027286.834,-20.996,-18.066,-25.391,-19.043,0.000
1714027286.838,-17.578,-18.555,-25.391,-20.996,0.000
1714027286.842,-18.066,-16.602,-32.715,-28.809,0.000
1714027286.846,-19.531,-19.531,-33.691,-30.273,0.000
1714027286.850,-21.484,-21.973,-32.227,-19.043,0.000
1714027286.854,-25.879,-20.020,-29.297,-19.531,0.000
1714027286.858,-24.414,-17.090,-19.531,-26.855,0.000
1714027286.861,-20.020,-15.625,-30.762,-24.414,0.000
1714027286.865,-17.578,-15.625,-44.434,-20.020,0.000
1714027286.869,-20.996,-17.090,-36.133,-27.832,0.000
1714027286.873,-24.902,-20.020,-36.133,-30.273,0.000
1714027286.877,-22.461,-20.996,-37.109,-25.879,0.000
1714027286.881,-20.508,-22.949,-34.180,-28.809,0.000
1714027286.885,-20.996,-23.438,-33.203,-23.438,0.000
1714027286.889,-32.227,-21.973,-25.391,-19.043,0.000
1714027286.893,-39.551,-26.855,-26.855,-23.926,0.000
1714027286.897,-37.109,-29.785,-27.344,-27.832,0.000
1714027286.901,-31.250,-29.785,-23.926,-26.855,0.000
1714027286.904,-33.203,-31.250,-31.250,-30.762,0.000
1714027286.908,-37.109,-31.250,-39.062,-37.598,0.000
1714027286.912,-39.062,-25.391,-36.133,-42.969,0.000
1714027286.916,-34.180,-19.043,-27.832,-34.668,0.000
1714027286.920,-27.832,-18.555,-23.926,-26.855,0.000
1714027286.924,-28.320,-21.484,-28.809,-32.227,0.000
1714027286.928,-26.855,-20.020,-30.273,-39.551,0.000
1714027286.932,-27.832,-20.508,-30.273,-37.109,0.000
1714027286.936,-28.809,-24.414,-30.273,-31.250,0.000
1714027286.940,-34.180,-25.391,-22.949,-30.273,0.000
1714027286.944,-36.621,-30.273,-29.297,-29.785,0.000
1714027286.947,-27.344,-32.715,-38.574,-26.855,0.000
1714027286.951,-26.367,-33.203,-35.156,-20.996,0.000
1714027286.955,-29.785,-32.715,-27.344,-13.672,0.000
1714027286.959,-22.461,-24.902,-19.043,-19.043,0.000
1714027286.963,-20.508,-22.461,-30.273,-25.879,0.000
1714027286.967,-28.320,-26.855,-45.898,-24.414,0.000
1714027286.971,-25.391,-21.484,-41.504,-21.484,0.000
1714027286.975,-20.508,-20.020,-35.645,-23.438,0.000
1714027286.979,-21.484,-23.926,-38.086,-26.855,0.000
1714027286.983,-22.461,-22.461,-39.062,-25.879,0.000
1714027286.987,-19.531,-18.555,-36.133,-17.090,0.000
1714027286.990,-19.043,-20.020,-31.250,-18.066,0.000
1714027286.994,-23.926,-21.484,-30.762,-22.461,0.000
1714027286.998,-21.973,-19.531,-23.926,-11.230,0.000
1714027287.002,-21.973,-16.602,-16.113,-8.301,0.000
1714027287.006,-23.438,-22.461,-17.090,-16.113,0.000
1714027287.010,-23.438,-26.855,-25.879,-20.508,0.000
1714027287.014,-24.902,-20.508,-23.926,-15.137,0.000
1714027287.018,-23.926,-15.137,-18.555,-12.695,0.000
1714027287.022,-24.902,-14.160,-26.367,-15.625,0.000
1714027287.026,-22.949,-18.066,-28.320,-18.066,0.000
1714027287.030,-24.414,-24.414,-26.855,-22.461,0.000
1714027287.033,-28.809,-19.531,-28.320,-19.043,0.000
1714027287.037,-25.879,-12.695,-28.320,-21.484,0.000
1714027287.041,-23.926,-17.578,-27.344,-22.949,0.000
1714027287.045,-21.973,-20.508,-27.832,-14.160,0.000
1714027287.049,-21.484,-20.020,-34.668,-18.555,0.000
1714027287.053,-20.020,-21.973,-35.156,-18.066,0.000
1714027287.057,-20.508,-24.902,-28.320,-18.555,0.000
1714027287.061,-20.508,-27.344,-22.949,-19.531,0.000
1714027287.065,-18.066,-31.250,-19.043,-12.695,0.000
1714027287.069,-22.949,-30.273,-27.344,-9.277,0.000
1714027287.073,-21.973,-28.809,-31.738,-10.254,0.000
1714027287.076,-21.973,-25.879,-29.297,-20.020,0.000
1714027287.080,-25.391,-22.949,-32.227,-18.555,0.000
1714027287.084,-22.949,-19.531,-22.949,-16.113,0.000
1714027287.088,-26.855,-19.531,-17.578,-18.066,0.000
1714027287.092,-25.391,-21.973,-19.043,-24.902,0.000
1714027287.096,-20.508,-23.438,-19.531,-33.203,0.000
1714027287.100,-20.020,-20.508,-21.973,-27.832,0.000
1714027287.104,-21.484,-22.949,-30.762,-31.738,0.000
1714027287.108,-22.461,-22.949,-32.227,-37.109,0.000
1714027287.112,-24.902,-17.578,-22.949,-30.273,0.000
1714027287.115,-25.879,-19.531,-19.531,-24.902,0.000
1714027287.119,-24.902,-21.484,-22.949,-25.391,0.000
1714027287.123,-24.414,-20.508,-22.461,-27.344,0.000
1714027287.127,-23.926,-20.508,-22.461,-28.809,0.000
1714027287.131,-31.250,-23.438,-24.414,-25.391,0.000
1714027287.135,-34.180,-23.438,-23.926,-19.043,0.000
1714027287.139,-24.902,-21.484,-16.113,-25.391,0.000
1714027287.143,-25.391,-20.996,-25.879,-31.250,0.000
1714027287.147,-32.715,-22.461,-33.203,-22.949,0.000
1714027287.151,-34.180,-28.320,-27.344,-17.578,0.000
1714027287.155,-34.180,-28.809,-30.273,-23.438,0.000
1714027287.159,-32.227,-21.484,-27.344,-26.855,0.000
1714027287.162,-27.344,-23.438,-20.996,-22.461,0.000
1714027287.166,-17.578,-25.391,-18.066,-9.277,0.000
1714027287.170,-16.602,-15.137,-22.461,-14.160,0.000
1714027287.174,-36.621,-18.555,-32.227,-38.574,0.000
1714027287.178,-34.668,-21.484,-34.180,-39.062,0.000
1714027287.182,-30.273,-16.602,-29.297,-30.762,0.000
1714027287.186,-31.250,-19.043,-28.809,-31.250,0.000
1714027287.190,-20.508,-22.461,-30.762,-28.809,0.000
1714027287.194,-16.602,-21.973,-33.203,-27.832,0.000
1714027287.198,-21.973,-29.785,-35.156,-27.832,0.000
1714027287.201,-20.996,-30.273,-29.297,-20.996,0.000
1714027287.205,-18.555,-19.531,-24.414,-16.113,0.000
1714027287.209,-23.438,-17.578,-28.809,-25.391,0.000
1714027287.213,-25.879,-23.438,-37.598,-31.738,0.000
1714027287.217,-25.391,-23.926,-32.715,-21.973,0.000
1714027287.221,-26.855,-24.902,-29.297,-19.043,0.000
1714027287.225,-28.809,-27.344,-39.551,-26.367,0.000
1714027287.229,-30.762,-25.391,-41.504,-35.156,0.000
1714027287.233,-36.133,-27.344,-41.016,-38.086,0.000
1714027287.237,-33.691,-28.809,-42.480,-28.809,0.000
1714027287.240,-33.691,-31.250,-37.598,-29.785,0.000
1714027287.244,-37.598,-30.762,-31.738,-40.039,0.000
1714027287.248,-30.273,-20.996,-34.180,-34.180,0.000
1714027287.252,-26.367,-13.672,-29.297,-24.414,0.000
1714027287.256,-30.273,-21.484,-23.438,-25.391,0.000
1714027287.260,-25.391,-21.973,-21.973,-35.156,0.000
1714027287.264,-24.414,-16.602,-17.090,-39.062,0.000
1714027287.268,-30.273,-21.973,-27.832,-33.203,0.000
1714027287.272,-32.227,-31.738,-35.645,-31.738,0.000
1714027287.276,-36.621,-31.738,-27.344,-33.691,0.000
1714027287.280,-34.668,-27.832,-27.344,-34.668,0.000
1714027287.284,-31.738,-27.344,-28.809,-29.297,0.000
1714027287.287,-31.738,-27.344,-25.391,-27.832,0.000
1714027287.291,-26.367,-25.391,-25.879,-25.391,0.000
1714027287.295,-24.414,-25.879,-26.367,-22.949,0.000
1714027287.299,-24.902,-24.902,-25.391,-21.973,0.000
1714027287.303,-21.484,-17.578,-25.879,-23.926,0.000
1714027287.307,-24.414,-18.066,-22.461,-30.273,0.000
1714027287.311,-20.020,-18.555,-10.254,-27.344,0.000
1714027287.315,-19.531,-23.438,-23.438,-27.344,0.000
1714027287.319,-25.879,-26.855,-35.156,-30.273,0.000
1714027287.323,-27.344,-25.391,-29.785,-27.832,0.000
1714027287.327,-25.391,-28.809,-35.645,-24.902,0.000
1714027287.330,-30.762,-26.367,-34.668,-25.391,0.000
1714027287.334,-34.180,-24.902,-33.691,-28.809,0.000
1714027287.338,-25.879,-26.367,-38.574,-32.715,0.000
1714027287.342,-21.484,-24.414,-32.715,-37.598,0.000
1714027287.346,-28.809,-23.438,-27.832,-32.227,0.000
1714027287.350,-32.227,-27.344,-35.156,-27.832,0.000
1714027287.354,-29.297,-27.832,-35.645,-25.391,0.000
1714027287.358,-29.785,-21.973,-30.762,-24.902,0.000
1714027287.362,-29.785,-19.043,-26.367,-27.344,0.000
1714027287.366,-29.785,-21.484,-25.391,-28.320,0.000
1714027287.369,-22.461,-21.973,-24.902,-26.367,0.000
1714027287.373,-17.090,-20.020,-30.273,-22.461,0.000
1714027287.377,-27.344,-24.414,-33.203,-25.879,0.000
1714027287.381,-34.180,-24.414,-29.297,-35.645,0.000
1714027287.385,-35.156,-27.832,-35.156,-37.109,0.000
1714027287.389,-35.156,-32.715,-36.133,-37.109,0.000
1714027287.393,-34.668,-26.367,-33.203,-40.039,0.000
1714027287.397,-33.691,-19.531,-39.062,-42.480,0.000
1714027287.401,-31.250,-20.508,-38.086,-38.086,0.000
1714027287.405,-34.180,-18.555,-31.250,-32.715,0.000
1714027287.409,-36.621,-20.508,-33.691,-39.551,0.000
1714027287.412,-34.668,-20.020,-34.668,-44.922,0.000
1714027287.416,-29.297,-18.066,-22.461,-35.645,0.000
1714027287.420,-23.926,-25.879,-17.090,-26.855,0.000
1714027287.424,-22.461,-27.832,-25.879,-32.715,0.000
1714027287.428,-20.996,-14.648,-27.832,-36.133,0.000
1714027287.432,-28.320,-9.766,-31.738,-44.434,0.000
1714027287.436,-35.156,-13.672,-32.227,-49.805,0.000
1714027287.440,-22.949,-12.207,-27.832,-38.086,0.000
1714027287.444,-20.508,-14.648,-30.273,-36.621,0.000
1714027287.448,-20.020,-13.672,-30.273,-31.738,0.000
1714027287.452,-15.137,-11.719,-25.879,-20.020,0.000
1714027287.455,-20.020,-16.602,-22.949,-27.344,0.000
1714027287.459,-16.602,-20.996,-26.367,-31.250,0.000
1714027287.463,-15.137,-18.066,-35.645,-22.461,0.000
1714027287.467,-18.066,-13.672,-34.668,-19.531,0.000
1714027287.471,-14.160,-12.695,-22.949,-16.602,0.000
1714027287.475,-14.648,-14.160,-16.602,-12.695,0.000
1714027287.479,-28.320,-14.648,-32.227,-22.949,0.000
1714027287.483,-35.645,-17.578,-38.574,-28.809,0.000
1714027287.487,-34.180,-21.973,-32.715,-24.902,0.000
1714027287.491,-38.574,-21.973,-39.062,-28.809,0.000
1714027287.494,-39.062,-20.020,-42.969,-34.180,0.000
1714027287.498,-35.156,-17.090,-35.645,-33.691,0.000
1714027287.502,-28.320,-14.160,-34.180,-31.250,0.000
1714027287.506,-27.344,-19.043,-39.551,-30.762,0.000
1714027287.510,-29.297,-23.438,-37.109,-23.438,0.000
1714027287.514,-26.855,-18.066,-25.391,-19.531,0.000
1714027287.518,-22.949,-16.113,-26.855,-26.367,0.000
1714027287.522,-21.973,-19.043,-33.203,-29.785,0.000
1714027287.526,-28.809,-16.602,-24.414,-33.203,0.000
1714027287.530,-34.668,-18.066,-22.949,-36.621,0.000
1714027287.533,-34.668,-20.508,-24.902,-30.762,0.000
1714027287.537,-31.738,-17.090,-20.996,-25.391,0.000
1714027287.541,-35.156,-19.043,-27.344,-25.879,0.000
1714027287.545,-35.645,-21.484,-28.809,-28.320,0.000
1714027287.549,-35.645,-24.414,-27.832,-32.227,0.000
1714027287.553,-35.645,-26.855,-30.762,-30.762,0.000
1714027287.557,-33.691,-24.902,-21.973,-30.762,0.000
1714027287.561,-32.227,-24.902,-21.973,-34.668,0.000
1714027287.565,-27.832,-28.809,-30.273,-37.598,0.000
1714027287.569,-20.996,-23.438,-21.484,-29.785,0.000
1714027287.573,-21.973,-20.508,-19.531,-20.020,0.000
1714027287.576,-26.855,-23.438,-24.414,-26.855,0.000
1714027287.580,-29.785,-24.414,-23.926,-31.738,0.000
1714027287.584,-30.273,-22.461,-25.879,-25.879,0.000
1714027287.588,-33.203,-20.996,-30.273,-28.320,0.000
1714027287.592,-38.574,-26.367,-31.738,-31.250,0.000
1714027287.596,-41.992,-27.344,-30.762,-28.809,0.000
1714027287.600,-34.668,-23.438,-31.250,-25.391,0.000
1714027287.604,-26.855,-25.391,-18.066,-22.949,0.000
1714027287.608,-26.855,-28.320,-16.113,-32.227,0.000
1714027287.612,-26.367,-26.367,-27.832,-30.762,0.000
1714027287.615,-23.926,-20.996,-30.273,-20.996,0.000
1714027287.619,-26.367,-19.531,-32.715,-26.367,0.000
1714027287.623,-37.109,-27.344,-38.086,-34.668,0.000
1714027287.627,-37.598,-28.320,-32.227,-30.273,0.000
1714027287.631,-38.574,-27.344,-27.344,-27.344,0.000
1714027287.635,-35.645,-29.297,-27.832,-27.832,0.000
1714027287.639,-32.715,-29.785,-27.832,-25.879,0.000
1714027287.643,-37.109,-28.320,-29.297,-29.785,0.000
1714027287.647,-39.551,-27.832,-22.949,-33.203,0.000
1714027287.651,-38.086,-27.832,-18.066,-24.414,0.000
1714027287.655,-33.203,-23.438,-19.043,-17.090,0.000
1714027287.658,-28.809,-20.508,-20.996,-19.531,0.000
1714027287.662,-34.668,-18.066,-28.809,-32.715,0.000
1714027287.666,-34.668,-20.508,-32.227,-30.762,0.000
1714027287.670,-32.715,-17.578,-32.715,-24.414,0.000
1714027287.674,-37.109,-18.555,-31.738,-31.250,0.000
1714027287.678,-40.039,-23.926,-31.250,-31.738,0.000
1714027287.682,-32.715,-25.391,-25.391,-23.926,0.000
1714027287.686,-28.320,-27.832,-21.484,-20.996,0.000
1714027287.690,-30.273,-33.203,-18.066,-26.855,0.000
1714027287.694,-28.809,-31.738,-14.160,-34.668,0.000
1714027287.698,-25.879,-27.344,-19.531,-33.691,0.000
1714027287.701,-22.461,-24.414,-25.391,-24.414,0.000
1714027287.705,-23.926,-26.367,-28.320,-21.484,0.000
1714027287.709,-21.973,-25.879,-25.391,-22.461,0.000
1714027287.713,-21.973,-22.949,-21.484,-22.461,0.000
1714027287.717,-27.344,-20.996,-17.090,-20.996,0.000
1714027287.721,-27.344,-22.949,-20.996,-28.320,0.000
1714027287.725,-26.367,-26.367,-27.344,-33.691,0.000
1714027287.729,-27.832,-23.926,-20.996,-29.785,0.000
1714027287.733,-28.320,-29.297,-26.855,-26.855,0.000
1714027287.737,-25.879,-34.668,-32.227,-27.344,0.000
1714027287.741,-27.832,-32.715,-29.297,-31.250,0.000
1714027287.744,-28.809,-34.668,-35.156,-35.156,0.000
1714027287.748,-26.367,-31.738,-32.227,-29.785,0.000
1714027287.752,-30.762,-26.855,-31.250,-30.762,0.000
1714027287.756,-40.527,-25.391,-35.645,-39.062,0.000
1714027287.760,-41.504,-26.855,-35.645,-38.086,0.000
1714027287.764,-39.062,-23.926,-30.762,-33.691,0.000
1714027287.768,-35.156,-18.555,-26.367,-23.926,0.000
1714027287.772,-19.043,-15.625,-20.996,-6.836,0.000
1714027287.776,-10.742,-20.508,-26.367,-5.859,0.000
1714027287.780,-28.320,-21.973,-27.832,-25.391,0.000
1714027287.784,-39.062,-19.531,-18.066,-32.227,0.000
1714027287.787,-31.738,-25.879,-17.578,-24.902,0.000
1714027287.791,-32.715,-31.738,-25.391,-24.414,0.000
1714027287.795,-35.645,-30.762,-23.926,-21.973,0.000
1714027287.799,-31.250,-29.785,-21.973,-20.996,0.000
1714027287.803,-31.250,-29.297,-24.414,-16.602,0.000
1714027287.807,-30.762,-29.297,-22.461,-16.602,0.000
1714027287.811,-26.367,-29.785,-26.855,-27.344,0.000
1714027287.815,-31.250,-33.691,-24.902,-28.320,0.000
1714027287.819,-38.086,-41.504,-24.902,-24.414,0.000
1714027287.823,-31.738,-39.551,-31.250,-24.902,0.000
1714027287.827,-33.691,-40.039,-31.250,-31.738,0.000
1714027287.830,-34.180,-42.969,-29.297,-36.621,0.000
1714027287.834,-28.320,-37.109,-31.250,-27.344,0.000
1714027287.838,-30.762,-32.227,-32.715,-19.531,0.000
1714027287.842,-31.250,-26.855,-28.809,-26.367,0.000
1714027287.846,-29.297,-26.367,-21.484,-31.738,0.000
1714027287.850,-26.855,-26.367,-22.461,-22.949,0.000
1714027287.854,-26.367,-24.902,-28.320,-25.391,0.000
1714027287.858,-28.809,-26.367,-27.832,-30.762,0.000
1714027287.862,-26.855,-25.391,-26.367,-32.227,0.000
1714027287.866,-23.926,-25.391,-18.066,-28.809,0.000
1714027287.869,-20.508,-25.879,-18.066,-20.996,0.000
1714027287.873,-21.484,-25.879,-29.297,-23.438,0.000
1714027287.877,-21.484,-25.879,-21.973,-28.809,0.000
1714027287.881,-22.949,-23.926,-16.113,-29.297,0.000
1714027287.885,-26.855,-23.438,-20.508,-23.438,0.000
1714027287.889,-26.855,-27.832,-18.555,-31.250,0.000
1714027287.893,-27.344,-27.832,-15.137,-39.062,0.000
1714027287.897,-27.344,-21.484,-20.020,-37.109,0.000
1714027287.901,-23.438,-17.090,-28.809,-31.250,0.000
1714027287.905,-20.996,-20.508,-29.297,-26.855,0.000
1714027287.908,-20.508,-21.973,-24.414,-26.855,0.000
1714027287.912,-19.043,-20.508,-30.762,-26.855,0.000
1714027287.916,-21.973,-26.367,-35.156,-24.902,0.000
1714027287.920,-31.738,-29.297,-30.762,-27.832,0.000
1714027287.924,-37.109,-25.879,-31.250,-33.691,0.000
1714027287.928,-35.645,-21.973,-26.367,-22.949,0.000
1714027287.932,-38.086,-23.438,-21.484,-13.672,0.000
1714027287.936,-38.086,-24.902,-30.273,-22.949,0.000
1714027287.940,-35.156,-23.926,-33.691,-26.855,0.000
1714027287.944,-35.645,-23.926,-31.738,-23.926,0.000
1714027287.948,-33.691,-23.438,-25.391,-20.508,0.000
1714027287.951,-31.738,-29.297,-18.066,-24.902,0.000
1714027287.955,-35.645,-34.668,-13.184,-28.320,0.000
1714027287.959,-45.410,-33.203,-19.531,-33.203,0.000
1714027287.963,-44.922,-29.785,-27.832,-34.668,0.000
1714027287.967,-35.645,-24.414,-27.344,-26.855,0.000
1714027287.971,-39.551,-27.832,-29.297,-26.855,0.000
1714027287.975,-39.062,-29.785,-28.320,-22.949,0.000
1714027287.979,-33.203,-25.391,-25.391,-25.391,0.000
1714027287.983,-26.855,-20.996,-20.508,-22.461,0.000
1714027287.987,-21.973,-17.578,-12.207,-14.648,0.000
1714027287.990,-23.926,-24.414,-9.766,-17.578,0.000
1714027287.994,-21.484,-26.855,-22.949,-14.160,0.000
1714027287.998,-24.414,-25.879,-34.668,-14.648,0.000
1714027288.002,-32.227,-21.973,-32.227,-23.438,0.000
1714027288.006,-37.109,-22.461,-29.785,-34.180,0.000
1714027288.010,-38.574,-22.461,-29.785,-42.480,0.000
1714027288.014,-38.574,-21.973,-31.250,-41.504,0.000
1714027288.018,-33.203,-21.973,-26.367,-31.738,0.000
1714027288.022,-32.227,-21.973,-21.484,-28.809,0.000
1714027288.026,-36.621,-26.855,-22.461,-35.156,0.000
1714027288.030,-29.297,-26.855,-22.949,-34.668,0.000
1714027288.033,-25.879,-22.949,-25.879,-26.367,0.000
1714027288.037,-26.367,-23.926,-31.250,-23.438,0.000
1714027288.041,-23.926,-27.344,-36.133,-34.668,0.000
1714027288.045,-29.785,-30.762,-35.156,-36.621,0.000
1714027288.049,-34.180,-30.762,-29.785,-28.809,0.000
1714027288.053,-30.762,-29.297,-27.344,-31.250,0.000
1714027288.057,-34.180,-31.738,-26.855,-39.062,0.000
1714027288.061,-38.086,-30.273,-24.414,-38.574,0.000
1714027288.065,-40.527,-28.809,-16.113,-39.062,0.000
1714027288.069,-42.969,-28.320,-18.555,-37.109,0.000
1714027288.073,-35.645,-23.926,-23.926,-33.691,0.000
1714027288.076,-35.645,-27.832,-22.949,-40.527,0.000
1714027288.080,-37.109,-29.785,-22.461,-34.180,0.000
1714027288.084,-35.645,-28.320,-23.926,-33.691,0.000
1714027288.088,-37.109,-29.297,-33.203,-42.480,0.000
1714027288.092,-35.645,-27.344,-31.250,-43.457,0.000
1714027288.096,-29.785,-24.902,-25.391,-38.574,0.000
1714027288.100,-33.203,-25.391,-27.832,-41.504,0.000
1714027288.104,-36.621,-28.809,-27.832,-41.016,0.000
1714027288.108,-33.691,-28.320,-22.949,-39.551,0.000
1714027288.112,-34.180,-28.809,-20.020,-36.133,0.000
1714027288.116,-35.645,-33.203,-17.090,-28.809,0.000
1714027288.119,-33.203,-33.203,-14.648,-25.391,0.000
1714027288.123,-29.785,-29.785,-16.602,-23.438,0.000
1714027288.127,-29.785,-20.996,-13.184,-33.203,0.000
1714027288.131,-31.250,-19.043,-13.672,-39.062,0.000
1714027288.135,-29.785,-18.066,-23.926,-31.738,0.000
1714027288.139,-36.133,-19.531,-25.391,-40.039,0.000
1714027288.143,-34.668,-20.508,-22.949,-44.434,0.000
1714027288.147,-32.227,-19.043,-23.438,-34.668,0.000
1714027288.151,-31.738,-23.926,-29.297,-29.785,0.000
1714027288.155,-25.879,-23.438,-31.738,-26.855,0.000
1714027288.159,-25.391,-18.555,-32.715,-29.785,0.000
1714027288.162,-34.180,-19.531,-32.715,-37.598,0.000
1714027288.166,-37.598,-24.902,-32.715,-28.809,0.000
1714027288.170,-35.645,-26.855,-37.598,-20.508,0.000
1714027288.174,-38.086,-21.484,-39.551,-34.180,0.000
1714027288.178,-34.668,-24.902,-43.457,-45.898,0.000
1714027288.182,-26.855,-24.414,-41.504,-38.086,0.000
1714027288.186,-32.227,-20.508,-30.762,-34.180,0.000
1714027288.190,-30.273,-21.484,-28.809,-35.156,0.000
1714027288.194,-22.949,-22.461,-33.203,-36.133,0.000
1714027288.198,-32.715,-25.391,-30.273,-38.086,0.000
1714027288.201,-33.691,-26.855,-25.879,-33.691,0.000
1714027288.205,-28.320,-25.879,-28.320,-31.250,0.000
1714027288.209,-30.762,-23.438,-26.367,-29.785,0.000
1714027288.213,-32.715,-25.879,-31.250,-29.297,0.000
1714027288.217,-29.297,-28.809,-34.180,-34.180,0.000
1714027288.221,-26.855,-22.949,-25.879,-39.551,0.000
1714027288.225,-33.203,-25.879,-23.438,-44.434,0.000
1714027288.229,-34.668,-36.133,-25.391,-38.574,0.000
1714027288.233,-33.203,-32.715,-26.367,-32.227,0.000
1714027288.237,-33.691,-26.855,-29.297,-33.203,0.000
1714027288.241,-29.785,-25.391,-27.344,-34.180,0.000
1714027288.244,-29.297,-27.344,-29.785,-36.133,0.000
1714027288.248,-32.227,-29.785,-28.320,-35.645,0.000
1714027288.252,-25.879,-26.367,-23.926,-27.832,0.000
1714027288.256,-21.973,-27.832,-31.738,-31.250,0.000
1714027288.260,-21.973,-27.832,-37.109,-31.250,0.000
1714027288.264,-20.508,-26.855,-35.645,-32.227,0.000
1714027288.268,-22.461,-28.320,-25.391,-34.668,0.000
1714027288.272,-22.949,-27.344,-23.926,-32.715,0.000
1714027288.276,-22.461,-23.926,-25.879,-33.203,0.000
1714027288.280,-22.461,-22.949,-25.391,-31.250,0.000
1714027288.283,-22.461,-27.344,-27.344,-30.762,0.000
1714027288.287,-18.066,-28.320,-27.832,-31.250,0.000
1714027288.291,-18.066,-23.438,-27.344,-31.738,0.000
1714027288.295,-24.902,-19.531,-23.926,-32.227,0.000
1714027288.299,-26.367,-23.438,-20.508,-31.738,0.000
1714027288.303,-29.297,-23.438,-25.391,-30.273,0.000
1714027288.307,-27.344,-17.578,-25.391,-31.738,0.000
1714027288.311,-25.391,-15.625,-22.461,-34.668,0.000
1714027288.315,-31.738,-21.973,-25.879,-36.621,0.000
1714027288.319,-29.785,-21.973,-29.297,-32.715,0.000
1714027288.323,-23.438,-21.484,-30.273,-27.832,0.000
1714027288.326,-28.809,-24.414,-23.438,-29.297,0.000
1714027288.330,-37.598,-28.320,-27.344,-28.320,0.000
1714027288.334,-41.504,-34.180,-28.320,-24.902,0.000
1714027288.338,-42.480,-35.156,-20.508,-25.879,0.000
1714027288.342,-37.598,-28.809,-21.973,-31.738,0.000
1714027288.346,-41.504,-27.832,-25.879,-31.738,0.000
1714027288.350,-34.180,-28.809,-24.902,-17.578,0.000
1714027288.354,-17.578,-22.461,-14.648,-9.766,0.000
1714027288.358,-18.555,-21.973,-17.090,-16.602,0.000
1714027288.362,-27.344,-24.414,-28.320,-26.367,0.000
1714027288.365,-24.414,-28.809,-28.320,-21.973,0.000
1714027288.369,-19.531,-32.715,-29.785,-23.926,0.000
1714027288.373,-28.809,-29.297,-32.227,-33.691,0.000
1714027288.377,-34.180,-27.344,-31.250,-31.738,0.000
1714027288.381,-26.367,-28.809,-23.926,-21.973,0.000
1714027288.385,-28.320,-27.344,-17.090,-20.020,0.000
1714027288.389,-28.809,-26.367,-28.809,-23.438,0.000
1714027288.393,-20.020,-26.367,-36.621,-18.555,0.000
1714027288.397,1.953,-30.273,-24.414,-4.395,0.000
1714027288.401,4.395,-27.344,-14.648,-5.859,0.000
1714027288.405,-18.555,-20.508,-23.926,-26.367,0.000
1714027288.408,-15.625,-23.926,-36.133,-25.391,0.000
1714027288.412,-16.602,-27.344,-35.156,-35.156,0.000
1714027288.416,-21.484,-36.133,-37.109,-30.762,0.000
1714027288.420,-18.066,-41.992,-34.668,-17.090,0.000
1714027288.424,-17.090,-31.250,-30.273,-22.461,0.000
1714027288.428,-13.184,-22.949,-29.785,-18.555,0.000
1714027288.432,-8.789,-20.996,-33.691,-9.277,0.000
1714027288.436,-9.766,-26.855,-32.227,-6.836,0.000
1714027288.440,-9.277,-27.832,-19.043,-6.836,0.000
1714027288.444,-8.789,-26.367,-22.461,-12.695,0.000
1714027288.448,-12.695,-25.879,-27.344,-10.254,0.000
1714027288.451,-14.160,-26.855,-25.879,-2.441,0.000
1714027288.455,-14.648,-31.250,-33.203,-7.812,0.000
1714027288.459,-18.066,-30.762,-35.645,-18.555,0.000
1714027288.463,-17.090,-28.320,-27.344,-17.090,0.000
1714027288.467,-17.578,-28.320,-26.367,-10.742,0.000
1714027288.471,-19.043,-25.879,-24.902,-10.742,0.000
1714027288.475,-13.184,-22.949,-22.949,-12.207,0.000
1714027288.479,-15.137,-21.973,-26.855,-16.113,0.000
1714027288.483,-16.113,-24.414,-24.414,-17.090,0.000
1714027288.487,-11.719,-24.414,-21.484,-12.695,0.000
1714027288.491,-18.555,-25.391,-29.785,-18.555,0.000
1714027288.494,-26.855,-24.902,-41.504,-29.297,0.000
1714027288.498,-24.414,-26.367,-38.574,-23.926,0.000
1714027288.502,-24.902,-21.973,-19.043,-18.555,0.000
1714027288.506,-28.809,-20.996,-27.344,-30.762,0.000
1714027288.510,-30.762,-23.926,-39.551,-44.434,0.000
1714027288.514,-23.926,-28.320,-29.785,-30.762,0.000
1714027288.518,-25.391,-28.809,-25.391,-30.762,0.000
1714027288.522,-43.457,-27.832,-28.320,-55.176,0.000
1714027288.526,-56.641,-29.297,-12.207,-65.918,0.000
1714027288.530,-73.730,-35.156,-6.348,-74.707,0.000
1714027288.533,-95.215,-39.551,-10.742,-90.820,0.000
1714027288.537,-104.980,-38.086,-8.789,-106.934,0.000
1714027288.541,-120.605,-33.691,-8.301,-129.395,0.000
1714027288.545,-140.137,-27.344,-1.953,-140.625,0.000
1714027288.549,-166.504,-32.715,6.348,-166.504,0.000
1714027288.553,-182.129,-38.574,8.789,-185.059,0.000
1714027288.557,-179.688,-37.598,9.277,-186.035,0.000
1714027288.561,-176.270,-32.715,7.324,-195.801,0.000
1714027288.565,-187.988,-26.367,6.836,-205.566,0.000
1714027288.569,-190.430,-21.973,13.184,-205.078,0.000
1714027288.573,-181.152,-17.578,4.883,-207.520,0.000
1714027288.576,-188.965,-18.555,-0.488,-205.566,0.000
1714027288.580,-198.242,-18.066,12.207,-200.195,0.000
1714027288.584,-185.059,-16.602,17.578,-184.570,0.000
1714027288.588,-177.246,-21.484,4.883,-166.504,0.000
1714027288.592,-183.594,-20.508,7.812,-168.457,0.000
1714027288.596,-162.598,-17.578,15.137,-158.691,0.000
1714027288.600,-150.391,-23.438,5.859,-155.273,0.000
1714027288.604,-152.832,-22.949,-2.930,-148.926,0.000
1714027288.608,-132.324,-20.020,-7.812,-129.883,0.000
1714027288.612,-122.070,-24.414,-16.602,-129.883,0.000
1714027288.615,-117.188,-28.809,-18.555,-122.070,0.000
1714027288.619,-96.680,-30.273,-10.254,-98.633,0.000
1714027288.623,-92.285,-27.832,-19.043,-97.168,0.000
1714027288.627,-87.891,-25.391,-24.414,-96.191,0.000
1714027288.631,-80.566,-31.250,-27.344,-87.402,0.000
1714027288.635,-80.078,-38.574,-40.527,-75.684,0.000
1714027288.639,-66.895,-29.297,-39.062,-64.453,0.000
1714027288.643,-58.105,-24.414,-36.133,-65.430,0.000
1714027288.647,-57.617,-21.484,-38.086,-68.848,0.000
1714027288.651,-44.434,-16.602,-34.668,-53.223,0.000
1714027288.655,-35.645,-25.879,-32.227,-34.668,0.000
1714027288.658,-35.645,-30.273,-39.551,-32.715,0.000
1714027288.662,-30.273,-27.832,-47.363,-33.203,0.000
1714027288.666,-28.320,-29.297,-41.504,-29.297,0.000
1714027288.670,-22.949,-26.855,-42.480,-29.297,0.000
1714027288.674,-15.625,-23.926,-54.688,-32.715,0.000
1714027288.678,-14.648,-26.367,-57.129,-29.785,0.000
1714027288.682,-8.301,-26.855,-46.875,-23.926,0.000
1714027288.686,-6.836,-32.715,-53.711,-22.949,0.000
1714027288.690,-5.371,-36.133,-59.082,-21.484,0.000
1714027288.694,-3.418,-33.203,-52.246,-18.555,0.000
1714027288.697,-1.953,-29.785,-53.711,-16.113,0.000
1714027288.701,-1.953,-32.715,-51.758,-9.277,0.000
1714027288.705,0.977,-30.762,-45.898,-0.977,0.000
1714027288.709,1.953,-25.879,-52.246,-6.836,0.000
1714027288.713,0.977,-23.926,-60.059,-9.277,0.000
1714027288.717,11.230,-19.043,-54.688,-1.953,0.000
1714027288.721,15.625,-19.043,-45.898,1.465,0.000
1714027288.725,8.789,-21.484,-38.574,-0.488,0.000
1714027288.729,6.836,-21.973,-39.062,-7.812,0.000
1714027288.733,9.766,-23.926,-41.992,-2.441,0.000
1714027288.736,9.766,-24.414,-35.645,7.324,0.000
1714027288.740,8.789,-24.414,-36.133,2.441,0.000
1714027288.744,2.930,-23.438,-37.598,-9.766,0.000
1714027288.748,6.348,-19.043,-29.297,0.488,0.000
1714027288.752,8.301,-22.461,-29.785,7.324,0.000
1714027288.756,2.441,-20.020,-30.762,-0.488,0.000
1714027288.760,5.371,-11.230,-15.137,-0.488,0.000
1714027288.764,3.418,-10.254,-7.812,-4.395,0.000
1714027288.768,-12.695,-22.461,-20.508,-12.695,0.000
1714027288.772,-26.367,-24.414,-19.531,-24.414,0.000
1714027288.776,-37.598,-19.043,-11.719,-43.457,0.000
1714027288.780,-46.875,-21.484,-11.230,-50.781,0.000
1714027288.783,-55.664,-18.066,-9.277,-53.711,0.000
1714027288.787,-78.613,-18.555,-0.488,-76.660,0.000
1714027288.791,-96.680,-18.555,14.160,-94.727,0.000
1714027288.795,-97.656,-17.090,20.508,-98.633,0.000
1714027288.799,-98.145,-22.949,15.137,-103.027,0.000
1714027288.803,-100.098,-22.461,14.648,-104.980,0.000
1714027288.807,-110.352,-18.066,24.414,-111.328,0.000
1714027288.811,-114.746,-20.996,27.832,-113.770,0.000
1714027288.815,-99.609,-24.902,21.973,-97.168,0.000
1714027288.819,-94.727,-20.020,18.555,-90.820,0.000
1714027288.823,-93.262,-18.555,22.461,-93.262,0.000
1714027288.826,-79.590,-25.879,26.367,-79.590,0.000
1714027288.830,-79.590,-34.668,20.996,-75.195,0.000
1714027288.834,-77.637,-40.527,10.742,-75.195,0.000
1714027288.838,-57.617,-37.598,3.418,-57.617,0.000
1714027288.842,-53.223,-39.062,0.488,-60.547,0.000
1714027288.846,-52.246,-38.086,0.000,-60.059,0.000
1714027288.850,-33.691,-33.203,-8.301,-38.086,0.000
1714027288.854,-17.578,-33.203,-18.066,-34.668,0.000
1714027288.858,-13.672,-34.180,-19.043,-29.297,0.000
1714027288.862,-20.508,-41.504,-16.113,-21.484,0.000
1714027288.866,-20.020,-46.875,-20.996,-19.531,0.000
1714027288.869,-3.418,-44.922,-26.367,-7.812,0.000
1714027288.873,3.418,-44.434,-34.180,-3.906,0.000
1714027288.877,3.418,-35.645,-37.109,-8.301,0.000
1714027288.881,9.277,-32.715,-31.250,-4.395,0.000
1714027288.885,16.602,-35.645,-35.645,8.301,0.000
1714027288.889,15.625,-33.203,-32.227,9.766,0.000
1714027288.893,16.113,-30.762,-25.391,4.883,0.000
1714027288.897,23.438,-25.391,-32.227,8.301,0.000
1714027288.901,21.973,-25.879,-48.340,16.602,0.000
1714027288.905,20.020,-26.855,-52.734,20.020,0.000
1714027288.908,19.043,-26.367,-53.223,11.230,0.000
1714027288.912,19.043,-24.414,-51.270,9.277,0.000
1714027288.916,21.973,-26.367,-42.969,20.996,0.000
1714027288.920,24.414,-26.367,-44.434,26.367,0.000
1714027288.924,21.973,-24.414,-45.898,15.625,0.000
1714027288.928,21.484,-25.391,-44.922,17.090,0.000
1714027288.932,20.996,-25.879,-48.340,20.996,0.000
1714027288.936,12.695,-30.762,-43.945,15.137,0.000
1714027288.940,6.836,-32.227,-43.945,9.766,0.000
1714027288.944,7.812,-25.391,-52.246,13.184,0.000
1714027288.948,12.695,-23.438,-45.898,21.484,0.000
1714027288.951,10.742,-34.180,-39.062,20.508,0.000
1714027288.955,9.277,-31.250,-38.086,13.672,0.000
1714027288.959,9.277,-20.020,-33.203,10.742,0.000
1714027288.963,10.254,-21.484,-30.762,14.648,0.000
1714027288.967,8.301,-25.879,-34.180,15.625,0.000
1714027288.971,14.648,-22.949,-43.457,13.672,0.000
1714027288.975,18.555,-19.531,-43.945,17.090,0.000
1714027288.979,18.066,-16.602,-29.785,20.996,0.000
1714027288.983,22.461,-13.672,-25.879,23.438,0.000
1714027288.987,20.996,-13.672,-36.133,20.020,0.000
1714027288.991,12.207,-16.602,-37.598,16.113,0.000
1714027288.995,9.766,-15.137,-34.180,9.277,0.000
1714027288.998,8.301,-14.648,-39.551,5.859,0.000
1714027289.002,5.371,-17.578,-46.875,8.789,0.000
1714027289.006,5.371,-19.043,-44.434,13.184,0.000
1714027289.010,0.000,-20.020,-38.086,11.719,0.000
1714027289.014,0.000,-14.648,-34.180,3.418,0.000
1714027289.018,0.977,-9.766,-38.574,-1.953,0.000
1714027289.022,1.953,-12.207,-36.621,-5.371,0.000
1714027289.026,2.441,-13.184,-27.832,-10.254,0.000
1714027289.030,0.000,-13.184,-22.461,-7.812,0.000
1714027289.034,5.859,-12.695,-25.879,-1.953,0.000
1714027289.037,6.836,-14.648,-27.832,-1.953,0.000
1714027289.041,-1.953,-16.113,-29.785,-7.812,0.000
1714027289.045,-7.812,-18.555,-36.621,-10.254,0.000
1714027289.049,-6.836,-24.902,-32.227,-2.930,0.000
1714027289.053,-11.719,-23.438,-24.902,-3.906,0.000
1714027289.057,-14.648,-16.602,-24.414,-10.254,0.000
1714027289.061,-10.254,-15.137,-29.297,-13.184,0.000
1714027289.065,-3.418,-17.578,-25.879,-5.371,0.000
1714027289.069,-2.930,-20.508,-30.762,2.930,0.000
1714027289.073,-9.766,-18.066,-35.645,-7.812,0.000
1714027289.076,-14.648,-25.391,-47.363,-21.973,0.000
1714027289.080,-15.137,-31.250,-43.945,-20.508,0.000
1714027289.084,-17.090,-27.344,-29.785,-14.160,0.000
1714027289.088,-14.160,-27.832,-27.344,-11.230,0.000
1714027289.092,-10.254,-20.020,-24.414,-8.789,0.000
1714027289.096,-12.207,-19.043,-19.531,-7.812,0.000
1714027289.100,-13.672,-24.902,-15.625,-7.324,0.000
1714027289.104,-14.648,-27.344,-25.879,-11.719,0.000
1714027289.108,-16.113,-25.391,-37.109,-20.996,0.000
1714027289.112,-20.508,-23.926,-41.504,-22.949,0.000
1714027289.115,-12.207,-27.832,-40.039,-17.090,0.000
1714027289.119,-6.836,-30.762,-21.484,-9.277,0.000
1714027289.123,-14.160,-26.855,-16.113,-10.742,0.000
1714027289.127,-17.578,-28.320,-23.438,-22.949,0.000
1714027289.131,-20.996,-30.273,-23.438,-25.391,0.000
1714027289.135,-18.066,-23.438,-25.391,-26.367,0.000
1714027289.139,-17.578,-22.949,-29.297,-29.297,0.000
1714027289.143,-20.996,-25.391,-31.738,-26.367,0.000
1714027289.147,-20.020,-21.484,-26.855,-23.438,0.000
1714027289.151,-18.555,-21.973,-19.043,-19.531,0.000
1714027289.155,-16.113,-23.926,-23.926,-19.043,0.000
1714027289.159,-17.090,-24.902,-38.574,-20.508,0.000
1714027289.162,-21.484,-22.949,-45.898,-26.367,0.000
1714027289.166,-21.973,-21.484,-39.551,-25.879,0.000
1714027289.170,-15.625,-19.043,-30.273,-17.578,0.000
1714027289.174,-10.254,-20.508,-34.180,-13.184,0.000
1714027289.178,-16.113,-22.949,-31.738,-17.578,0.000
1714027289.182,-20.508,-26.855,-23.438,-20.996,0.000
1714027289.186,-15.625,-27.344,-24.902,-16.113,0.000
1714027289.190,-16.113,-26.367,-29.785,-18.066,0.000
1714027289.194,-17.578,-25.879,-34.668,-21.973,0.000
1714027289.198,-14.160,-24.902,-28.809,-20.020,0.000
1714027289.202,-19.531,-26.855,-27.832,-17.578,0.000
1714027289.205,-25.879,-31.250,-30.762,-18.555,0.000
1714027289.209,-25.879,-31.738,-27.832,-29.297,0.000
1714027289.213,-26.367,-28.809,-28.320,-37.598,0.000
1714027289.217,-28.809,-27.344,-30.273,-35.156,0.000
1714027289.221,-26.855,-27.344,-32.227,-30.762,0.000
1714027289.225,-20.996,-31.250,-29.297,-32.227,0.000
1714027289.229,-19.043,-32.227,-29.297,-35.156,0.000
1714027289.233,-17.090,-37.109,-31.738,-28.320,0.000
1714027289.237,-17.090,-35.645,-31.250,-24.414,0.000
1714027289.241,-17.090,-28.320,-23.926,-24.902,0.000
1714027289.245,-11.230,-28.320,-22.461,-18.555,0.000
1714027289.248,-11.719,-26.367,-23.926,-11.719,0.000
1714027289.252,-17.578,-23.926,-27.832,-12.695,0.000
1714027289.256,-19.531,-29.297,-29.785,-20.508,0.000
1714027289.260,-20.508,-32.715,-20.996,-25.879,0.000
1714027289.264,-23.438,-31.250,-12.695,-26.367,0.000
1714027289.268,-26.367,-35.156,-20.996,-26.367,0.000
1714027289.272,-28.809,-33.203,-27.344,-27.344,0.000
1714027289.276,-27.344,-23.926,-23.926,-30.273,0.000
1714027289.280,-20.508,-28.320,-25.391,-29.785,0.000
1714027289.284,-16.602,-33.691,-20.996,-21.484,0.000
1714027289.287,-20.996,-33.203,-21.484,-25.391,0.000
1714027289.291,-22.461,-34.668,-30.762,-31.250,0.000
1714027289.295,-27.832,-32.715,-36.133,-26.855,0.000
1714027289.299,-30.273,-27.832,-31.738,-24.414,0.000
1714027289.303,-20.996,-27.832,-21.484,-21.484,0.000
1714027289.307,-20.996,-28.809,-24.902,-20.020,0.000
1714027289.311,-22.949,-25.391,-23.438,-23.926,0.000
1714027289.315,-27.344,-25.391,-26.367,-27.344,0.000
1714027289.319,-32.715,-29.297,-27.344,-26.855,0.000
1714027289.323,-27.832,-33.691,-28.320,-35.645,0.000
1714027289.327,-26.367,-39.062,-38.086,-43.945,0.000
1714027289.330,-27.832,-42.480,-40.039,-39.062,0.000
1714027289.334,-20.508,-37.109,-33.691,-37.598,0.000
1714027289.338,-19.531,-37.598,-20.508,-31.738,0.000
1714027289.342,-26.855,-35.156,-30.273,-34.668,0.000
1714027289.346,-28.320,-30.762,-34.668,-43.945,0.000
1714027289.350,-30.762,-32.227,-20.020,-43.945,0.000
1714027289.354,-24.414,-27.832,-16.113,-38.574,0.000
1714027289.358,-16.113,-22.949,-23.438,-35.645,0.000
1714027289.362,-15.625,-26.855,-18.066,-38.086,0.000
1714027289.366,-11.719,-27.832,-7.324,-37.598,0.000
1714027289.369,-12.207,-23.438,-10.254,-34.668,0.000
1714027289.373,-20.020,-27.832,-25.879,-38.574,0.000
1714027289.377,-31.250,-33.203,-28.320,-44.434,0.000
1714027289.381,-28.320,-29.785,-25.879,-35.156,0.000
1714027289.385,-38.086,-31.250,-20.508,-30.273,0.000
1714027289.389,-63.477,-29.785,-16.602,-53.711,0.000
1714027289.393,-65.918,-27.832,-25.879,-63.477,0.000
1714027289.397,-66.406,-31.738,-10.742,-58.594,0.000
1714027289.401,-79.590,-36.621,8.301,-68.848,0.000
1714027289.405,-82.520,-38.574,-3.418,-81.055,0.000
1714027289.409,-76.172,-31.250,-9.766,-78.613,0.000
1714027289.413,-83.008,-28.320,-7.812,-81.055,0.000
1714027289.416,-110.840,-29.785,-11.230,-107.910,0.000
1714027289.420,-110.352,-21.973,-1.465,-105.469,0.000
1714027289.424,-98.145,-17.090,4.883,-96.191,0.000
1714027289.428,-108.887,-21.973,6.836,-104.980,0.000
1714027289.432,-108.887,-25.879,10.742,-106.445,0.000
1714027289.436,-92.285,-27.832,2.441,-96.191,0.000
1714027289.440,-79.102,-31.738,-11.230,-86.914,0.000
1714027289.444,-70.801,-35.156,-13.672,-79.590,0.000
1714027289.448,-70.312,-37.109,-11.719,-62.500,0.000
1714027289.452,-54.199,-37.598,-10.742,-40.039,0.000
1714027289.455,-21.484,-35.645,-4.395,-20.508,0.000
1714027289.459,-13.184,-35.645,-5.371,-19.531,0.000
1714027289.463,-11.230,-38.086,-11.719,-20.508,0.000
1714027289.467,6.348,-43.457,-14.648,0.977,0.000
1714027289.471,25.879,-42.480,-13.672,26.855,0.000
1714027289.475,31.738,-41.504,-21.484,29.297,0.000
1714027289.479,29.297,-41.992,-31.250,27.832,0.000
1714027289.483,36.133,-39.062,-30.762,35.645,0.000
1714027289.487,42.969,-37.109,-35.645,43.457,0.000
1714027289.491,55.664,-40.527,-34.668,61.523,0.000
1714027289.494,67.871,-37.109,-17.578,63.477,0.000
1714027289.498,59.082,-35.645,-21.973,51.270,0.000
1714027289.502,61.035,-37.109,-41.992,61.035,0.000
1714027289.506,68.359,-33.691,-40.039,66.406,0.000
1714027289.510,53.223,-37.598,-33.203,52.246,0.000
1714027289.514,49.316,-38.086,-39.551,47.363,0.000
1714027289.518,55.664,-37.109,-47.363,54.688,0.000
1714027289.522,55.664,-37.109,-42.969,62.500,0.000
1714027289.526,55.664,-38.086,-34.668,59.082,0.000
1714027289.530,53.223,-38.086,-31.250,58.594,0.000
1714027289.534,53.223,-34.180,-35.156,63.477,0.000
1714027289.538,51.758,-31.250,-34.668,55.176,0.000
1714027289.541,43.457,-31.250,-38.574,40.039,0.000
1714027289.545,34.180,-32.715,-43.457,28.320,0.000
1714027289.549,35.645,-33.203,-37.598,28.320,0.000
1714027289.553,41.504,-32.227,-38.086,37.109,0.000
1714027289.557,40.527,-35.156,-33.691,36.133,0.000
1714027289.561,32.715,-34.668,-26.855,23.926,0.000
1714027289.565,29.297,-31.250,-25.879,22.461,0.000
1714027289.569,28.320,-32.227,-30.273,22.949,0.000
1714027289.573,24.902,-24.414,-31.738,17.090,0.000
1714027289.577,24.414,-25.879,-36.621,15.625,0.000
1714027289.581,17.578,-33.691,-39.551,15.137,0.000
1714027289.584,8.301,-29.297,-33.691,8.301,0.000
1714027289.588,11.719,-26.855,-25.879,12.207,0.000
1714027289.592,19.531,-25.879,-21.973,19.531,0.000
1714027289.596,16.602,-27.832,-24.902,14.160,0.000
1714027289.600,14.160,-28.320,-25.391,15.137,0.000
1714027289.604,18.066,-28.809,-29.297,22.949,0.000
1714027289.608,10.254,-31.250,-35.156,16.602,0.000
1714027289.612,5.371,-32.715,-34.668,5.859,0.000
1714027289.616,6.836,-31.738,-29.297,3.906,0.000
1714027289.620,0.488,-30.273,-30.273,-1.465,0.000
1714027289.624,-0.977,-30.762,-32.227,-2.930,0.000
1714027289.627,1.953,-29.785,-34.668,-12.695,0.000
1714027289.631,1.953,-27.344,-35.156,-19.043,0.000
1714027289.635,-0.488,-25.391,-25.391,-14.160,0.000
1714027289.639,1.953,-22.949,-25.391,-11.230,0.000
1714027289.643,-0.977,-27.832,-30.273,-15.625,0.000
1714027289.647,-6.348,-25.391,-29.297,-18.555,0.000
1714027289.651,-4.395,-23.926,-28.809,-12.207,0.000
1714027289.655,-4.883,-24.902,-27.832,-8.789,0.000
1714027289.659,-11.230,-22.461,-26.367,-14.160,0.000
1714027289.663,-14.160,-25.879,-32.227,-16.602,0.000
1714027289.666,-14.160,-32.227,-42.480,-12.695,0.000
1714027289.670,-11.230,-32.715,-30.273,-3.418,0.000
1714027289.674,-14.648,-25.879,-23.926,-9.277,0.000
1714027289.678,-13.184,-25.391,-29.785,-17.578,0.000
1714027289.682,-7.812,-25.391,-24.414,-16.113,0.000
1714027289.686,-8.301,-20.996,-26.367,-14.648,0.000
1714027289.690,-14.160,-27.832,-36.621,-22.461,0.000
1714027289.694,-19.043,-30.762,-33.203,-25.879,0.000
1714027289.698,-14.160,-24.902,-20.508,-15.137,0.000
1714027289.702,-11.719,-24.902,-15.137,-11.719,0.000
1714027289.706,-7.812,-24.902,-20.996,-12.695,0.000
1714027289.709,-10.742,-25.879,-27.344,-18.555,0.000
1714027289.713,-18.555,-30.762,-32.227,-19.531,0.000
1714027289.717,-16.602,-24.414,-28.809,-15.625,0.000
1714027289.721,-13.184,-22.461,-25.391,-21.484,0.000
1714027289.725,-22.461,-27.344,-29.785,-26.367,0.000
1714027289.729,-25.391,-28.320,-33.691,-27.344,0.000
1714027289.733,-20.508,-30.762,-29.297,-23.926,0.000
1714027289.737,-17.578,-28.809,-27.344,-22.949,0.000
1714027289.741,-24.902,-28.320,-26.855,-24.902,0.000
1714027289.745,-25.879,-33.203,-32.227,-29.785,0.000
1714027289.748,-24.414,-33.691,-38.574,-31.250,0.000
1714027289.752,-25.879,-29.785,-33.691,-29.297,0.000
1714027289.756,-27.832,-27.344,-23.438,-29.785,0.000
1714027289.760,-30.273,-25.879,-18.066,-25.391,0.000
1714027289.764,-28.809,-23.438,-16.602,-28.809,0.000
1714027289.768,-29.297,-27.832,-21.973,-30.762,0.000
1714027289.772,-23.926,-30.762,-31.250,-27.832,0.000
1714027289.776,-20.508,-27.832,-29.297,-32.715,0.000
1714027289.780,-25.879,-26.855,-24.414,-39.551,0.000
1714027289.784,-26.855,-26.855,-29.785,-31.250,0.000
1714027289.788,-20.996,-25.879,-32.227,-22.461,0.000
1714027289.791,-19.043,-24.414,-28.320,-29.785,0.000
1714027289.795,-19.043,-22.949,-26.855,-33.203,0.000
1714027289.799,-13.672,-20.996,-34.668,-28.320,0.000
1714027289.803,-13.672,-23.438,-30.762,-26.367,0.000
1714027289.807,-17.578,-22.461,-18.555,-28.809,0.000
1714027289.811,-20.020,-20.020,-20.996,-37.598,0.000
1714027289.815,-26.855,-29.297,-32.227,-41.504,0.000
1714027289.819,-32.715,-35.156,-37.109,-38.574,0.000
1714027289.823,-25.391,-33.203,-30.762,-34.180,0.000
1714027289.827,-27.344,-34.180,-26.367,-41.016,0.000
1714027289.830,-33.203,-32.715,-36.133,-40.039,0.000
1714027289.834,-22.461,-29.785,-31.250,-28.320,0.000
1714027289.838,-16.602,-31.738,-22.461,-25.879,0.000
1714027289.842,-21.973,-34.668,-31.250,-33.691,0.000
1714027289.846,-23.926,-30.762,-30.762,-32.715,0.000
1714027289.850,-22.461,-31.738,-28.320,-24.414,0.000
1714027289.854,-18.555,-33.203,-27.344,-23.926,0.000
1714027289.858,-14.648,-30.273,-27.344,-25.879,0.000
1714027289.862,-22.461,-31.250,-32.715,-32.227,0.000
1714027289.866,-29.785,-29.785,-26.855,-31.250,0.000
1714027289.869,-26.367,-26.855,-22.949,-27.344,0.000
1714027289.873,-21.484,-26.855,-21.484,-25.391,0.000
1714027289.877,-23.438,-29.785,-28.809,-33.691,0.000
1714027289.881,-34.180,-35.645,-36.621,-37.598,0.000
1714027289.885,-32.715,-33.691,-33.691,-30.762,0.000
1714027289.889,-24.414,-28.809,-36.621,-31.250,0.000
1714027289.893,-27.344,-31.250,-39.551,-36.133,0.000
1714027289.897,-25.391,-29.297,-33.691,-35.156,0.000
1714027289.901,-19.531,-22.949,-38.086,-34.668,0.000
1714027289.905,-19.043,-20.020,-36.133,-27.832,0.000
1714027289.909,-15.625,-21.484,-29.785,-20.020,0.000
1714027289.912,-13.672,-22.461,-26.855,-20.508,0.000
1714027289.916,-16.602,-23.438,-24.902,-20.020,0.000
1714027289.920,-15.625,-23.926,-30.273,-27.832,0.000
1714027289.924,-19.043,-24.414,-34.668,-39.062,0.000
1714027289.928,-21.973,-22.461,-32.715,-38.574,0.000
1714027289.932,-15.137,-22.949,-28.809,-30.273,0.000
1714027289.936,-12.207,-27.344,-20.996,-20.996,0.000
1714027289.940,-9.766,-21.484,-20.996,-20.996,0.000
1714027289.944,-10.254,-16.602,-28.809,-23.926,0.000
1714027289.948,-16.602,-21.484,-20.996,-22.461,0.000
1714027289.952,-19.531,-23.438,-18.066,-20.996,0.000
1714027289.956,-14.648,-22.949,-30.273,-16.113,0.000
1714027289.959,-16.602,-23.438,-33.203,-31.738,0.000
1714027289.963,-19.043,-22.461,-23.926,-41.016,0.000
1714027289.967,-16.602,-25.879,-21.973,-29.785,0.000
1714027289.971,-24.414,-29.297,-25.879,-32.715,0.000
1714027289.975,-26.367,-28.320,-29.785,-41.992,0.000
1714027289.979,-26.367,-30.762,-31.738,-38.574,0.000
1714027289.983,-27.344,-26.367,-25.879,-29.785,0.000
1714027289.987,-20.996,-24.902,-22.949,-21.973,0.000
1714027289.991,-18.555,-25.391,-25.391,-27.344,0.000
1714027289.995,-18.555,-22.949,-24.902,-36.621,0.000
1714027289.998,-16.113,-26.855,-26.855,-24.414,0.000
1714027290.002,-16.113,-25.879,-30.273,-21.484,0.000
1714027290.006,-18.066,-23.438,-35.645,-29.297,0.000
1714027290.010,-18.066,-25.879,-37.109,-26.367,0.000
1714027290.014,-20.020,-27.344,-31.738,-28.320,0.000
1714027290.018,-20.996,-26.855,-23.926,-27.832,0.000
1714027290.022,-17.578,-24.414,-20.020,-29.297,0.000
1714027290.026,-9.277,-25.391,-25.879,-28.320,0.000
1714027290.030,-12.695,-30.273,-31.738,-25.391,0.000
1714027290.034,-26.367,-30.273,-34.180,-26.855,0.000
1714027290.038,-31.250,-32.227,-29.297,-26.855,0.000
1714027290.041,-23.438,-33.203,-29.785,-26.367,0.000
1714027290.045,-23.438,-34.180,-30.762,-24.902,0.000
1714027290.049,-24.414,-29.785,-18.066,-17.090,0.000
1714027290.053,-29.297,-28.320,-5.859,-18.555,0.000
1714027290.057,-42.969,-36.133,-13.184,-28.320,0.000
1714027290.061,-42.480,-37.598,-19.043,-34.668,0.000
1714027290.065,-35.645,-34.668,-12.207,-37.598,0.000
1714027290.069,-28.809,-33.691,-13.672,-29.785,0.000
1714027290.073,-19.043,-33.691,-20.996,-25.391,0.000
1714027290.077,-20.508,-26.855,-22.461,-31.250,0.000
1714027290.081,-25.879,-28.809,-16.602,-30.273,0.000
1714027290.084,-27.344,-33.203,-21.484,-25.391,0.000
1714027290.088,-29.297,-31.250,-33.691,-23.438,0.000
1714027290.092,-28.809,-29.297,-24.902,-24.414,0.000
1714027290.096,-29.297,-26.855,-9.277,-25.879,0.000
1714027290.100,-34.668,-31.738,-12.695,-28.809,0.000
1714027290.104,-33.691,-32.715,-20.508,-28.809,0.000
1714027290.108,-28.320,-30.762,-25.391,-23.926,0.000
1714027290.112,-30.273,-30.762,-22.461,-28.320,0.000
1714027290.116,-34.180,-30.762,-19.531,-33.203,0.000
1714027290.120,-23.926,-24.414,-13.184,-20.996,0.000
1714027290.123,-18.066,-21.973,-12.207,-20.020,0.000
1714027290.127,-24.902,-27.832,-22.461,-29.297,0.000
1714027290.131,-28.809,-30.762,-22.461,-23.438,0.000
1714027290.135,-29.297,-31.250,-24.902,-14.160,0.000
1714027290.139,-33.203,-34.668,-32.227,-22.949,0.000
1714027290.143,-33.203,-36.621,-38.574,-33.203,0.000
1714027290.147,-28.320,-31.250,-39.551,-26.367,0.000
1714027290.151,-23.926,-29.297,-36.621,-20.996,0.000
1714027290.155,-25.391,-29.297,-29.297,-21.973,0.000
1714027290.159,-32.715,-30.273,-26.855,-30.762,0.000
1714027290.162,-36.621,-32.715,-27.344,-35.645,0.000
1714027290.166,-33.691,-30.762,-21.973,-22.949,0.000
1714027290.170,-30.273,-26.855,-22.949,-28.809,0.000
1714027290.174,-31.738,-29.785,-33.203,-41.016,0.000
1714027290.178,-38.086,-32.227,-39.062,-35.156,0.000
1714027290.182,-40.527,-28.320,-33.203,-30.762,0.000
1714027290.186,-30.273,-19.531,-20.508,-23.438,0.000
1714027290.190,-26.855,-21.484,-11.719,-23.438,0.000
1714027290.194,-31.250,-23.926,-14.160,-28.320,0.000
1714027290.198,-27.344,-20.996,-11.230,-26.367,0.000
1714027290.201,-25.879,-23.438,-20.996,-24.902,0.000
1714027290.205,-29.785,-28.809,-34.668,-27.344,0.000
1714027290.209,-31.250,-29.785,-32.715,-31.250,0.000
1714027290.213,-28.320,-30.273,-32.715,-28.320,0.000
1714027290.217,-22.949,-27.344,-30.762,-29.297,0.000
1714027290.221,-15.137,-24.414,-23.438,-22.949,0.000
1714027290.225,-13.672,-25.879,-30.273,-16.602,0.000
1714027290.229,-18.066,-26.367,-34.180,-25.879,0.000
1714027290.233,-22.461,-31.738,-24.414,-29.785,0.000
1714027290.237,-20.020,-31.250,-34.180,-27.832,0.000
1714027290.241,-14.648,-29.297,-37.598,-33.203,0.000
1714027290.244,-15.625,-29.297,-31.738,-34.180,0.000
1714027290.248,-11.719,-29.785,-41.016,-25.391,0.000
1714027290.252,-11.719,-29.785,-45.410,-30.273,0.000
1714027290.256,-11.230,-25.879,-30.273,-27.344,0.000
1714027290.260,-11.230,-27.344,-23.438,-27.832,0.000
1714027290.264,-20.996,-30.762,-31.738,-34.180,0.000
1714027290.268,-28.809,-28.809,-40.527,-31.250,0.000
1714027290.272,-31.738,-30.273,-39.062,-32.227,0.000
1714027290.276,-31.738,-35.645,-29.785,-31.250,0.000
1714027290.280,-19.043,-37.109,-32.227,-14.648,0.000
1714027290.284,0.977,-28.320,-38.574,3.906,0.000
1714027290.287,-13.672,-23.438,-30.273,-19.043,0.000
1714027290.291,-27.344,-25.391,-27.832,-41.016,0.000
1714027290.295,-20.020,-21.484,-24.414,-36.621,0.000
1714027290.299,-15.137,-13.184,-25.391,-27.344,0.000
1714027290.303,-14.160,-7.812,-45.898,-33.203,0.000
1714027290.307,-20.996,-11.230,-54.688,-51.270,0.000
1714027290.311,-25.391,-14.160,-52.734,-54.688,0.000
1714027290.315,-23.438,-7.812,-54.199,-47.852,0.000
1714027290.319,-29.297,-5.371,-45.898,-48.828,0.000
1714027290.323,-36.133,-10.742,-42.480,-52.246,0.000
1714027290.327,-28.809,-14.648,-44.922,-45.898,0.000
1714027290.330,-21.484,-12.207,-41.992,-34.180,0.000
1714027290.334,-20.020,-3.906,-36.621,-32.715,0.000
1714027290.338,-19.043,-4.883,-36.621,-36.621,0.000
1714027290.342,-20.996,-11.719,-41.504,-41.992,0.000
1714027290.346,-24.414,-12.207,-38.574,-46.875,0.000
1714027290.350,-27.344,-14.160,-38.574,-37.598,0.000
1714027290.354,-30.762,-19.043,-44.922,-36.133,0.000
1714027290.358,-31.738,-18.555,-41.504,-41.504,0.000
1714027290.362,-29.785,-17.578,-37.598,-40.039,0.000
1714027290.366,-27.344,-21.973,-35.645,-39.062,0.000
1714027290.370,-24.902,-23.438,-36.133,-38.086,0.000
1714027290.373,-22.461,-26.367,-36.133,-40.039,0.000
1714027290.377,-22.461,-25.879,-38.086,-38.574,0.000
1714027290.381,-27.344,-26.367,-43.945,-37.598,0.000
1714027290.385,-29.297,-28.809,-42.480,-37.598,0.000
1714027290.389,-25.391,-26.855,-38.086,-37.109,0.000
1714027290.393,-20.996,-24.414,-38.086,-38.086,0.000
1714027290.397,-16.602,-21.973,-36.621,-34.668,0.000
1714027290.401,-14.160,-23.438,-30.273,-27.832,0.000
1714027290.405,-13.672,-20.020,-31.738,-26.855,0.000
1714027290.409,-12.695,-18.066,-29.785,-32.227,0.000
1714027290.413,-17.090,-21.973,-22.949,-33.691,0.000
1714027290.416,-18.066,-28.320,-33.691,-26.855,0.000
1714027290.420,-16.602,-32.715,-38.574,-18.555,0.000
1714027290.424,-24.414,-29.785,-32.227,-26.855,0.000
1714027290.428,-23.438,-27.832,-30.273,-30.273,0.000
1714027290.432,-17.090,-27.832,-24.902,-21.973,0.000
1714027290.436,-18.066,-25.879,-19.043,-22.461,0.000
1714027290.440,-21.484,-25.391,-19.531,-27.344,0.000
1714027290.444,-19.531,-26.367,-21.484,-31.738,0.000
1714027290.448,-19.043,-27.832,-22.949,-27.832,0.000
1714027290.452,-20.020,-28.809,-17.578,-20.020,0.000
1714027290.455,-23.926,-27.832,-22.949,-24.414,0.000
1714027290.459,-22.949,-23.438,-32.715,-28.320,0.000
1714027290.463,-21.973,-19.043,-25.879,-19.043,0.000
1714027290.467,-23.438,-20.508,-17.578,-15.137,0.000
1714027290.471,-20.996,-21.973,-20.996,-23.438,0.000
1714027290.475,-21.484,-21.484,-22.461,-24.414,0.000
1714027290.479,-24.414,-20.996,-18.555,-20.508,0.000
1714027290.483,-21.484,-24.414,-14.648,-23.438,0.000
1714027290.487,-19.043,-26.367,-20.996,-23.926,0.000
1714027290.491,-20.996,-24.902,-29.785,-29.297,0.000
1714027290.495,-22.461,-21.973,-35.645,-31.738,0.000
1714027290.498,-28.809,-22.949,-40.527,-27.344,0.000
1714027290.502,-26.855,-25.391,-31.250,-23.438,0.000
1714027290.506,-26.855,-24.414,-24.902,-22.461,0.000
1714027290.510,-34.668,-26.367,-36.133,-30.762,0.000
1714027290.514,-29.785,-23.926,-31.738,-36.133,0.000
1714027290.518,-23.926,-23.926,-20.020,-28.320,0.000
1714027290.522,-24.902,-29.785,-34.180,-29.297,0.000
1714027290.526,-26.367,-25.879,-41.504,-31.738,0.000
1714027290.530,-28.320,-22.461,-34.180,-35.645,0.000
1714027290.534,-27.344,-28.320,-29.785,-38.086,0.000
1714027290.537,-26.367,-36.133,-28.320,-31.250,0.000
1714027290.541,-31.250,-34.668,-30.762,-28.809,0.000
1714027290.545,-30.273,-27.344,-34.180,-28.809,0.000
1714027290.549,-27.344,-27.832,-30.762,-20.996,0.000
1714027290.553,-26.367,-33.691,-28.320,-13.672,0.000
1714027290.557,-27.832,-27.832,-28.809,-19.043,0.000
1714027290.561,-29.297,-30.273,-17.090,-29.785,0.000
1714027290.565,-25.879,-33.691,-25.879,-28.320,0.000
1714027290.569,-24.902,-27.344,-35.645,-20.996,0.000
1714027290.573,-25.879,-23.926,-31.250,-16.113,0.000
1714027290.577,-16.113,-26.367,-32.227,-11.719,0.000
1714027290.580,-9.766,-26.367,-31.738,-11.230,0.000
1714027290.584,-23.926,-25.391,-31.738,-29.297,0.000
1714027290.588,-25.391,-21.973,-29.297,-37.109,0.000
1714027290.592,-14.648,-20.996,-29.785,-31.250,0.000
1714027290.596,-21.484,-28.809,-33.691,-29.297,0.000
1714027290.600,-26.367,-33.203,-35.645,-25.391,0.000
1714027290.604,-17.578,-31.250,-34.180,-22.949,0.000
1714027290.608,-17.090,-26.367,-30.762,-22.949,0.000
1714027290.612,-13.184,-21.484,-31.738,-21.973,0.000
1714027290.616,-11.719,-22.949,-32.715,-22.949,0.000
1714027290.620,-14.160,-26.855,-37.109,-23.438,0.000
1714027290.623,-18.066,-25.391,-40.039,-22.949,0.000
1714027290.627,-24.902,-26.855,-36.133,-33.691,0.000
1714027290.631,-27.344,-25.391,-37.109,-37.109,0.000
1714027290.635,-19.043,-24.414,-27.832,-21.484,0.000
1714027290.639,-15.625,-26.855,-18.555,-16.602,0.000
1714027290.643,-24.902,-24.902,-27.344,-31.250,0.000
1714027290.647,-24.902,-21.973,-34.668,-35.156,0.000
1714027290.651,-24.414,-23.438,-36.621,-33.691,0.000
1714027290.655,-25.391,-23.926,-40.039,-31.250,0.000
1714027290.659,-22.461,-23.926,-41.992,-25.879,0.000
1714027290.663,-23.438,-22.949,-35.156,-25.879,0.000
1714027290.666,-28.809,-26.855,-27.832,-30.762,0.000
1714027290.670,-25.391,-26.367,-28.320,-31.738,0.000
1714027290.674,-21.484,-22.461,-34.668,-28.809,0.000
1714027290.678,-26.367,-27.344,-38.086,-34.668,0.000
1714027290.682,-31.738,-33.691,-35.645,-26.855,0.000
1714027290.686,-37.109,-35.156,-38.086,-27.832,0.000
1714027290.690,-33.691,-34.668,-32.227,-30.762,0.000
1714027290.694,-24.902,-29.785,-29.297,-24.902,0.000
1714027290.698,-19.531,-25.879,-30.762,-21.973,0.000
1714027290.702,-16.113,-28.320,-30.762,-13.672,0.000
1714027290.706,-9.766,-28.320,-30.762,-6.836,0.000
1714027290.709,-8.301,-22.461,-25.879,-11.719,0.000
1714027290.713,-12.695,-20.508,-25.391,-14.648,0.000
1714027290.713,-12.695,-20.508,-25.391,-14.648,0.000
1714027290.717,-16.602,-22.949,-28.320,-7.324,0.000
1714027290.721,-14.648,-20.996,-28.320,-4.883,0.000
1714027290.725,-23.438,-24.414,-25.879,-22.461,0.000
1714027290.729,-31.738,-26.367,-25.391,-26.367,0.000
1714027290.733,-26.367,-23.438,-28.320,-18.066,0.000
1714027290.737,-28.320,-25.391,-33.203,-26.855,0.000
1714027290.741,-27.832,-32.715,-34.668,-34.668,0.000
1714027290.745,-21.484,-32.227,-27.832,-37.598,0.000
1714027290.749,-22.461,-28.809,-30.273,-32.227,0.000
1714027290.752,-24.414,-27.832,-37.598,-27.344,0.000
1714027290.756,-19.043,-25.879,-34.180,-32.227,0.000
1714027290.760,-20.508,-27.344,-25.879,-29.785,0.000
1714027290.764,-26.367,-30.273,-19.531,-25.879,0.000
1714027290.768,-27.344,-33.691,-16.113,-24.414,0.000
1714027290.772,-30.273,-35.645,-20.020,-23.438,0.000
1714027290.776,-32.227,-30.273,-30.762,-28.809,0.000
1714027290.780,-32.715,-25.879,-32.227,-32.715,0.000
1714027290.784,-31.738,-25.879,-25.879,-25.879,0.000
1714027290.788,-25.391,-22.949,-22.461,-25.879,0.000
1714027290.791,-23.926,-20.020,-23.438,-32.227,0.000
1714027290.795,-26.367,-21.973,-24.414,-26.367,0.000
1714027290.799,-31.250,-24.902,-26.855,-28.809,0.000
1714027290.803,-35.156,-27.832,-28.809,-35.156,0.000
1714027290.807,-35.156,-33.203,-24.902,-36.621,0.000
1714027290.811,-34.668,-37.598,-27.832,-38.574,0.000
1714027290.815,-39.062,-38.574,-31.250,-38.086,0.000
1714027290.819,-41.992,-37.598,-28.809,-32.715,0.000
1714027290.823,-33.691,-36.621,-36.621,-32.715,0.000
1714027290.827,-32.715,-35.645,-34.180,-34.668,0.000
1714027290.831,-30.762,-32.715,-22.461,-30.273,0.000
1714027290.835,-24.414,-32.715,-27.344,-30.273,0.000
1714027290.838,-23.926,-33.691,-32.715,-22.949,0.000
1714027290.842,-23.926,-33.203,-24.902,-26.855,0.000
1714027290.846,-20.996,-33.203,-26.367,-41.016,0.000
1714027290.850,-24.902,-36.621,-29.785,-38.574,0.000
1714027290.854,-24.902,-35.645,-31.250,-34.668,0.000
1714027290.858,-26.855,-30.273,-37.109,-39.551,0.000
1714027290.862,-31.250,-28.809,-35.156,-44.434,0.000
1714027290.866,-28.809,-28.320,-32.715,-39.062,0.000
1714027290.870,-24.902,-23.926,-30.762,-27.344,0.000
1714027290.874,-25.391,-19.531,-29.297,-29.297,0.000
1714027290.878,-25.391,-22.949,-29.297,-35.156,0.000
1714027290.881,-27.832,-29.297,-28.809,-36.621,0.000
1714027290.885,-32.715,-32.227,-29.297,-39.062,0.000
1714027290.889,-29.785,-25.391,-23.926,-41.992,0.000
1714027290.893,-32.227,-25.879,-25.879,-47.852,0.000
1714027290.897,-37.598,-29.297,-34.180,-45.898,0.000
1714027290.901,-32.715,-31.738,-35.156,-30.273,0.000
1714027290.905,-29.785,-32.715,-24.902,-32.227,0.000
1714027290.909,-31.250,-27.832,-21.484,-39.062,0.000
1714027290.913,-27.832,-25.391,-28.320,-35.156,0.000
1714027290.917,-22.461,-26.855,-30.762,-30.762,0.000
1714027290.920,-17.578,-28.320,-27.832,-27.344,0.000
1714027290.924,-18.555,-30.762,-23.926,-28.320,0.000
1714027290.928,-20.020,-35.156,-26.855,-34.668,0.000
1714027290.932,-27.832,-36.621,-34.180,-38.574,0.000
1714027290.936,-28.320,-31.250,-35.645,-41.016,0.000
1714027290.940,-25.391,-26.367,-33.203,-46.875,0.000
1714027290.944,-28.809,-24.414,-29.785,-49.316,0.000
1714027290.948,-32.715,-27.832,-30.762,-48.340,0.000
1714027290.952,-31.250,-32.715,-31.738,-39.062,0.000
1714027290.956,-21.973,-27.832,-26.855,-30.762,0.000
1714027290.959,-18.066,-21.484,-24.902,-34.668,0.000
1714027290.963,-23.926,-21.484,-28.809,-32.715,0.000
1714027290.967,-25.391,-20.508,-33.691,-24.414,0.000
1714027290.971,-30.273,-22.949,-41.992,-32.715,0.000
1714027290.975,-32.715,-28.320,-44.922,-33.203,0.000
1714027290.979,-36.133,-31.250,-33.691,-34.180,0.000
1714027290.983,-40.527,-31.738,-32.227,-39.062,0.000
1714027290.987,-31.250,-28.809,-31.250,-29.297,0.000
1714027290.991,-25.879,-20.508,-30.762,-26.855,0.000
1714027290.995,-25.879,-16.602,-31.250,-29.297,0.000
1714027290.999,-25.879,-27.344,-29.297,-29.785,0.000
1714027291.002,-30.273,-31.738,-39.062,-31.738,0.000
1714027291.006,-33.691,-29.785,-40.527,-33.203,0.000
1714027291.010,-33.203,-27.832,-35.645,-36.621,0.000
1714027291.014,-29.785,-27.344,-31.250,-39.062,0.000
1714027291.018,-24.902,-29.297,-30.273,-32.715,0.000
1714027291.022,-27.832,-24.414,-30.762,-28.809,0.000
1714027291.026,-24.902,-18.066,-24.414,-29.297,0.000
1714027291.030,-18.555,-19.531,-23.438,-28.320,0.000
1714027291.034,-20.020,-20.508,-29.297,-15.625,0.000
1714027291.038,-24.414,-19.043,-21.973,-12.207,0.000
1714027291.042,-31.250,-26.855,-27.832,-27.344,0.000
1714027291.045,-30.762,-27.832,-41.016,-34.668,0.000
1714027291.049,-23.926,-23.926,-38.086,-26.367,0.000
1714027291.053,-21.484,-22.461,-33.203,-20.996,0.000
1714027291.057,-20.996,-21.484,-28.809,-19.043,0.000
1714027291.061,-21.973,-22.949,-24.902,-22.949,0.000
1714027291.065,-16.602,-18.555,-21.484,-22.949,0.000
1714027291.069,-16.602,-18.555,-20.020,-13.184,0.000
1714027291.073,-20.996,-21.484,-18.555,-17.090,0.000
1714027291.077,-24.414,-22.461,-32.227,-20.508,0.000
1714027291.081,-23.926,-18.555,-40.527,-17.578,0.000
1714027291.085,-19.531,-16.602,-32.715,-21.973,0.000
1714027291.088,-18.066,-23.438,-33.691,-27.344,0.000
1714027291.092,-16.602,-27.344,-31.250,-29.785,0.000
1714027291.096,-21.484,-26.367,-24.414,-34.180,0.000
1714027291.100,-20.996,-21.484,-25.391,-33.203,0.000
1714027291.104,-19.531,-20.996,-28.809,-28.809,0.000
1714027291.108,-22.461,-27.832,-29.785,-32.715,0.000
1714027291.112,-20.020,-27.344,-35.156,-31.738,0.000
1714027291.116,-22.461,-27.344,-29.785,-35.156,0.000
1714027291.120,-27.344,-27.832,-26.367,-35.645,0.000
1714027291.124,-28.320,-28.809,-30.273,-31.250,0.000
1714027291.127,-26.855,-29.785,-24.902,-33.691,0.000
1714027291.131,-26.855,-28.809,-25.879,-30.762,0.000
1714027291.135,-29.297,-30.762,-30.273,-26.367,0.000
1714027291.139,-28.320,-31.250,-33.203,-28.809,0.000
1714027291.143,-29.785,-27.344,-30.273,-35.156,0.000
1714027291.147,-33.203,-31.250,-31.738,-35.156,0.000
1714027291.151,-32.715,-37.109,-38.574,-31.738,0.000
1714027291.155,-36.133,-37.598,-33.691,-34.668,0.000
1714027291.159,-35.645,-35.645,-35.645,-35.156,0.000
1714027291.163,-38.574,-36.621,-39.062,-40.527,0.000
1714027291.167,-37.598,-34.668,-35.156,-33.691,0.000
1714027291.170,-30.762,-31.250,-35.645,-20.508,0.000
1714027291.174,-31.738,-30.273,-41.016,-24.414,0.000
1714027291.178,-33.691,-29.297,-37.109,-30.762,0.000
1714027291.182,-31.250,-27.832,-34.668,-24.902,0.000
1714027291.186,-18.555,-26.367,-29.785,-10.742,0.000
1714027291.190,-8.789,-21.484,-26.855,-6.348,0.000
1714027291.194,-24.414,-22.949,-25.879,-22.949,0.000
1714027291.198,-32.227,-25.879,-25.879,-30.273,0.000
1714027291.202,-16.602,-18.066,-27.344,-15.625,0.000
1714027291.206,-20.996,-19.043,-30.273,-20.508,0.000
1714027291.210,-22.949,-24.902,-35.156,-33.203,0.000
1714027291.213,-13.672,-26.367,-37.109,-24.902,0.000
1714027291.217,-16.113,-25.391,-28.809,-22.949,0.000
1714027291.221,-10.254,-23.438,-21.484,-18.066,0.000
1714027291.225,-7.812,-24.414,-20.508,-19.531,0.000
1714027291.229,-7.812,-22.949,-19.043,-20.996,0.000
1714027291.233,-5.371,-20.020,-15.625,-9.277,0.000
1714027291.237,-9.277,-23.926,-21.484,-7.812,0.000
1714027291.241,-19.531,-30.273,-29.785,-17.578,0.000
1714027291.245,-22.461,-21.484,-25.391,-19.043,0.000
1714027291.249,-20.996,-19.043,-20.020,-17.090,0.000
1714027291.252,-27.344,-29.785,-26.855,-20.020,0.000
1714027291.256,-33.691,-29.785,-33.691,-26.855,0.000
1714027291.260,-37.598,-29.297,-33.691,-24.902,0.000
1714027291.264,-38.086,-35.645,-32.715,-29.297,0.000
1714027291.268,-32.715,-30.273,-33.203,-29.297,0.000
1714027291.272,-26.367,-22.949,-31.250,-21.484,0.000
1714027291.276,-29.785,-24.414,-27.832,-28.809,0.000
1714027291.280,-34.668,-25.879,-32.715,-36.621,0.000
1714027291.284,-33.203,-22.461,-35.156,-32.715,0.000
1714027291.288,-28.320,-24.902,-29.297,-29.297,0.000
1714027291.291,-24.414,-27.832,-32.227,-28.809,0.000
1714027291.295,-24.414,-26.855,-39.551,-34.180,0.000
1714027291.299,-23.438,-25.879,-39.551,-35.645,0.000
1714027291.303,-18.066,-22.949,-34.668,-21.973,0.000
1714027291.307,-20.508,-21.973,-28.320,-22.461,0.000
1714027291.311,-21.973,-20.996,-27.832,-34.180,0.000
1714027291.315,-16.602,-20.508,-23.438,-26.367,0.000
1714027291.319,-16.602,-24.902,-18.066,-21.973,0.000
1714027291.323,-17.578,-24.414,-18.066,-21.973,0.000
1714027291.327,-20.020,-21.484,-13.672,-24.902,0.000
1714027291.330,-20.020,-20.508,-12.207,-26.855,0.000
1714027291.334,-18.555,-21.484,-18.066,-23.438,0.000
1714027291.338,-16.602,-20.508,-24.414,-25.391,0.000
1714027291.342,-14.160,-20.020,-30.762,-31.250,0.000
1714027291.346,-17.090,-20.996,-33.203,-27.344,0.000
1714027291.350,-18.066,-19.531,-26.855,-13.672,0.000
1714027291.354,-8.789,-15.137,-12.695,-9.277,0.000
1714027291.358,-7.324,-15.625,-11.230,-14.160,0.000
1714027291.362,-18.555,-20.996,-26.855,-20.020,0.000
1714027291.366,-14.648,-19.531,-22.949,-13.184,0.000
1714027291.370,-15.137,-25.391,-20.996,-11.719,0.000
1714027291.374,-21.484,-27.832,-30.273,-15.137,0.000
1714027291.377,-19.043,-23.438,-31.738,-12.207,0.000
1714027291.381,-20.508,-23.438,-33.203,-12.207,0.000
1714027291.385,-20.996,-20.508,-30.273,-15.137,0.000
1714027291.389,-16.602,-18.555,-28.320,-17.090,0.000
1714027291.393,-20.508,-22.949,-33.203,-22.461,0.000
1714027291.397,-22.461,-25.391,-34.668,-21.484,0.000
1714027291.401,-20.020,-22.461,-22.461,-19.531,0.000
1714027291.405,-24.414,-25.879,-18.555,-25.879,0.000
1714027291.409,-27.344,-25.879,-28.809,-24.414,0.000
1714027291.413,-29.785,-23.926,-32.227,-28.809,0.000
1714027291.416,-25.391,-26.855,-31.738,-30.273,0.000
1714027291.420,-22.949,-30.273,-36.621,-27.832,0.000
1714027291.424,-27.832,-32.227,-38.086,-31.250,0.000
1714027291.428,-29.297,-31.738,-37.598,-37.109,0.000
1714027291.432,-29.297,-30.273,-32.715,-32.227,0.000
1714027291.436,-27.344,-32.227,-30.273,-31.738,0.000
1714027291.440,-23.926,-33.203,-28.809,-30.762,0.000
1714027291.444,-20.020,-30.273,-20.020,-27.344,0.000
1714027291.448,-27.832,-35.645,-26.855,-32.227,0.000
1714027291.452,-32.715,-34.668,-33.691,-32.227,0.000
1714027291.456,-27.344,-33.203,-37.109,-24.414,0.000
1714027291.459,-27.344,-30.762,-38.086,-31.250,0.000
1714027291.463,-30.273,-26.367,-37.598,-33.203,0.000
1714027291.467,-32.715,-27.344,-35.645,-22.461,0.000
1714027291.471,-33.203,-27.832,-32.715,-21.484,0.000
1714027291.475,-34.668,-27.344,-28.320,-25.879,0.000
1714027291.479,-32.715,-27.832,-22.461,-23.926,0.000
1714027291.483,-32.227,-26.367,-29.297,-22.949,0.000
1714027291.487,-29.785,-26.855,-34.180,-20.996,0.000
1714027291.491,-29.785,-28.809,-36.133,-20.996,0.000
1714027291.495,-28.320,-24.414,-33.691,-21.484,0.000
1714027291.499,-24.902,-27.344,-35.156,-17.090,0.000
1714027291.502,-25.879,-30.273,-32.715,-17.578,0.000
1714027291.506,-30.273,-27.832,-27.344,-20.508,0.000
1714027291.510,-29.785,-26.367,-29.297,-25.879,0.000
1714027291.514,-27.832,-26.855,-33.691,-26.367,0.000
1714027291.518,-28.320,-23.926,-19.531,-22.461,0.000
1714027291.522,-34.668,-22.461,-22.949,-26.367,0.000
1714027291.526,-35.645,-25.391,-37.109,-33.203,0.000
1714027291.530,-31.250,-28.809,-36.133,-33.691,0.000
1714027291.534,-28.809,-26.855,-31.250,-27.344,0.000
1714027291.538,-24.414,-25.879,-28.809,-30.762,0.000
1714027291.542,-21.973,-25.879,-32.715,-35.645,0.000
1714027291.545,-23.926,-22.949,-33.203,-31.738,0.000
1714027291.549,-25.391,-19.043,-30.762,-29.785,0.000
1714027291.553,-27.344,-20.996,-28.320,-27.832,0.000
1714027291.557,-27.832,-19.043,-20.508,-28.809,0.000
1714027291.561,-32.227,-15.137,-23.926,-37.598,0.000
1714027291.565,-41.504,-22.461,-34.668,-44.922,0.000
1714027291.569,-38.574,-24.414,-33.203,-36.621,0.000
1714027291.573,-33.691,-22.949,-29.785,-29.297,0.000
1714027291.577,-38.086,-24.902,-32.715,-33.203,0.000
1714027291.581,-36.133,-27.344,-31.250,-36.621,0.000
1714027291.585,-34.180,-29.297,-29.785,-33.691,0.000
1714027291.588,-34.668,-28.809,-26.367,-26.855,0.000
1714027291.592,-33.203,-27.832,-17.578,-21.484,0.000
1714027291.596,-39.062,-29.297,-27.832,-30.273,0.000
1714027291.600,-41.016,-26.367,-34.180,-33.203,0.000
1714027291.604,-36.621,-25.391,-26.367,-23.438,0.000
1714027291.608,-33.691,-29.785,-24.414,-26.367,0.000
1714027291.612,-41.504,-30.762,-28.809,-37.598,0.000
1714027291.616,-41.504,-30.762,-31.738,-29.785,0.000
1714027291.620,-35.156,-28.320,-27.344,-20.020,0.000
1714027291.624,-37.598,-29.297,-25.391,-24.414,0.000
1714027291.627,-39.062,-28.320,-29.297,-22.461,0.000
1714027291.631,-30.273,-22.461,-27.344,-10.254,0.000
1714027291.635,-28.320,-21.973,-15.137,-4.395,0.000
1714027291.639,-35.645,-25.879,-18.066,-15.625,0.000
1714027291.643,-39.062,-30.273,-25.391,-20.508,0.000
1714027291.647,-32.715,-27.832,-21.973,-21.973,0.000
1714027291.651,-30.762,-28.320,-27.832,-23.926,0.000
1714027291.655,-33.203,-28.320,-35.156,-16.602,0.000
1714027291.659,-33.203,-28.320,-33.203,-23.438,0.000
1714027291.663,-27.344,-26.367,-32.715,-24.414,0.000
1714027291.666,-28.320,-20.508,-35.156,-16.602,0.000
1714027291.670,-34.668,-18.555,-33.691,-15.137,0.000
1714027291.674,-40.039,-22.949,-38.574,-20.996,0.000
1714027291.678,-43.945,-25.391,-41.992,-28.320,0.000
1714027291.682,-42.480,-22.949,-41.016,-30.273,0.000
1714027291.686,-42.480,-25.391,-41.016,-31.738,0.000
1714027291.690,-43.457,-31.250,-37.109,-28.809,0.000
1714027291.694,-46.387,-31.250,-34.668,-33.691,0.000
1714027291.698,-46.387,-32.715,-36.621,-36.133,0.000
1714027291.702,-40.039,-30.273,-33.203,-31.250,0.000
1714027291.705,-40.039,-27.344,-33.203,-34.668,0.000
1714027291.709,-44.922,-27.344,-32.715,-39.062,0.000
1714027291.713,-45.898,-26.367,-27.344,-37.598,0.000
1714027291.717,-40.039,-23.926,-29.785,-37.109,0.000
1714027291.721,-33.691,-21.484,-33.691,-34.180,0.000
1714027291.725,-30.762,-22.949,-37.598,-35.645,0.000
1714027291.729,-34.180,-22.949,-35.156,-45.898,0.000
1714027291.733,-31.738,-21.973,-28.320,-38.086,0.000
1714027291.737,-31.250,-22.461,-29.297,-28.320,0.000
1714027291.741,-35.645,-26.855,-31.738,-36.133,0.000
1714027291.745,-33.203,-25.879,-28.320,-41.504,0.000
1714027291.748,-33.203,-21.484,-29.297,-39.062,0.000
1714027291.752,-31.250,-22.461,-30.762,-39.551,0.000
1714027291.756,-34.668,-28.320,-35.156,-42.969,0.000
1714027291.760,-34.668,-28.809,-37.598,-40.039,0.000
1714027291.764,-33.691,-29.297,-37.598,-35.645,0.000
1714027291.768,-28.809,-30.273,-38.086,-30.273,0.000
1714027291.772,-24.414,-29.785,-34.668,-28.320,0.000
1714027291.776,-27.832,-31.250,-29.297,-35.156,0.000
1714027291.780,-31.738,-32.227,-25.879,-39.551,0.000
1714027291.784,-37.109,-33.691,-27.344,-35.156,0.000
1714027291.788,-35.156,-28.320,-28.320,-35.156,0.000
1714027291.791,-34.180,-21.973,-25.879,-35.645,0.000
1714027291.795,-35.645,-28.809,-25.879,-33.691,0.000
1714027291.799,-31.738,-33.691,-27.832,-31.250,0.000
1714027291.803,-31.738,-31.250,-28.809,-26.855,0.000
1714027291.807,-37.598,-28.809,-27.344,-27.832,0.000
1714027291.811,-41.504,-34.180,-24.902,-38.086,0.000
1714027291.815,-37.598,-33.691,-23.926,-36.621,0.000
1714027291.819,-37.109,-27.832,-20.996,-26.855,0.000
1714027291.823,-30.273,-23.926,-16.602,-27.344,0.000
1714027291.827,-27.832,-26.367,-24.414,-36.133,0.000
1714027291.831,-33.691,-27.832,-17.578,-31.738,0.000
1714027291.834,-34.668,-26.367,-14.160,-26.367,0.000
1714027291.838,-36.621,-31.250,-31.738,-32.227,0.000
1714027291.842,-37.598,-36.621,-39.551,-34.668,0.000
1714027291.846,-37.109,-35.156,-29.785,-35.645,0.000
1714027291.850,-32.715,-26.367,-22.461,-38.574,0.000
1714027291.854,-30.273,-29.297,-27.344,-40.039,0.000
1714027291.858,-38.574,-28.320,-38.574,-39.062,0.000
1714027291.862,-41.992,-25.391,-31.738,-41.016,0.000
1714027291.866,-37.598,-27.344,-20.508,-37.109,0.000
1714027291.870,-33.691,-22.461,-13.672,-25.879,0.000
1714027291.874,-30.273,-25.391,-19.531,-18.066,0.000
1714027291.877,-30.273,-25.879,-30.273,-29.785,0.000
1714027291.881,-28.320,-22.949,-31.250,-33.203,0.000
1714027291.885,-20.996,-25.879,-33.203,-19.043,0.000
1714027291.889,-14.648,-23.926,-27.832,-13.184,0.000
1714027291.893,-29.297,-24.902,-18.066,-24.414,0.000
1714027291.897,-44.434,-31.250,-18.555,-38.086,0.000
1714027291.901,-44.434,-30.762,-21.484,-35.645,0.000
1714027291.905,-33.203,-25.391,-16.602,-26.855,0.000
1714027291.909,-21.973,-29.297,-17.578,-29.785,0.000
1714027291.913,-23.438,-31.250,-31.738,-30.762,0.000
1714027291.917,-23.438,-31.738,-30.762,-17.578,0.000
1714027291.920,-23.438,-34.180,-33.203,-10.254,0.000
1714027291.924,-30.273,-29.785,-40.039,-22.461,0.000
1714027291.928,-34.180,-26.367,-35.156,-25.879,0.000
1714027291.932,-30.273,-27.832,-30.762,-23.438,0.000
1714027291.936,-29.297,-30.762,-35.156,-24.414,0.000
1714027291.940,-30.762,-28.809,-30.762,-26.855,0.000
1714027291.944,-29.785,-25.391,-20.020,-30.273,0.000
1714027291.948,-22.461,-22.461,-19.531,-26.855,0.000
1714027291.952,-26.855,-23.926,-23.438,-22.949,0.000
1714027291.956,-33.203,-24.902,-34.668,-23.926,0.000
1714027291.959,-31.738,-28.320,-37.598,-28.320,0.000
1714027291.963,-33.203,-29.297,-33.203,-27.344,0.000
1714027291.967,-35.156,-26.367,-28.809,-25.391,0.000
1714027291.971,-31.250,-28.320,-24.902,-28.320,0.000
1714027291.975,-26.855,-28.809,-28.809,-30.762,0.000
1714027291.979,-29.785,-29.297,-31.250,-28.809,0.000
1714027291.983,-30.762,-27.344,-33.691,-20.996,0.000
1714027291.987,-25.879,-24.414,-27.832,-10.254,0.000
1714027291.991,-25.879,-23.926,-21.973,-10.254,0.000
1714027291.995,-33.691,-24.414,-28.809,-18.066,0.000
1714027291.999,-39.062,-26.855,-34.668,-19.531,0.000
1714027292.002,-37.598,-22.949,-34.668,-18.066,0.000
1714027292.006,-30.273,-20.020,-33.691,-18.555,0.000
1714027292.010,-28.320,-22.461,-33.691,-10.742,0.000
1714027292.014,-31.250,-23.926,-29.785,-8.301,0.000
1714027292.018,-30.273,-18.555,-21.484,-9.766,0.000
1714027292.022,-31.250,-19.043,-25.391,-10.742,0.000
1714027292.026,-34.180,-29.297,-26.855,-13.184,0.000
1714027292.030,-33.691,-31.738,-20.996,-13.184,0.000
1714027292.034,-34.668,-23.926,-25.391,-9.766,0.000
1714027292.038,-29.297,-21.973,-30.762,-7.324,0.000
1714027292.041,-33.691,-25.391,-35.156,-14.160,0.000
1714027292.045,-36.133,-28.320,-39.062,-20.020,0.000
1714027292.049,-34.180,-28.320,-42.480,-22.949,0.000
1714027292.053,-30.273,-29.297,-33.691,-15.137,0.000
1714027292.057,-25.391,-27.344,-22.949,-10.742,0.000
1714027292.061,-23.438,-24.414,-21.973,-17.090,0.000
1714027292.065,-30.762,-29.785,-28.320,-19.043,0.000
1714027292.069,-31.250,-31.738,-31.250,-12.207,0.000
1714027292.073,-26.855,-23.926,-22.949,-11.719,0.000
1714027292.077,-35.156,-22.949,-25.879,-20.508,0.000
1714027292.080,-41.992,-25.879,-33.203,-22.461,0.000
1714027292.084,-36.621,-27.832,-33.203,-19.043,0.000
1714027292.088,-32.715,-32.715,-33.691,-20.020,0.000
1714027292.092,-35.156,-32.227,-32.715,-26.367,0.000
1714027292.096,-38.086,-33.203,-32.715,-24.902,0.000
1714027292.100,-31.738,-33.691,-31.738,-11.719,0.000
1714027292.104,-26.855,-28.320,-23.926,-13.184,0.000
1714027292.108,-28.320,-22.949,-27.832,-21.973,0.000
1714027292.112,-29.297,-21.973,-35.156,-23.438,0.000
1714027292.116,-28.809,-21.973,-29.785,-28.809,0.000
1714027292.119,-30.273,-24.902,-24.902,-30.762,0.000
1714027292.123,-29.785,-25.391,-23.926,-29.297,0.000
1714027292.127,-25.391,-21.484,-22.461,-30.273,0.000
1714027292.131,-26.855,-18.555,-25.879,-28.320,0.000
1714027292.135,-27.344,-18.066,-28.320,-27.344,0.000
1714027292.139,-21.484,-18.066,-20.996,-25.391,0.000
1714027292.143,-24.414,-25.391,-23.926,-31.250,0.000
1714027292.147,-28.809,-25.879,-29.297,-36.621,0.000
1714027292.151,-24.902,-21.484,-24.414,-29.297,0.000
1714027292.155,-23.438,-26.367,-25.391,-25.879,0.000
1714027292.159,-26.855,-27.344,-33.691,-28.320,0.000
1714027292.163,-25.391,-21.973,-22.949,-25.879,0.000
1714027292.166,-17.090,-20.996,-17.578,-18.555,0.000
1714027292.170,-8.301,-21.484,-24.414,-10.742,0.000
1714027292.174,-4.395,-26.367,-20.020,-10.742,0.000
1714027292.178,-23.438,-26.367,-17.090,-23.438,0.000
1714027292.182,-41.016,-24.414,-25.391,-36.621,0.000
1714027292.186,-34.180,-31.738,-32.227,-26.367,0.000
1714027292.190,-28.320,-36.133,-32.227,-18.555,0.000
1714027292.194,-30.762,-34.180,-30.762,-19.531,0.000
1714027292.198,-31.738,-30.273,-31.738,-17.578,0.000
1714027292.202,-28.809,-30.762,-32.227,-12.695,0.000
1714027292.206,-21.484,-30.762,-28.809,-4.883,0.000
1714027292.209,-28.809,-27.344,-27.344,-20.020,0.000
1714027292.213,-31.738,-29.785,-28.320,-28.320,0.000
1714027292.217,-25.391,-29.785,-20.508,-17.578,0.000
1714027292.221,-21.484,-24.902,-20.508,-14.648,0.000
1714027292.225,-18.066,-24.414,-29.297,-19.531,0.000
1714027292.229,-16.602,-28.809,-31.738,-22.461,0.000
1714027292.233,-15.137,-31.250,-33.691,-23.438,0.000
1714027292.237,-13.184,-28.320,-34.180,-23.438,0.000
1714027292.241,-11.230,-25.391,-31.250,-24.414,0.000
1714027292.245,-19.043,-28.809,-35.156,-31.738,0.000
1714027292.249,-19.043,-30.762,-40.039,-28.320,0.000
1714027292.252,-21.484,-28.320,-36.621,-21.973,0.000
1714027292.256,-20.996,-23.438,-28.809,-23.926,0.000
1714027292.260,-15.625,-25.879,-22.461,-23.438,0.000
1714027292.264,-23.926,-28.320,-25.391,-25.391,0.000
1714027292.268,-33.203,-26.855,-28.809,-23.438,0.000
1714027292.272,-26.855,-20.996,-26.367,-13.672,0.000
1714027292.276,-25.879,-22.949,-26.855,-26.367,0.000
1714027292.280,-30.273,-27.344,-32.715,-39.551,0.000
1714027292.284,-36.621,-29.297,-34.180,-37.109,0.000
1714027292.288,-38.086,-32.227,-35.156,-35.645,0.000
1714027292.291,-36.133,-30.273,-39.551,-39.551,0.000
1714027292.295,-37.109,-30.273,-36.621,-39.551,0.000
1714027292.299,-38.574,-32.227,-34.668,-44.922,0.000
1714027292.303,-34.668,-33.691,-32.715,-45.898,0.000
1714027292.307,-32.227,-26.855,-30.762,-47.852,0.000
1714027292.311,-32.715,-20.996,-34.668,-49.316,0.000
1714027292.315,-33.691,-28.809,-44.434,-46.387,0.000
1714027292.319,-31.738,-33.691,-45.410,-42.480,0.000
1714027292.323,-29.785,-30.273,-37.109,-41.016,0.000
1714027292.327,-30.762,-28.320,-33.691,-38.086,0.000
1714027292.331,-32.227,-28.320,-35.645,-38.086,0.000
1714027292.334,-24.902,-28.809,-33.203,-32.227,0.000
1714027292.338,-21.973,-30.762,-32.715,-22.461,0.000
1714027292.342,-24.414,-32.227,-22.461,-18.555,0.000
1714027292.346,-18.555,-27.344,-20.996,-23.438,0.000
1714027292.350,-11.719,-26.855,-30.762,-20.508,0.000
1714027292.354,0.488,-21.973,-23.926,-3.418,0.000
1714027292.358,-13.184,-22.949,-15.137,-8.301,0.000
1714027292.362,-29.785,-33.203,-22.949,-26.855,0.000
1714027292.366,-30.273,-33.203,-29.785,-32.227,0.000
1714027292.370,-35.156,-37.598,-24.902,-30.273,0.000
1714027292.373,-39.062,-42.969,-17.090,-29.785,0.000
1714027292.377,-44.434,-44.434,-15.625,-30.762,0.000
1714027292.381,-41.992,-48.340,-11.719,-24.414,0.000
1714027292.385,-48.340,-55.664,-8.301,-21.973,0.000
1714027292.389,-62.500,-50.293,-7.324,-34.668,0.000
1714027292.393,-52.734,-47.363,-3.418,-36.133,0.000
1714027292.397,-40.039,-46.875,-7.324,-35.645,0.000
1714027292.401,-39.062,-37.109,-7.324,-39.551,0.000
1714027292.405,-37.598,-36.621,0.000,-29.297,0.000
1714027292.409,-37.109,-38.086,-2.441,-24.902,0.000
1714027292.412,-38.574,-36.133,-14.160,-27.344,0.000
1714027292.416,-43.945,-37.598,-15.625,-23.926,0.000
1714027292.420,-47.363,-37.598,-14.160,-23.926,0.000
1714027292.424,-40.039,-34.180,-18.066,-27.344,0.000
1714027292.428,-34.668,-29.297,-25.391,-24.414,0.000
1714027292.432,-36.621,-27.832,-20.508,-18.066,0.000
1714027292.436,-32.227,-30.762,-8.789,-14.648,0.000
1714027292.440,-32.227,-30.762,-11.230,-17.578,0.000
1714027292.444,-35.645,-29.785,-16.113,-23.438,0.000
1714027292.448,-34.668,-28.809,-20.020,-19.043,0.000
1714027292.451,-31.250,-29.785,-20.020,-9.277,0.000
1714027292.455,-31.250,-31.738,-14.648,-6.836,0.000
1714027292.459,-28.809,-28.809,-22.461,-13.672,0.000
1714027292.463,-33.691,-27.344,-33.203,-23.926,0.000
1714027292.467,-37.598,-27.832,-37.109,-26.367,0.000
1714027292.471,-31.250,-27.832,-38.086,-15.625,0.000
1714027292.475,-25.879,-24.902,-32.227,-6.836,0.000
1714027292.479,-31.738,-27.344,-19.531,-15.137,0.000
1714027292.483,-34.180,-30.273,-16.113,-20.020,0.000
1714027292.487,-23.926,-27.344,-24.414,-10.254,0.000
1714027292.491,-20.508,-29.785,-25.391,-10.742,0.000
1714027292.494,-23.438,-32.227,-16.113,-14.160,0.000
1714027292.498,-23.926,-31.250,-20.996,-15.625,0.000
1714027292.502,-24.414,-28.809,-25.879,-7.324,0.000
1714027292.506,-21.973,-27.832,-16.602,-8.301,0.000
1714027292.510,-23.926,-25.879,-17.090,-20.020,0.000
1714027292.514,-25.391,-28.320,-26.855,-22.461,0.000
1714027292.518,-19.531,-31.250,-25.879,-12.695,0.000
1714027292.522,-20.020,-24.414,-22.949,-8.301,0.000
1714027292.526,-25.391,-19.043,-29.785,-19.531,0.000
1714027292.530,-30.273,-22.949,-35.156,-21.973,0.000
1714027292.534,-25.879,-23.926,-27.832,-7.812,0.000
1714027292.537,-24.414,-15.625,-16.602,-5.371,0.000
1714027292.541,-33.691,-17.090,-17.090,-18.555,0.000
1714027292.545,-33.203,-24.902,-25.391,-23.926,0.000
1714027292.549,-29.785,-24.414,-33.691,-20.508,0.000
1714027292.553,-28.809,-21.973,-28.809,-15.137,0.000
1714027292.557,-30.273,-20.996,-20.996,-20.996,0.000
1714027292.561,-33.203,-21.484,-22.949,-31.250,0.000
1714027292.565,-28.809,-21.484,-23.926,-23.926,0.000
1714027292.569,-29.297,-24.902,-24.414,-18.555,0.000
1714027292.573,-34.180,-23.926,-27.344,-25.879,0.000
1714027292.577,-33.203,-21.973,-21.973,-28.320,0.000
1714027292.580,-33.203,-22.461,-15.625,-23.926,0.000
1714027292.584,-34.180,-24.414,-20.996,-23.926,0.000
1714027292.588,-38.086,-30.762,-26.855,-27.832,0.000
1714027292.592,-34.668,-32.715,-27.832,-27.832,0.000
1714027292.596,-33.203,-31.250,-21.973,-27.344,0.000
1714027292.600,-36.621,-34.668,-17.578,-31.738,0.000
1714027292.604,-35.645,-34.180,-22.949,-31.250,0.000
1714027292.608,-38.086,-32.715,-26.855,-35.156,0.000
1714027292.612,-36.621,-29.297,-25.391,-42.480,0.000
1714027292.616,-34.668,-24.902,-30.273,-42.480,0.000
1714027292.620,-38.574,-26.367,-31.738,-35.156,0.000
1714027292.623,-33.203,-28.320,-33.691,-28.320,0.000
1714027292.627,-32.227,-30.762,-30.273,-32.715,0.000
1714027292.631,-35.645,-32.227,-19.043,-36.133,0.000
1714027292.635,-33.691,-30.762,-20.996,-35.156,0.000
1714027292.639,-27.832,-28.320,-26.855,-28.809,0.000
1714027292.643,-28.320,-26.855,-26.855,-29.297,0.000
1714027292.647,-33.691,-29.297,-30.273,-39.551,0.000
1714027292.651,-30.762,-26.855,-30.273,-35.645,0.000
1714027292.655,-33.691,-23.438,-28.809,-28.809,0.000
1714027292.659,-34.180,-24.414,-27.344,-31.250,0.000
1714027292.663,-32.715,-28.809,-28.320,-40.527,0.000
1714027292.666,-36.621,-29.785,-32.715,-36.621,0.000
1714027292.670,-30.273,-30.762,-26.367,-9.277,0.000
1714027292.674,-6.836,-28.809,-17.090,10.742,0.000
1714027292.678,-15.137,-23.926,-25.391,-7.812,0.000
1714027292.682,-38.086,-21.484,-30.273,-34.668,0.000
1714027292.686,-39.062,-22.461,-23.926,-34.180,0.000
1714027292.690,-32.715,-23.438,-27.832,-28.320,0.000
1714027292.694,-30.273,-17.090,-41.504,-33.203,0.000
1714027292.698,-33.203,-8.789,-47.363,-34.668,0.000
1714027292.702,-25.879,-6.836,-49.316,-29.785,0.000
1714027292.706,-21.973,-7.324,-42.969,-32.227,0.000
1714027292.709,-24.414,-2.930,-32.715,-36.621,0.000
1714027292.713,-24.902,-8.301,-43.945,-37.598,0.000
1714027292.717,-19.043,-15.137,-50.781,-26.855,0.000
1714027292.721,-21.973,-11.230,-44.922,-25.879,0.000
1714027292.725,-31.250,-10.742,-41.016,-33.691,0.000
1714027292.729,-25.879,-14.160,-36.133,-37.109,0.000
1714027292.733,-20.996,-17.578,-29.297,-33.203,0.000
1714027292.737,-16.602,-16.602,-26.855,-25.879,0.000
1714027292.741,-18.555,-17.578,-34.668,-22.461,0.000
1714027292.745,-18.066,-18.066,-42.969,-19.531,0.000
1714027292.748,-17.090,-15.137,-39.062,-19.043,0.000
1714027292.752,-23.926,-20.508,-34.668,-23.438,0.000
1714027292.756,-18.066,-20.508,-37.598,-22.949,0.000
1714027292.760,-20.020,-20.020,-39.062,-21.973,0.000
1714027292.764,-24.902,-18.066,-33.691,-22.949,0.000
1714027292.768,-23.926,-14.648,-29.297,-22.461,0.000
1714027292.772,-21.484,-15.625,-23.926,-19.043,0.000
1714027292.776,-20.020,-16.602,-24.414,-18.066,0.000
1714027292.780,-20.020,-15.137,-33.691,-23.438,0.000
1714027292.784,-24.902,-18.066,-42.480,-23.438,0.000
1714027292.787,-26.367,-21.484,-36.621,-24.414,0.000
1714027292.791,-22.949,-19.531,-34.180,-30.762,0.000
1714027292.795,-28.320,-26.367,-39.551,-34.668,0.000
1714027292.799,-29.785,-30.762,-38.574,-35.156,0.000
1714027292.803,-22.949,-27.832,-43.945,-23.438,0.000
1714027292.807,-23.926,-25.391,-38.574,-18.555,0.000
1714027292.811,-29.785,-22.461,-22.461,-28.809,0.000
1714027292.815,-22.949,-21.484,-27.344,-27.832,0.000
1714027292.819,-16.113,-22.461,-31.250,-21.973,0.000
1714027292.823,-17.578,-20.508,-27.344,-24.414,0.000
1714027292.826,-20.508,-22.949,-35.645,-29.297,0.000
1714027292.830,-20.508,-25.391,-39.062,-25.879,0.000
1714027292.834,-23.438,-25.391,-32.227,-22.949,0.000
1714027292.838,-20.508,-24.414,-30.273,-22.461,0.000
1714027292.842,-28.809,-29.297,-37.598,-31.738,0.000
1714027292.846,-34.180,-31.250,-39.551,-39.062,0.000
1714027292.850,-21.973,-28.809,-32.227,-24.414,0.000
1714027292.854,-20.508,-28.320,-27.832,-22.461,0.000
1714027292.858,-30.273,-26.855,-31.738,-27.344,0.000
1714027292.862,-30.762,-25.391,-36.621,-27.832,0.000
1714027292.866,-23.438,-25.391,-36.133,-27.832,0.000
1714027292.869,-27.344,-28.809,-25.879,-25.879,0.000
1714027292.873,-29.785,-25.879,-27.832,-25.391,0.000
1714027292.877,-29.297,-23.438,-34.668,-28.809,0.000
1714027292.881,-33.203,-22.461,-32.227,-27.344,0.000
1714027292.885,-32.227,-18.066,-35.156,-22.461,0.000
1714027292.889,-28.320,-15.625,-34.180,-20.996,0.000
1714027292.893,-24.902,-18.555,-34.180,-24.902,0.000
1714027292.897,-23.438,-16.602,-31.250,-25.391,0.000
1714027292.901,-24.414,-14.160,-20.508,-20.020,0.000
1714027292.905,-23.926,-17.578,-21.484,-22.949,0.000
1714027292.909,-22.461,-20.508,-31.250,-20.020,0.000
1714027292.912,-21.973,-20.020,-35.156,-20.508,0.000
1714027292.916,-18.066,-16.113,-24.414,-20.020,0.000
1714027292.920,-21.484,-18.066,-26.367,-20.508,0.000
1714027292.924,-28.320,-23.438,-35.156,-23.926,0.000
1714027292.928,-30.762,-21.973,-32.227,-27.344,0.000
1714027292.932,-34.180,-21.973,-25.391,-24.414,0.000
1714027292.936,-39.062,-27.832,-27.344,-21.973,0.000
1714027292.940,-35.156,-29.297,-30.762,-23.926,0.000
1714027292.944,-30.762,-26.855,-30.762,-22.949,0.000
1714027292.948,-37.109,-22.461,-29.785,-28.320,0.000
1714027292.952,-38.574,-25.879,-32.715,-30.762,0.000
1714027292.955,-40.039,-36.133,-39.062,-27.832,0.000
1714027292.959,-39.551,-33.203,-29.785,-31.738,0.000
1714027292.963,-38.574,-28.320,-29.785,-36.133,0.000
1714027292.967,-39.551,-32.227,-38.086,-35.645,0.000
1714027292.971,-39.062,-30.762,-33.203,-35.156,0.000
1714027292.975,-36.621,-23.926,-33.203,-38.574,0.000
1714027292.979,-41.992,-28.809,-40.039,-48.340,0.000
1714027292.983,-41.504,-28.320,-39.062,-38.574,0.000
1714027292.987,-30.762,-22.949,-32.227,-28.320,0.000
1714027292.991,-29.297,-24.414,-27.344,-36.621,0.000
1714027292.995,-34.668,-24.902,-31.738,-34.180,0.000
1714027292.998,-36.621,-27.344,-41.992,-28.809,0.000
1714027293.002,-34.180,-25.391,-40.527,-27.832,0.000
1714027293.006,-27.344,-23.926,-29.297,-31.738,0.000
1714027293.010,-32.227,-26.855,-23.438,-36.133,0.000
1714027293.014,-40.039,-28.809,-31.738,-33.691,0.000
1714027293.018,-34.180,-24.414,-29.297,-26.855,0.000
1714027293.022,-29.785,-22.461,-25.879,-22.461,0.000
1714027293.026,-30.273,-24.414,-23.438,-24.902,0.000
1714027293.030,-33.691,-24.414,-23.438,-29.297,0.000
1714027293.034,-33.691,-21.973,-31.250,-22.461,0.000
1714027293.038,-23.926,-22.949,-31.738,-13.672,0.000
1714027293.041,-34.668,-30.273,-26.367,-21.484,0.000
1714027293.045,-48.828,-31.738,-25.391,-34.668,0.000
1714027293.049,-52.734,-28.320,-25.879,-42.969,0.000
1714027293.053,-48.340,-24.902,-20.508,-35.156,0.000
1714027293.057,-44.922,-30.273,-19.043,-35.156,0.000
1714027293.061,-45.410,-30.762,-24.902,-37.598,0.000
1714027293.065,-38.086,-25.391,-28.809,-33.203,0.000
1714027293.069,-35.645,-23.926,-30.762,-29.297,0.000
1714027293.073,-34.180,-24.902,-31.250,-27.344,0.000
1714027293.077,-37.109,-25.879,-25.879,-27.832,0.000
1714027293.080,-35.156,-22.461,-20.996,-26.855,0.000
1714027293.084,-31.738,-22.949,-24.902,-33.203,0.000
1714027293.088,-34.668,-29.297,-31.250,-32.227,0.000
1714027293.092,-37.109,-30.273,-27.344,-38.086,0.000
1714027293.096,-39.551,-25.391,-18.066,-46.387,0.000
1714027293.100,-37.109,-25.879,-24.414,-40.039,0.000
1714027293.104,-31.738,-27.832,-28.809,-24.414,0.000
1714027293.108,-36.133,-30.762,-28.320,-22.461,0.000
1714027293.112,-40.527,-31.250,-31.250,-37.109,0.000
1714027293.116,-27.832,-32.715,-30.762,-24.414,0.000
1714027293.120,-21.973,-35.156,-29.297,-18.555,0.000
1714027293.123,-26.855,-31.250,-29.785,-25.879,0.000
1714027293.127,-28.320,-27.344,-22.949,-23.438,0.000
1714027293.131,-27.344,-27.832,-9.766,-21.973,0.000
1714027293.135,-31.738,-30.762,-20.996,-19.043,0.000
1714027293.139,-34.668,-32.715,-32.227,-26.855,0.000
1714027293.143,-34.180,-31.250,-29.785,-29.297,0.000
1714027293.147,-34.180,-31.738,-23.926,-27.344,0.000
1714027293.151,-33.203,-31.250,-25.879,-28.809,0.000
1714027293.155,-30.273,-30.762,-31.250,-27.344,0.000
1714027293.159,-30.273,-29.785,-32.715,-32.227,0.000
1714027293.162,-30.273,-28.320,-34.668,-31.250,0.000
1714027293.166,-31.250,-26.367,-29.297,-22.949,0.000
1714027293.170,-29.297,-27.344,-27.832,-27.832,0.000
1714027293.174,-25.391,-28.809,-31.738,-32.227,0.000
1714027293.178,-22.949,-28.320,-26.367,-29.297,0.000
1714027293.182,-20.020,-27.832,-27.832,-28.809,0.000
1714027293.186,-20.508,-25.879,-29.785,-30.762,0.000
1714027293.190,-17.578,-25.391,-24.902,-27.832,0.000
1714027293.194,-19.531,-26.367,-21.484,-24.414,0.000
1714027293.198,-25.391,-24.414,-20.020,-24.414,0.000
1714027293.201,-31.250,-25.879,-24.414,-23.926,0.000
1714027293.205,-36.621,-26.367,-24.414,-19.531,0.000
1714027293.209,-36.621,-22.949,-24.902,-24.414,0.000
1714027293.213,-43.457,-25.391,-28.320,-35.645,0.000
1714027293.217,-44.922,-26.855,-25.391,-31.250,0.000
1714027293.221,-33.691,-27.832,-22.461,-20.996,0.000
1714027293.225,-35.645,-27.344,-20.508,-13.184,0.000
1714027293.229,-40.039,-26.855,-16.602,-22.461,0.000
1714027293.233,-36.621,-29.297,-23.438,-29.297,0.000
1714027293.237,-31.738,-28.809,-27.344,-24.902,0.000
1714027293.241,-37.109,-27.344,-18.555,-27.344,0.000
1714027293.244,-44.922,-27.344,-21.973,-33.203,0.000
1714027293.248,-40.527,-24.902,-33.691,-35.156,0.000
1714027293.252,-33.691,-21.484,-29.785,-29.785,0.000
1714027293.256,-29.785,-24.902,-28.809,-25.391,0.000
1714027293.260,-25.879,-31.250,-37.598,-22.949,0.000
1714027293.264,-30.762,-29.785,-35.645,-30.762,0.000
1714027293.268,-45.898,-29.785,-31.250,-45.898,0.000
1714027293.272,-54.688,-29.785,-25.879,-50.781,0.000
1714027293.276,-48.340,-22.461,-23.438,-46.875,0.000
1714027293.280,-49.805,-23.438,-34.668,-47.363,0.000
1714027293.284,-49.805,-27.344,-37.598,-40.039,0.000
1714027293.287,-42.480,-25.391,-27.832,-29.297,0.000
1714027293.291,-38.574,-22.949,-22.949,-29.297,0.000
1714027293.295,-38.086,-24.414,-30.273,-32.715,0.000
1714027293.299,-37.109,-20.020,-31.738,-25.879,0.000
1714027293.303,-36.621,-17.578,-23.438,-21.973,0.000
1714027293.307,-40.039,-22.949,-26.855,-30.762,0.000
1714027293.311,-43.457,-25.879,-35.156,-39.062,0.000
1714027293.315,-39.062,-27.344,-35.645,-39.551,0.000
1714027293.319,-36.621,-25.879,-30.762,-38.574,0.000
1714027293.323,-33.203,-22.461,-24.414,-33.691,0.000
1714027293.327,-34.180,-23.438,-28.320,-31.738,0.000
1714027293.330,-41.504,-30.762,-34.180,-36.621,0.000
1714027293.334,-40.039,-29.785,-23.926,-32.715,0.000
1714027293.338,-33.203,-26.855,-13.672,-23.438,0.000
1714027293.342,-35.645,-24.414,-17.090,-26.855,0.000
1714027293.346,-31.738,-20.996,-17.578,-27.344,0.000
1714027293.350,-28.320,-22.949,-17.090,-22.461,0.000
1714027293.354,-29.297,-20.996,-24.902,-21.484,0.000
1714027293.358,-20.996,-20.508,-21.484,-18.555,0.000
1714027293.362,-20.996,-26.855,-21.973,-22.949,0.000
1714027293.366,-23.926,-23.438,-25.391,-24.414,0.000
1714027293.370,-20.020,-20.508,-19.531,-19.531,0.000
1714027293.373,-20.508,-26.367,-21.484,-15.625,0.000
1714027293.377,-21.973,-23.438,-16.113,-22.461,0.000
1714027293.381,-20.020,-22.949,-16.602,-31.250,0.000
1714027293.385,-20.996,-27.344,-24.902,-30.762,0.000
1714027293.389,-25.391,-29.785,-26.367,-28.320,0.000
1714027293.393,-23.926,-27.344,-26.855,-33.203,0.000
1714027293.397,-28.809,-22.461,-24.414,-37.109,0.000
1714027293.401,-29.785,-25.879,-24.902,-31.250,0.000
1714027293.405,-23.438,-28.320,-35.156,-30.273,0.000
1714027293.409,-21.484,-28.320,-40.039,-35.645,0.000
1714027293.413,-21.973,-27.344,-32.227,-35.156,0.000
1714027293.416,-27.344,-25.879,-22.949,-26.367,0.000
1714027293.420,-27.344,-26.367,-27.344,-12.695,0.000
1714027293.424,-28.320,-26.855,-30.273,-20.020,0.000
1714027293.428,-33.691,-26.367,-31.738,-34.668,0.000
1714027293.432,-31.250,-32.227,-37.109,-34.668,0.000
1714027293.436,-27.832,-30.273,-31.738,-24.414,0.000
1714027293.440,-29.785,-26.855,-32.227,-23.926,0.000
1714027293.444,-29.297,-30.273,-36.621,-27.832,0.000
1714027293.448,-26.855,-32.227,-33.691,-25.879,0.000
1714027293.452,-26.855,-26.855,-29.297,-27.832,0.000
1714027293.455,-25.391,-23.438,-25.879,-22.461,0.000
1714027293.459,-24.902,-25.879,-24.902,-23.926,0.000
1714027293.463,-24.414,-23.926,-20.996,-26.367,0.000
1714027293.467,-29.785,-23.438,-18.555,-15.137,0.000
1714027293.471,-29.785,-23.926,-26.855,-14.160,0.000
1714027293.475,-28.809,-23.438,-34.668,-24.414,0.000
1714027293.479,-35.645,-23.926,-32.227,-33.203,0.000
1714027293.483,-38.086,-30.273,-30.762,-36.621,0.000
1714027293.487,-36.133,-30.273,-28.809,-31.738,0.000
1714027293.491,-35.156,-24.414,-27.832,-27.832,0.000
1714027293.495,-35.156,-20.508,-28.320,-29.297,0.000
1714027293.498,-39.062,-20.996,-25.391,-32.227,0.000
1714027293.502,-33.203,-18.066,-18.066,-26.367,0.000
1714027293.506,-29.785,-20.508,-8.789,-26.855,0.000
1714027293.510,-31.250,-20.996,-13.672,-27.344,0.000
1714027293.514,-30.762,-19.531,-23.926,-25.391,0.000
1714027293.518,-31.250,-24.414,-23.438,-29.785,0.000
1714027293.522,-31.250,-27.832,-14.648,-22.949,0.000
1714027293.526,-33.691,-23.926,-12.695,-23.438,0.000
1714027293.530,-31.738,-23.926,-22.949,-27.344,0.000
1714027293.534,-27.832,-24.902,-24.902,-28.320,0.000
1714027293.537,-24.902,-20.996,-20.996,-26.367,0.000
1714027293.541,-21.973,-21.973,-18.555,-22.949,0.000
1714027293.545,-20.020,-21.484,-16.602,-25.879,0.000
1714027293.549,-23.438,-21.973,-17.090,-28.320,0.000
1714027293.553,-25.879,-29.785,-27.344,-20.508,0.000
1714027293.557,-24.414,-33.203,-30.762,-20.996,0.000
1714027293.561,-29.297,-35.156,-32.227,-38.574,0.000
1714027293.565,-33.691,-39.551,-33.203,-38.086,0.000
1714027293.569,-34.668,-41.016,-28.809,-29.297,0.000
1714027293.573,-37.109,-38.574,-27.832,-36.621,0.000
1714027293.576,-31.250,-32.227,-24.902,-32.715,0.000
1714027293.580,-35.645,-32.715,-21.484,-29.785,0.000
1714027293.584,-35.645,-30.762,-22.949,-25.879,0.000
1714027293.588,-26.367,-29.785,-24.414,-18.555,0.000
1714027293.592,-29.785,-31.738,-32.227,-24.902,0.000
1714027293.596,-35.645,-31.738,-38.574,-35.156,0.000
1714027293.600,-36.133,-36.621,-33.691,-29.785,0.000
1714027293.604,-33.691,-36.621,-21.484,-28.809,0.000
1714027293.608,-33.203,-32.227,-25.391,-43.457,0.000
1714027293.612,-37.109,-31.250,-31.738,-50.293,0.000
1714027293.615,-26.367,-32.715,-30.273,-30.273,0.000
1714027293.619,-12.695,-34.668,-29.785,-13.184,0.000
1714027293.623,-29.785,-33.691,-35.156,-31.738,0.000
1714027293.627,-41.016,-31.250,-41.016,-44.434,0.000
1714027293.631,-23.438,-25.391,-40.527,-32.715,0.000
1714027293.635,-18.066,-23.438,-41.504,-23.926,0.000
1714027293.639,-17.090,-21.484,-42.480,-15.625,0.000
1714027293.643,-11.719,-19.043,-45.410,-8.789,0.000
1714027293.647,-23.926,-24.414,-42.480,-19.043,0.000
1714027293.651,-27.832,-23.438,-30.273,-20.020,0.000
1714027293.655,-20.508,-20.508,-28.320,-14.648,0.000
1714027293.659,-23.926,-26.855,-34.668,-14.648,0.000
1714027293.662,-26.855,-28.809,-32.227,-13.672,0.000
1714027293.666,-26.367,-31.250,-31.738,-20.020,0.000
1714027293.670,-30.273,-32.227,-36.133,-26.855,0.000
1714027293.674,-21.973,-25.391,-27.832,-23.438,0.000
1714027293.678,-17.090,-23.926,-25.879,-25.879,0.000
1714027293.682,-22.949,-22.461,-33.691,-25.879,0.000
1714027293.686,-18.555,-20.020,-34.668,-20.508,0.000
1714027293.690,-17.578,-22.949,-29.785,-27.344,0.000
1714027293.694,-22.949,-23.926,-18.555,-29.297,0.000
1714027293.698,-26.367,-26.367,-15.625,-30.762,0.000
1714027293.702,-27.832,-27.344,-23.926,-25.391,0.000
1714027293.705,-29.297,-26.367,-25.391,-16.113,0.000
1714027293.709,-34.668,-25.391,-26.367,-27.344,0.000
1714027293.713,-40.527,-23.438,-28.320,-31.250,0.000
1714027293.717,-34.180,-22.461,-20.996,-21.484,0.000
1714027293.721,-24.902,-22.949,-21.973,-20.508,0.000
1714027293.725,-26.367,-23.438,-28.320,-24.414,0.000
1714027293.729,-31.250,-20.996,-28.320,-31.250,0.000
1714027293.733,-29.297,-18.555,-19.531,-30.273,0.000
1714027293.737,-24.902,-21.973,-16.602,-24.902,0.000
1714027293.741,-27.344,-26.367,-25.879,-31.250,0.000
1714027293.745,-26.855,-23.438,-34.180,-36.621,0.000
1714027293.748,-28.809,-29.785,-37.109,-27.344,0.000
1714027293.752,-35.645,-34.668,-36.621,-26.855,0.000
1714027293.756,-35.156,-26.367,-32.227,-25.879,0.000
1714027293.760,-30.762,-25.391,-30.762,-23.926,0.000
1714027293.764,-33.203,-21.973,-33.203,-33.203,0.000
1714027293.768,-26.855,-14.648,-26.855,-29.785,0.000
1714027293.772,-23.438,-19.531,-21.484,-23.926,0.000
1714027293.776,-30.273,-23.438,-17.090,-29.785,0.000
1714027293.780,-33.691,-21.973,-20.020,-32.715,0.000
1714027293.784,-38.086,-26.855,-28.809,-26.855,0.000
1714027293.787,-40.039,-26.855,-25.879,-27.344,0.000
1714027293.791,-31.250,-23.438,-21.484,-29.297,0.000
1714027293.795,-27.344,-25.391,-18.555,-15.137,0.000
1714027293.799,-30.762,-24.902,-14.648,-12.695,0.000
1714027293.803,-29.297,-27.344,-15.625,-22.949,0.000
1714027293.807,-32.227,-29.297,-20.508,-31.738,0.000
1714027293.811,-33.691,-27.832,-31.250,-34.668,0.000
1714027293.815,-31.250,-24.414,-29.785,-27.832,0.000
1714027293.819,-32.227,-28.809,-27.344,-20.508,0.000
1714027293.823,-34.668,-34.180,-29.297,-21.484,0.000
1714027293.827,-32.715,-26.855,-22.461,-23.926,0.000
1714027293.830,-28.320,-22.949,-21.484,-26.367,0.000
1714027293.834,-24.414,-27.344,-20.508,-24.414,0.000
1714027293.838,-18.555,-26.367,-22.949,-17.578,0.000
1714027293.842,-20.508,-19.531,-14.648,-21.484,0.000
1714027293.846,-28.809,-18.066,-14.160,-33.691,0.000
1714027293.850,-32.227,-18.555,-22.461,-33.203,0.000
1714027293.854,-24.414,-21.973,-23.438,-25.879,0.000
1714027293.858,-21.973,-23.926,-30.762,-33.203,0.000
1714027293.862,-24.902,-21.973,-28.320,-36.621,0.000
1714027293.866,-25.879,-24.902,-23.438,-31.738,0.000
1714027293.869,-22.461,-22.949,-21.973,-26.855,0.000
1714027293.873,-23.926,-22.949,-17.090,-25.879,0.000
1714027293.877,-30.273,-27.832,-17.090,-36.133,0.000
1714027293.881,-30.273,-26.855,-21.484,-41.504,0.000
1714027293.885,-34.180,-24.414,-30.762,-32.227,0.000
1714027293.889,-37.109,-24.414,-31.738,-29.297,0.000
1714027293.893,-36.133,-25.391,-29.297,-29.785,0.000
1714027293.897,-35.645,-28.320,-27.344,-27.344,0.000
1714027293.901,-31.250,-30.762,-21.484,-24.902,0.000
1714027293.905,-32.227,-32.227,-22.949,-24.902,0.000
1714027293.909,-31.250,-30.762,-26.855,-31.738,0.000
1714027293.912,-27.344,-33.203,-24.414,-39.062,0.000
1714027293.916,-27.344,-35.156,-23.438,-38.574,0.000
1714027293.920,-25.391,-30.762,-30.273,-37.598,0.000
1714027293.924,-27.344,-26.855,-36.133,-41.992,0.000
1714027293.928,-33.691,-25.879,-36.621,-39.551,0.000
1714027293.932,-35.645,-29.297,-31.250,-35.156,0.000
1714027293.936,-35.156,-27.344,-21.973,-35.645,0.000
1714027293.940,-31.738,-25.879,-25.391,-33.203,0.000
1714027293.944,-29.785,-30.762,-35.645,-39.551,0.000
1714027293.948,-28.320,-25.879,-26.855,-37.109,0.000
1714027293.951,-28.809,-21.973,-21.973,-32.227,0.000
1714027293.955,-29.297,-25.391,-31.250,-33.691,0.000
1714027293.959,-31.250,-29.297,-31.250,-39.551,0.000
1714027293.963,-32.227,-27.832,-27.832,-47.363,0.000
1714027293.967,-28.320,-19.043,-26.367,-41.992,0.000
1714027293.971,-30.273,-18.555,-24.902,-36.621,0.000
1714027293.975,-33.691,-28.320,-27.832,-38.086,0.000
1714027293.979,-30.273,-29.785,-31.738,-37.598,0.000
1714027293.983,-26.855,-23.926,-34.180,-35.156,0.000
1714027293.987,-26.367,-22.461,-32.227,-26.367,0.000
1714027293.990,-20.996,-21.973,-30.762,-22.461,0.000
1714027293.994,-21.484,-21.973,-32.715,-28.809,0.000
1714027293.998,-26.855,-21.973,-30.273,-35.645,0.000
1714027294.002,-27.344,-20.020,-25.879,-29.785,0.000
1714027294.006,-30.273,-19.531,-25.391,-29.785,0.000
1714027294.010,-33.691,-20.508,-30.273,-35.156,0.000
1714027294.014,-27.344,-15.137,-28.320,-27.344,0.000
1714027294.018,-30.273,-20.020,-25.391,-28.320,0.000
1714027294.022,-41.504,-27.344,-36.133,-35.156,0.000
1714027294.026,-39.062,-23.926,-39.551,-35.645,0.000
1714027294.030,-29.297,-22.461,-30.273,-29.785,0.000
1714027294.034,-33.203,-26.367,-34.180,-20.508,0.000
1714027294.037,-43.457,-30.273,-34.668,-22.949,0.000
1714027294.041,-37.598,-32.227,-27.832,-28.809,0.000
1714027294.045,-33.691,-32.227,-25.391,-25.879,0.000
1714027294.049,-31.738,-28.320,-24.414,-20.996,0.000
1714027294.053,-29.785,-25.391,-20.996,-21.973,0.000
1714027294.057,-23.926,-26.855,-19.043,-24.414,0.000
1714027294.061,-25.879,-24.902,-26.855,-28.320,0.000
1714027294.065,-30.273,-21.973,-31.250,-28.809,0.000
1714027294.069,-30.762,-21.484,-33.691,-25.391,0.000
1714027294.073,-39.062,-26.367,-32.715,-34.180,0.000
1714027294.077,-38.086,-24.902,-36.621,-36.621,0.000
1714027294.080,-33.203,-23.926,-41.504,-30.273,0.000
1714027294.084,-37.598,-24.414,-38.086,-35.156,0.000
1714027294.088,-20.508,-18.555,-36.133,-18.066,0.000
1714027294.092,-1.465,-18.066,-25.391,-6.348,0.000
1714027294.096,-29.785,-28.320,-19.531,-29.785,0.000
1714027294.100,-47.363,-27.832,-19.043,-37.109,0.000
1714027294.104,-37.598,-29.297,-19.043,-33.203,0.000
1714027294.108,-40.039,-33.691,-26.855,-32.715,0.000
1714027294.112,-36.133,-32.227,-26.367,-25.391,0.000
1714027294.116,-27.344,-32.715,-25.879,-22.461,0.000
1714027294.120,-26.855,-35.156,-30.762,-23.438,0.000
1714027294.123,-34.180,-38.086,-33.203,-20.996,0.000
1714027294.127,-34.668,-34.180,-27.832,-17.090,0.000
1714027294.131,-29.785,-31.250,-13.672,-22.461,0.000
1714027294.135,-30.762,-34.668,-15.625,-25.391,0.000
1714027294.139,-26.855,-35.645,-22.461,-23.926,0.000
1714027294.143,-22.461,-31.250,-20.508,-32.715,0.000
1714027294.147,-22.461,-31.738,-15.625,-29.785,0.000
1714027294.151,-23.926,-34.668,-18.555,-24.414,0.000
1714027294.155,-19.043,-35.156,-25.879,-25.391,0.000
1714027294.159,-9.277,-32.715,-25.879,-22.461,0.000
1714027294.162,-15.137,-35.645,-30.273,-26.367,0.000
1714027294.166,-17.578,-32.715,-23.926,-19.531,0.000
1714027294.170,-21.484,-35.156,-20.020,-8.789,0.000
1714027294.174,-29.297,-33.203,-27.832,-18.555,0.000
1714027294.178,-38.574,-30.762,-32.715,-27.832,0.000
1714027294.182,-42.969,-34.180,-30.762,-24.902,0.000
1714027294.186,-35.645,-30.762,-20.508,-16.113,0.000
1714027294.190,-36.621,-31.250,-21.973,-19.531,0.000
1714027294.194,-44.434,-32.715,-33.203,-30.273,0.000
1714027294.198,-45.410,-32.715,-40.039,-32.715,0.000
1714027294.202,-38.086,-28.320,-36.621,-26.855,0.000
1714027294.205,-36.621,-25.391,-26.855,-26.855,0.000
1714027294.209,-37.598,-28.809,-25.879,-29.785,0.000
1714027294.213,-41.504,-33.691,-35.645,-31.250,0.000
1714027294.217,-47.852,-31.738,-39.062,-33.203,0.000
1714027294.221,-42.480,-30.762,-31.738,-33.203,0.000
1714027294.225,-36.621,-30.762,-29.297,-36.133,0.000
1714027294.229,-36.621,-30.273,-38.086,-36.133,0.000
1714027294.233,-35.156,-31.250,-40.039,-30.762,0.000
1714027294.237,-32.715,-32.715,-32.715,-29.297,0.000
1714027294.241,-33.691,-32.227,-28.320,-27.344,0.000
1714027294.244,-38.574,-30.273,-23.926,-26.367,0.000
1714027294.248,-44.922,-28.809,-23.438,-27.832,0.000
1714027294.252,-43.457,-34.180,-33.691,-27.832,0.000
1714027294.256,-39.551,-34.668,-33.691,-28.809,0.000
1714027294.260,-48.828,-33.691,-32.227,-28.809,0.000
1714027294.264,-55.176,-31.738,-36.133,-34.668,0.000
1714027294.268,-44.922,-23.438,-26.367,-34.180,0.000
1714027294.272,-34.668,-22.461,-23.926,-20.996,0.000
1714027294.276,-32.715,-23.926,-28.320,-15.137,0.000
1714027294.280,-35.156,-26.855,-31.738,-20.508,0.000
1714027294.283,-38.086,-33.203,-35.156,-28.320,0.000
1714027294.287,-33.691,-34.668,-24.414,-25.879,0.000
1714027294.291,-27.344,-30.273,-12.207,-23.438,0.000
1714027294.295,-28.320,-28.320,-17.578,-29.785,0.000
1714027294.299,-33.691,-28.320,-26.367,-35.156,0.000
1714027294.303,-35.645,-28.809,-25.391,-29.785,0.000
1714027294.307,-30.273,-27.344,-24.902,-26.855,0.000
1714027294.311,-22.949,-24.902,-25.391,-31.250,0.000
1714027294.315,-20.508,-22.461,-22.461,-26.367,0.000
1714027294.319,-20.508,-22.461,-27.344,-20.020,0.000
1714027294.323,-25.879,-24.414,-35.645,-23.926,0.000
1714027294.326,-27.344,-27.832,-25.391,-34.180,0.000
1714027294.330,-22.949,-28.809,-21.973,-41.016,0.000
1714027294.334,-23.438,-25.879,-25.391,-40.527,0.000
1714027294.338,-27.832,-25.391,-20.020,-32.715,0.000
1714027294.342,-32.715,-24.414,-24.414,-36.621,0.000
1714027294.346,-29.297,-24.414,-26.367,-36.133,0.000
1714027294.350,-30.273,-28.809,-23.438,-24.414,0.000
