timestamps,TP9,AF7,AF8,TP10,Right AUX
1714025865.217,-35.645,-31.250,-32.715,-26.855,0.000
1714025865.221,-35.645,-27.344,-26.367,-23.926,0.000
1714025865.225,-37.109,-23.438,-26.367,-28.320,0.000
1714025865.229,-35.645,-21.484,-28.320,-20.020,0.000
1714025865.233,-35.156,-25.391,-32.227,-19.043,0.000
1714025865.236,-33.203,-27.832,-31.738,-28.320,0.000
1714025865.240,-36.621,-27.344,-27.832,-34.180,0.000
1714025865.244,-36.133,-29.785,-25.391,-25.391,0.000
1714025865.248,-36.621,-30.762,-22.949,-22.949,0.000
1714025865.252,-38.086,-33.691,-27.832,-31.250,0.000
1714025865.256,-36.621,-36.621,-32.715,-33.203,0.000
1714025865.260,-42.480,-38.086,-35.156,-39.062,0.000
1714025865.262,-41.992,-31.738,-34.180,-37.598,0.000
1714025865.266,-39.062,-30.762,-32.715,-36.621,0.000
1714025865.270,-41.016,-35.645,-35.156,-37.598,0.000
1714025865.274,-38.574,-35.156,-35.156,-36.133,0.000
1714025865.278,-34.180,-32.227,-29.785,-38.086,0.000
1714025865.282,-29.785,-34.668,-34.180,-34.668,0.000
1714025865.286,-29.297,-39.062,-40.039,-35.156,0.000
1714025865.290,-37.109,-39.062,-30.273,-40.039,0.000
1714025865.294,-39.551,-39.062,-24.902,-43.945,0.000
1714025865.298,-30.273,-35.645,-22.949,-31.250,0.000
1714025865.302,-34.668,-31.250,-27.832,-29.297,0.000
1714025865.305,-40.527,-30.273,-28.320,-36.621,0.000
1714025865.313,-30.762,-35.645,-24.414,-33.203,0.000
1714025865.317,-26.855,-32.715,-23.926,-33.691,0.000
1714025865.321,-34.180,-30.762,-28.809,-29.785,0.000
1714025865.325,-38.574,-34.180,-29.785,-34.668,0.000
1714025865.329,-30.273,-31.738,-29.297,-37.109,0.000
1714025865.333,-29.785,-33.691,-32.715,-32.227,0.000
1714025865.337,-30.762,-33.691,-31.738,-22.949,0.000
1714025865.341,-25.391,-26.855,-22.461,-22.461,0.000
1714025865.345,-23.926,-25.391,-17.578,-27.344,0.000
1714025865.348,-22.461,-25.391,-20.996,-27.344,0.000
1714025865.352,-24.902,-24.414,-25.879,-26.855,0.000
1714025865.356,-27.344,-22.949,-27.832,-26.855,0.000
1714025865.356,-22.461,-26.367,-26.367,-26.855,0.000
1714025865.360,-26.855,-30.762,-29.297,-22.949,0.000
1714025865.364,-33.203,-31.738,-29.297,-20.508,0.000
1714025865.368,-32.227,-29.297,-31.250,-20.996,0.000
1714025865.372,-31.250,-25.391,-34.668,-28.809,0.000
1714025865.376,-33.203,-27.344,-30.762,-32.227,0.000
1714025865.380,-34.180,-38.574,-33.691,-28.320,0.000
1714025865.384,-33.203,-40.527,-36.133,-29.785,0.000
1714025865.388,-37.109,-36.133,-26.367,-33.203,0.000
1714025865.391,-37.109,-39.551,-24.414,-28.809,0.000
1714025865.395,-37.109,-39.551,-25.879,-28.320,0.000
1714025865.399,-39.551,-33.203,-23.438,-37.598,0.000
1714025865.406,-34.180,-31.738,-28.320,-37.109,0.000
1714025865.409,-36.621,-41.504,-33.203,-36.133,0.000
1714025865.413,-34.668,-32.715,-25.391,-31.738,0.000
1714025865.417,-26.367,-23.926,-22.461,-27.832,0.000
1714025865.421,-26.367,-31.250,-24.902,-31.738,0.000
1714025865.425,-27.344,-32.715,-22.949,-32.715,0.000
1714025865.429,-26.367,-24.902,-22.461,-25.391,0.000
1714025865.433,-26.855,-21.973,-20.508,-19.043,0.000
1714025865.437,-28.320,-28.320,-24.414,-20.996,0.000
1714025865.441,-24.902,-32.715,-32.227,-23.926,0.000
1714025865.445,-29.297,-32.715,-29.785,-32.715,0.000
1714025865.449,-29.297,-30.762,-25.391,-34.180,0.000
1714025865.453,-22.461,-28.809,-25.879,-25.879,0.000
1714025865.457,-24.414,-27.832,-30.273,-27.832,0.000
1714025865.461,-26.855,-28.320,-34.668,-38.574,0.000
1714025865.465,-27.344,-27.344,-32.715,-33.203,0.000
1714025865.469,-24.902,-29.297,-25.391,-26.367,0.000
1714025865.473,-23.926,-30.273,-26.367,-31.250,0.000
1714025865.477,-28.809,-31.250,-30.273,-36.621,0.000
1714025865.481,-30.273,-32.227,-26.367,-41.016,0.000
1714025865.485,-27.344,-31.738,-20.996,-36.621,0.000
1714025865.489,-27.832,-32.227,-22.949,-33.691,0.000
1714025865.492,-25.879,-28.320,-23.438,-41.016,0.000
1714025865.496,-22.461,-23.926,-20.020,-36.621,0.000
1714025865.500,-25.391,-27.832,-20.996,-27.832,0.000
1714025865.504,-29.297,-25.391,-21.484,-30.273,0.000
1714025865.508,-33.691,-26.367,-19.531,-34.180,0.000
1714025865.512,-37.109,-28.809,-23.438,-27.832,0.000
1714025865.516,-34.180,-31.250,-30.762,-21.484,0.000
1714025865.520,-33.203,-29.785,-26.367,-23.438,0.000
1714025865.524,-26.855,-26.855,-19.531,-24.414,0.000
1714025865.528,-20.020,-28.809,-18.555,-22.949,0.000
1714025865.532,-25.391,-27.832,-20.996,-21.973,0.000
1714025865.536,-26.855,-25.391,-22.461,-27.832,0.000
1714025865.539,-24.902,-24.902,-26.855,-31.738,0.000
1714025865.543,-27.344,-25.391,-21.973,-33.691,0.000
1714025865.547,-25.391,-31.250,-22.949,-31.738,0.000
1714025865.551,-26.855,-32.227,-36.133,-29.297,0.000
1714025865.555,-31.250,-31.738,-30.762,-36.621,0.000
1714025865.559,-37.598,-32.715,-30.273,-39.551,0.000
1714025865.562,-35.645,-32.715,-28.320,-32.715,0.000
1714025865.566,-34.668,-30.273,-25.391,-32.715,0.000
1714025865.570,-34.668,-29.297,-25.391,-34.180,0.000
1714025865.574,-27.832,-30.273,-25.879,-30.762,0.000
1714025865.578,-32.227,-26.855,-26.855,-27.344,0.000
1714025865.582,-39.062,-30.762,-24.414,-35.645,0.000
1714025865.586,-36.621,-38.086,-25.879,-30.762,0.000
1714025865.590,-33.203,-34.180,-25.391,-30.273,0.000
1714025865.593,-31.738,-29.785,-26.367,-39.062,0.000
1714025865.597,-30.273,-29.785,-27.832,-35.645,0.000
1714025865.600,-26.367,-26.855,-23.438,-32.227,0.000
1714025865.604,-28.809,-26.367,-23.438,-34.668,0.000
1714025865.608,-34.180,-23.438,-29.297,-42.480,0.000
1714025865.612,-27.832,-20.508,-30.273,-38.574,0.000
1714025865.616,-25.391,-24.414,-25.391,-28.809,0.000
1714025865.620,-26.855,-25.879,-20.996,-16.113,0.000
1714025865.624,-23.438,-22.461,-17.578,-20.508,0.000
1714025865.628,-20.996,-23.926,-20.508,-26.367,0.000
1714025865.632,-21.484,-28.809,-19.043,-20.996,0.000
1714025865.636,-21.973,-25.879,-20.508,-20.020,0.000
1714025865.638,-20.020,-20.996,-29.297,-19.043,0.000
1714025865.642,-22.461,-20.020,-35.156,-22.949,0.000
1714025865.646,-26.367,-21.973,-37.109,-29.297,0.000
1714025865.650,-22.949,-25.879,-36.621,-22.949,0.000
1714025865.654,-23.438,-25.879,-32.227,-28.809,0.000
1714025865.658,-20.996,-20.996,-25.391,-32.715,0.000
1714025865.661,-14.648,-20.996,-27.832,-27.344,0.000
1714025865.665,-16.602,-19.043,-25.391,-28.809,0.000
1714025865.669,-18.066,-11.719,-22.949,-27.344,0.000
1714025865.673,-20.996,-12.695,-29.297,-28.809,0.000
1714025865.677,-29.297,-20.508,-33.691,-31.250,0.000
1714025865.681,-37.598,-22.949,-35.645,-26.855,0.000
1714025865.683,-32.227,-22.949,-26.855,-22.461,0.000
1714025865.687,-29.297,-26.855,-26.367,-24.902,0.000
1714025865.691,-39.062,-30.762,-32.227,-33.691,0.000
1714025865.695,-36.621,-29.785,-37.109,-31.738,0.000
1714025865.699,-35.156,-31.250,-38.086,-29.785,0.000
1714025865.703,-39.062,-29.785,-32.715,-31.250,0.000
1714025865.707,-35.156,-25.879,-31.738,-21.973,0.000
1714025865.710,-32.715,-26.855,-27.344,-19.531,0.000
1714025865.714,-37.598,-36.133,-29.297,-27.344,0.000
1714025865.718,-35.645,-34.668,-30.762,-27.832,0.000
1714025865.722,-31.738,-28.809,-27.344,-25.879,0.000
1714025865.726,-30.273,-29.785,-30.762,-25.391,0.000
1714025865.734,-24.902,-32.715,-34.180,-24.414,0.000
1714025865.738,-26.367,-32.715,-31.738,-21.973,0.000
1714025865.742,-25.391,-29.785,-26.855,-21.484,0.000
1714025865.745,-21.973,-31.738,-31.250,-26.367,0.000
1714025865.749,-20.996,-34.668,-41.504,-28.809,0.000
1714025865.753,-15.137,-29.785,-43.945,-21.973,0.000
1714025865.757,-14.160,-28.809,-39.062,-25.879,0.000
1714025865.761,-18.066,-27.344,-36.133,-36.133,0.000
1714025865.765,-20.020,-30.273,-38.086,-39.551,0.000
1714025865.769,-20.996,-31.738,-40.527,-26.367,0.000
1714025865.773,-24.902,-24.414,-39.062,-20.996,0.000
1714025865.777,-32.227,-26.367,-40.527,-31.250,0.000
1714025865.782,-37.109,-34.668,-41.504,-26.367,0.000
1714025865.786,-38.086,-41.992,-41.992,-17.090,0.000
1714025865.790,-25.879,-35.645,-46.875,-10.254,0.000
1714025865.794,-17.090,-29.785,-43.945,-14.160,0.000
1714025865.798,-27.832,-31.250,-43.945,-25.879,0.000
1714025865.802,-47.852,-28.809,-49.316,-39.551,0.000
1714025865.805,-57.129,-27.832,-41.016,-42.969,0.000
1714025865.809,-53.711,-30.762,-40.039,-44.922,0.000
1714025865.813,-48.340,-29.785,-47.852,-41.504,0.000
1714025865.817,-53.223,-33.691,-49.316,-44.434,0.000
1714025865.821,-51.270,-34.180,-41.016,-50.293,0.000
1714025865.825,-44.922,-36.621,-30.762,-40.527,0.000
1714025865.829,-45.898,-39.062,-30.273,-34.180,0.000
1714025865.833,-44.922,-30.762,-36.133,-36.621,0.000
1714025865.837,-42.969,-29.297,-37.109,-35.645,0.000
1714025865.841,-44.922,-30.273,-32.227,-36.621,0.000
1714025865.845,-44.922,-28.320,-31.250,-38.574,0.000
1714025865.849,-43.457,-33.203,-33.203,-33.691,0.000
1714025865.853,-38.574,-33.691,-32.715,-36.133,0.000
1714025865.857,-31.250,-26.855,-36.133,-38.086,0.000
1714025865.861,-37.109,-29.297,-39.551,-35.645,0.000
1714025865.864,-39.551,-29.785,-35.645,-40.039,0.000
1714025865.868,-36.621,-29.297,-33.203,-43.945,0.000
1714025865.872,-32.227,-29.785,-36.133,-39.062,0.000
1714025865.876,-36.621,-24.902,-38.086,-39.551,0.000
1714025865.880,-38.086,-23.926,-37.109,-45.898,0.000
1714025865.884,-34.668,-23.926,-32.227,-39.551,0.000
1714025865.887,-29.297,-22.949,-32.227,-28.809,0.000
1714025865.891,-21.973,-23.926,-32.227,-26.855,0.000
1714025865.895,-22.461,-23.438,-27.832,-26.855,0.000
1714025865.899,-23.926,-21.973,-29.785,-27.344,0.000
1714025865.903,-19.043,-25.879,-23.926,-25.879,0.000
1714025865.907,-13.184,-29.785,-26.367,-14.648,0.000
1714025865.911,-19.043,-25.879,-30.762,-18.066,0.000
1714025865.915,-21.973,-24.414,-29.297,-26.367,0.000
1714025865.919,-17.090,-30.273,-28.809,-22.461,0.000
1714025865.922,-18.066,-33.691,-23.438,-17.578,0.000
1714025865.926,-22.461,-33.691,-26.367,-21.484,0.000
1714025865.930,-19.531,-30.762,-28.320,-24.414,0.000
1714025865.933,-16.602,-26.855,-26.367,-19.531,0.000
1714025865.937,-20.508,-26.855,-27.344,-29.785,0.000
1714025865.941,-20.020,-26.367,-30.273,-35.156,0.000
1714025865.945,-18.555,-20.020,-35.645,-32.715,0.000
1714025865.949,-19.043,-18.066,-31.250,-25.391,0.000
1714025865.953,-18.555,-17.090,-24.902,-17.090,0.000
1714025865.957,-17.578,-17.090,-20.996,-21.484,0.000
1714025865.961,-19.531,-20.508,-22.949,-30.273,0.000
1714025865.965,-22.949,-22.461,-26.855,-26.855,0.000
1714025865.967,-22.461,-27.832,-25.879,-19.531,0.000
1714025865.971,-18.555,-25.879,-24.414,-13.672,0.000
1714025865.975,-22.949,-21.973,-23.438,-18.555,0.000
1714025865.979,-30.273,-25.391,-22.461,-26.855,0.000
1714025865.983,-24.902,-27.344,-20.020,-24.902,0.000
1714025865.987,-24.902,-28.320,-21.484,-20.996,0.000
1714025865.991,-30.273,-26.367,-26.855,-22.461,0.000
1714025865.995,-28.809,-27.832,-34.668,-19.043,0.000
1714025865.999,-28.809,-29.297,-25.879,-19.043,0.000
1714025866.003,-27.344,-20.996,-15.137,-20.996,0.000
1714025866.006,-26.855,-18.066,-17.578,-20.020,0.000
1714025866.010,-24.902,-17.090,-18.066,-27.832,0.000
1714025866.013,-21.973,-19.531,-20.996,-29.297,0.000
1714025866.017,-21.484,-24.414,-27.832,-24.902,0.000
1714025866.021,-22.461,-25.879,-31.738,-29.297,0.000
1714025866.025,-24.414,-30.762,-27.832,-34.668,0.000
1714025866.029,-22.461,-27.832,-26.855,-27.832,0.000
1714025866.032,-23.926,-21.484,-29.785,-29.297,0.000
1714025866.036,-27.832,-22.949,-30.273,-33.203,0.000
1714025866.040,-28.809,-21.973,-31.738,-27.344,0.000
1714025866.044,-33.203,-22.949,-34.668,-31.738,0.000
1714025866.048,-34.668,-27.344,-36.133,-35.156,0.000
1714025866.052,-31.738,-29.297,-25.879,-33.691,0.000
1714025866.056,-32.715,-27.832,-14.160,-34.180,0.000
1714025866.058,-33.691,-26.367,-16.113,-28.320,0.000
1714025866.062,-36.133,-27.344,-21.484,-28.320,0.000
1714025866.066,-35.645,-24.902,-21.973,-29.297,0.000
1714025866.070,-33.203,-23.926,-21.484,-32.227,0.000
1714025866.074,-35.156,-25.391,-16.113,-35.156,0.000
1714025866.078,-39.062,-25.879,-21.484,-35.645,0.000
1714025866.082,-37.109,-23.926,-25.879,-30.273,0.000
1714025866.086,-38.086,-24.902,-26.367,-38.574,0.000
1714025866.089,-38.574,-32.227,-31.250,-49.805,0.000
1714025866.093,-37.598,-37.109,-28.809,-45.898,0.000
1714025866.097,-38.086,-32.227,-28.320,-40.039,0.000
1714025866.101,-34.668,-31.738,-26.855,-39.062,0.000
1714025866.109,-32.227,-33.691,-20.996,-37.109,0.000
1714025866.112,-32.227,-31.250,-23.438,-32.227,0.000
1714025866.116,-33.203,-33.203,-28.809,-29.297,0.000
1714025866.120,-31.250,-34.668,-23.438,-32.227,0.000
1714025866.124,-32.227,-32.715,-24.902,-38.086,0.000
1714025866.128,-33.691,-31.738,-32.227,-38.574,0.000
1714025866.132,-39.062,-32.715,-30.273,-40.039,0.000
1714025866.136,-42.969,-33.691,-28.320,-46.387,0.000
1714025866.140,-40.039,-35.156,-27.832,-48.828,0.000
1714025866.144,-40.527,-32.715,-29.297,-43.945,0.000
1714025866.148,-37.598,-32.227,-22.949,-38.574,0.000
1714025866.151,-30.273,-28.320,-13.672,-35.645,0.000
1714025866.157,-29.297,-26.855,-14.160,-37.109,0.000
1714025866.161,-33.691,-34.668,-18.066,-40.527,0.000
1714025866.165,-35.156,-37.598,-21.973,-38.086,0.000
1714025866.169,-18.066,-31.738,-23.438,-23.926,0.000
1714025866.173,-13.672,-27.344,-26.367,-21.973,0.000
1714025866.177,-35.156,-30.273,-29.785,-39.062,0.000
1714025866.181,-39.551,-33.691,-28.809,-40.039,0.000
1714025866.185,-35.645,-33.691,-26.367,-36.133,0.000
1714025866.188,-32.227,-31.738,-19.531,-28.320,0.000
1714025866.192,-26.367,-31.250,-18.555,-16.602,0.000
1714025866.196,-35.645,-29.297,-20.020,-28.809,0.000
1714025866.200,-41.016,-29.297,-20.996,-39.551,0.000
1714025866.204,-32.227,-27.832,-25.391,-29.297,0.000
1714025866.208,-28.809,-28.809,-29.297,-27.344,0.000
1714025866.212,-28.809,-28.809,-30.762,-34.668,0.000
1714025866.216,-25.879,-24.414,-24.414,-31.738,0.000
1714025866.220,-22.461,-22.949,-17.090,-27.832,0.000
1714025866.224,-20.508,-22.949,-21.484,-26.367,0.000
1714025866.228,-20.996,-19.043,-19.043,-27.832,0.000
1714025866.232,-21.973,-21.484,-16.113,-29.297,0.000
1714025866.236,-19.043,-26.367,-20.996,-22.461,0.000
1714025866.240,-17.578,-21.973,-20.020,-21.484,0.000
1714025866.243,-16.113,-19.531,-15.137,-30.762,0.000
1714025866.247,-13.184,-21.484,-19.043,-29.785,0.000
1714025866.251,-13.672,-23.926,-20.508,-23.438,0.000
1714025866.255,-17.578,-23.926,-17.578,-23.926,0.000
1714025866.259,-14.648,-16.602,-16.602,-26.855,0.000
1714025866.263,-17.090,-18.066,-23.926,-29.297,0.000
1714025866.267,-21.484,-25.879,-23.438,-28.809,0.000
1714025866.270,-20.508,-25.879,-14.160,-29.785,0.000
1714025866.274,-20.996,-25.391,-14.648,-28.320,0.000
1714025866.278,-23.926,-26.367,-23.926,-27.832,0.000
1714025866.282,-29.785,-30.762,-24.414,-20.508,0.000
1714025866.286,-29.297,-30.273,-23.438,-22.949,0.000
1714025866.290,-28.809,-30.762,-30.762,-31.250,0.000
1714025866.294,-31.250,-27.832,-33.203,-36.621,0.000
1714025866.297,-33.203,-18.555,-29.785,-40.039,0.000
1714025866.301,-40.527,-24.414,-33.691,-41.016,0.000
1714025866.305,-35.645,-30.273,-31.250,-39.551,0.000
1714025866.309,-27.344,-24.414,-27.832,-34.180,0.000
1714025866.313,-33.691,-22.949,-29.785,-32.227,0.000
1714025866.316,-36.621,-22.949,-24.902,-29.785,0.000
1714025866.320,-28.809,-23.926,-22.949,-25.391,0.000
1714025866.324,-20.996,-27.344,-22.461,-25.391,0.000
1714025866.328,-22.461,-24.414,-20.996,-27.832,0.000
1714025866.332,-25.879,-20.996,-20.508,-31.738,0.000
1714025866.336,-29.785,-24.414,-27.344,-30.762,0.000
1714025866.340,-33.691,-32.227,-29.785,-30.762,0.000
1714025866.343,-38.574,-32.715,-31.738,-38.086,0.000
1714025866.347,-41.992,-29.785,-35.156,-39.062,0.000
1714025866.351,-39.062,-30.273,-31.250,-32.715,0.000
1714025866.354,-37.109,-33.203,-32.715,-32.227,0.000
1714025866.358,-41.504,-32.715,-31.738,-37.598,0.000
1714025866.362,-35.156,-28.809,-25.879,-29.785,0.000
1714025866.366,-30.762,-28.320,-27.832,-26.855,0.000
1714025866.370,-34.180,-33.203,-24.902,-28.809,0.000
1714025866.374,-30.762,-29.297,-18.555,-30.762,0.000
1714025866.378,-31.738,-23.926,-16.113,-35.645,0.000
1714025866.382,-35.645,-31.738,-18.066,-36.133,0.000
1714025866.386,-35.156,-37.109,-28.809,-38.574,0.000
1714025866.388,-31.738,-34.668,-30.762,-39.062,0.000
1714025866.392,-32.227,-34.180,-26.367,-40.039,0.000
1714025866.396,-34.668,-32.227,-25.879,-41.992,0.000
1714025866.400,-32.715,-26.855,-24.414,-31.250,0.000
1714025866.404,-37.109,-29.297,-18.555,-28.809,0.000
1714025866.408,-37.109,-32.227,-18.066,-36.621,0.000
1714025866.412,-35.156,-33.203,-30.762,-29.785,0.000
1714025866.416,-36.133,-28.809,-32.227,-25.391,0.000
1714025866.419,-29.785,-25.879,-24.902,-26.855,0.000
1714025866.423,-29.297,-32.227,-25.879,-29.297,0.000
1714025866.427,-35.156,-35.645,-25.879,-31.738,0.000
1714025866.431,-39.551,-36.133,-27.832,-29.785,0.000
1714025866.433,-34.668,-35.156,-27.832,-29.297,0.000
1714025866.437,-29.785,-32.715,-23.438,-30.762,0.000
1714025866.441,-29.785,-34.668,-30.273,-33.203,0.000
1714025866.445,-24.902,-31.738,-31.738,-26.855,0.000
1714025866.449,-23.438,-23.926,-26.367,-22.461,0.000
1714025866.453,-22.949,-24.414,-31.250,-28.809,0.000
1714025866.457,-24.902,-29.785,-35.645,-26.855,0.000
1714025866.461,-32.227,-32.227,-29.297,-32.227,0.000
1714025866.465,-33.691,-30.762,-23.438,-34.668,0.000
1714025866.468,-34.180,-29.785,-26.855,-28.809,0.000
1714025866.472,-36.133,-29.785,-32.227,-38.574,0.000
1714025866.476,-40.527,-26.855,-33.691,-45.410,0.000
1714025866.478,-39.062,-28.809,-29.785,-35.156,0.000
1714025866.482,-30.762,-30.273,-28.320,-27.344,0.000
1714025866.486,-33.203,-28.320,-32.715,-33.691,0.000
1714025866.490,-34.668,-30.273,-31.250,-31.738,0.000
1714025866.494,-29.297,-30.762,-28.809,-26.367,0.000
1714025866.498,-28.320,-29.297,-29.785,-26.855,0.000
1714025866.502,-28.320,-28.320,-28.809,-28.320,0.000
1714025866.506,-25.391,-31.250,-27.344,-31.738,0.000
1714025866.510,-23.438,-33.691,-30.273,-25.391,0.000
1714025866.513,-24.414,-32.715,-33.203,-18.555,0.000
1714025866.517,-27.344,-29.785,-26.855,-20.508,0.000
1714025866.521,-27.344,-29.297,-22.461,-24.902,0.000
1714025866.529,-24.902,-32.227,-27.832,-20.020,0.000
1714025866.533,-28.809,-32.227,-27.344,-16.602,0.000
1714025866.537,-31.738,-29.785,-17.090,-17.578,0.000
1714025866.540,-27.832,-26.855,-14.160,-20.508,0.000
1714025866.544,-20.020,-26.855,-20.996,-23.438,0.000
1714025866.548,-20.020,-25.879,-24.902,-15.625,0.000
1714025866.552,-18.066,-25.879,-22.949,-7.324,0.000
1714025866.556,-11.719,-28.809,-26.367,-10.742,0.000
1714025866.560,-23.926,-36.621,-35.645,-28.809,0.000
1714025866.564,-30.762,-30.762,-36.133,-31.738,0.000
1714025866.568,-29.785,-30.273,-33.203,-28.320,0.000
1714025866.572,-24.414,-32.715,-31.738,-26.367,0.000
1714025866.577,-15.625,-26.367,-29.785,-22.949,0.000
1714025866.581,-13.184,-26.855,-29.785,-20.020,0.000
1714025866.585,-16.602,-22.461,-28.809,-16.602,0.000
1714025866.589,-11.230,-22.949,-30.273,-14.160,0.000
1714025866.593,-11.719,-27.832,-37.109,-20.020,0.000
1714025866.597,-15.625,-28.320,-36.621,-20.508,0.000
1714025866.601,-11.719,-28.809,-32.227,-13.184,0.000
1714025866.605,-12.695,-26.855,-32.715,-12.695,0.000
1714025866.608,-12.207,-26.367,-39.062,-11.719,0.000
1714025866.612,-15.137,-24.414,-42.969,-15.137,0.000
1714025866.616,-14.160,-26.367,-37.109,-13.672,0.000
1714025866.620,-10.742,-33.203,-34.180,-17.578,0.000
1714025866.624,-5.371,-31.250,-40.039,-23.438,0.000
1714025866.628,-1.953,-23.438,-44.434,-24.414,0.000
1714025866.632,0.488,-21.973,-45.410,-20.996,0.000
1714025866.636,7.324,-20.508,-42.969,-16.602,0.000
1714025866.640,11.230,-20.020,-40.527,-22.461,0.000
1714025866.644,3.418,-25.391,-45.410,-28.320,0.000
1714025866.648,-8.301,-30.273,-43.945,-23.926,0.000
1714025866.652,-6.836,-30.273,-41.504,-16.602,0.000
1714025866.656,-12.695,-31.738,-44.434,-13.184,0.000
1714025866.660,-25.391,-33.203,-41.992,-19.531,0.000
1714025866.663,-29.785,-30.762,-44.922,-20.996,0.000
1714025866.667,-26.855,-28.320,-48.340,-19.043,0.000
1714025866.671,-21.973,-26.855,-44.922,-15.625,0.000
1714025866.675,-17.090,-25.391,-34.668,-8.789,0.000
1714025866.679,-1.465,-26.367,-35.645,8.301,0.000
1714025866.683,-2.441,-26.367,-38.086,4.883,0.000
1714025866.686,-26.855,-19.043,-36.621,-26.855,0.000
1714025866.690,-23.926,-19.043,-46.387,-33.203,0.000
1714025866.694,-5.371,-28.809,-53.223,-16.113,0.000
1714025866.698,-17.578,-30.273,-54.688,-14.648,0.000
1714025866.702,-28.809,-25.391,-43.457,-18.555,0.000
1714025866.706,-14.160,-28.809,-35.645,-14.648,0.000
1714025866.710,-12.695,-31.250,-38.086,-19.043,0.000
1714025866.714,-16.113,-32.715,-41.504,-13.672,0.000
1714025866.717,-9.277,-36.133,-40.527,-1.953,0.000
1714025866.721,-2.441,-28.809,-42.969,-2.441,0.000
1714025866.725,-4.883,-28.809,-45.898,-11.230,0.000
1714025866.729,-14.160,-36.621,-45.410,-20.020,0.000
1714025866.732,-18.066,-36.133,-44.922,-18.555,0.000
1714025866.736,-16.113,-31.738,-43.945,-18.066,0.000
1714025866.740,-12.207,-30.273,-40.527,-20.508,0.000
1714025866.744,-17.090,-33.203,-39.551,-17.578,0.000
1714025866.748,-24.902,-31.250,-35.645,-21.973,0.000
1714025866.752,-23.926,-25.879,-36.621,-18.555,0.000
1714025866.756,-25.391,-27.344,-40.527,-26.367,0.000
1714025866.760,-24.902,-24.902,-37.109,-32.227,0.000
1714025866.763,-20.508,-21.973,-30.762,-22.461,0.000
1714025866.767,-21.973,-17.578,-27.832,-21.484,0.000
1714025866.770,-21.484,-20.508,-29.785,-20.020,0.000
1714025866.774,-18.066,-23.926,-26.855,-20.020,0.000
1714025866.778,-21.973,-21.484,-27.344,-24.902,0.000
1714025866.782,-25.879,-23.926,-28.809,-21.484,0.000
1714025866.786,-24.902,-27.344,-32.227,-15.625,0.000
1714025866.790,-23.926,-26.367,-33.203,-20.020,0.000
1714025866.794,-21.484,-23.438,-26.367,-24.414,0.000
1714025866.798,-19.043,-23.438,-26.367,-15.137,0.000
1714025866.802,-17.090,-22.461,-22.949,-12.207,0.000
1714025866.806,-14.648,-18.066,-20.996,-17.090,0.000
1714025866.808,-11.719,-16.113,-23.438,-20.508,0.000
1714025866.812,-13.672,-20.508,-23.438,-17.578,0.000
1714025866.816,-17.090,-21.484,-21.484,-17.578,0.000
1714025866.819,-15.137,-16.602,-19.043,-21.484,0.000
1714025866.823,-19.043,-23.438,-22.461,-31.250,0.000
1714025866.827,-23.926,-30.762,-23.926,-37.109,0.000
1714025866.831,-27.344,-30.762,-23.926,-26.855,0.000
1714025866.835,-25.391,-26.855,-21.484,-21.973,0.000
1714025866.839,-23.438,-21.973,-19.043,-29.785,0.000
1714025866.843,-26.367,-24.414,-24.902,-32.715,0.000
1714025866.847,-29.297,-27.832,-21.484,-28.320,0.000
1714025866.851,-28.809,-25.879,-16.113,-25.879,0.000
1714025866.853,-25.879,-21.484,-18.555,-29.297,0.000
1714025866.857,-22.949,-19.531,-20.508,-26.367,0.000
1714025866.861,-24.414,-18.066,-19.531,-22.949,0.000
1714025866.865,-24.902,-17.090,-16.602,-30.273,0.000
1714025866.869,-26.367,-22.949,-15.625,-32.227,0.000
1714025866.873,-27.344,-23.438,-16.113,-30.762,0.000
1714025866.876,-28.809,-21.484,-14.160,-25.879,0.000
1714025866.880,-20.508,-17.578,-6.836,-18.555,0.000
1714025866.884,-17.578,-17.578,-8.789,-22.461,0.000
1714025866.888,-21.484,-23.926,-11.719,-27.832,0.000
1714025866.892,-21.973,-28.320,-11.230,-30.762,0.000
1714025866.896,-26.367,-28.809,-14.648,-32.715,0.000
1714025866.904,-22.949,-25.879,-17.090,-27.832,0.000
1714025866.908,-20.020,-25.879,-16.113,-27.832,0.000
1714025866.912,-23.926,-22.949,-9.766,-31.250,0.000
1714025866.916,-24.414,-23.926,-9.277,-25.879,0.000
1714025866.920,-25.879,-24.902,-15.137,-23.438,0.000
1714025866.923,-26.367,-23.926,-15.625,-25.391,0.000
1714025866.927,-22.461,-26.367,-17.090,-27.344,0.000
1714025866.931,-26.367,-26.367,-19.531,-29.297,0.000
1714025866.935,-30.762,-24.414,-22.949,-24.414,0.000
1714025866.939,-27.832,-21.973,-22.461,-23.438,0.000
1714025866.943,-26.367,-19.531,-22.949,-25.879,0.000
1714025866.947,-25.879,-24.414,-25.879,-22.461,0.000
1714025866.952,-24.414,-29.785,-17.578,-17.578,0.000
1714025866.956,-28.320,-30.762,-12.695,-20.020,0.000
1714025866.960,-30.762,-26.855,-17.578,-21.484,0.000
1714025866.964,-32.715,-23.926,-23.438,-25.879,0.000
1714025866.968,-30.762,-26.367,-27.832,-24.902,0.000
1714025866.972,-24.414,-27.344,-24.414,-17.090,0.000
1714025866.976,-28.320,-21.484,-24.414,-23.438,0.000
1714025866.980,-35.156,-19.531,-31.250,-29.297,0.000
1714025866.984,-26.367,-23.438,-32.715,-20.020,0.000
1714025866.988,-19.531,-22.461,-25.391,-17.090,0.000
1714025866.992,-20.508,-19.043,-20.996,-26.855,0.000
1714025866.995,-21.973,-16.602,-19.531,-24.902,0.000
1714025867.000,-26.855,-22.461,-25.879,-21.973,0.000
1714025867.004,-28.809,-25.879,-25.391,-25.391,0.000
1714025867.008,-25.879,-23.438,-21.484,-27.832,0.000
1714025867.011,-22.949,-24.902,-22.461,-30.762,0.000
1714025867.015,-23.438,-25.879,-21.973,-27.832,0.000
1714025867.019,-23.926,-26.367,-19.531,-23.926,0.000
1714025867.023,-23.926,-23.926,-15.625,-26.855,0.000
1714025867.027,-23.438,-23.926,-19.043,-28.809,0.000
1714025867.031,-23.438,-26.367,-27.832,-24.414,0.000
1714025867.035,-24.902,-25.879,-24.902,-26.855,0.000
1714025867.039,-19.531,-25.391,-21.484,-24.414,0.000
1714025867.043,-14.160,-21.973,-21.484,-19.531,0.000
1714025867.046,-16.602,-20.020,-22.949,-26.855,0.000
1714025867.050,-20.996,-21.973,-27.832,-27.344,0.000
1714025867.054,-23.926,-26.855,-26.855,-18.066,0.000
1714025867.058,-24.902,-30.762,-25.879,-24.414,0.000
1714025867.062,-25.391,-26.855,-28.809,-25.391,0.000
1714025867.065,-21.484,-22.949,-23.926,-16.602,0.000
1714025867.069,-20.508,-20.508,-18.555,-17.090,0.000
1714025867.073,-17.090,-14.648,-23.438,-14.648,0.000
1714025867.077,-13.184,-18.555,-26.367,-11.719,0.000
1714025867.081,-18.555,-22.949,-19.531,-15.137,0.000
1714025867.085,-15.137,-21.484,-19.043,-15.137,0.000
1714025867.089,-15.137,-17.090,-22.949,-18.066,0.000
1714025867.092,-18.555,-13.672,-24.902,-18.555,0.000
1714025867.096,-19.043,-20.020,-23.438,-20.996,0.000
1714025867.100,-21.484,-28.809,-18.555,-23.438,0.000
1714025867.104,-24.902,-32.715,-21.484,-24.414,0.000
1714025867.108,-25.391,-29.785,-24.902,-24.902,0.000
1714025867.112,-26.855,-26.367,-27.832,-23.438,0.000
1714025867.116,-23.438,-23.926,-27.344,-17.578,0.000
1714025867.120,-20.020,-25.879,-22.949,-10.742,0.000
1714025867.123,-19.531,-26.855,-22.461,-25.391,0.000
1714025867.127,-20.508,-25.391,-25.391,-31.738,0.000
1714025867.131,-27.832,-32.227,-31.250,-26.855,0.000
1714025867.135,-34.180,-37.109,-34.180,-27.344,0.000
1714025867.138,-35.156,-38.086,0.000,-37.109,0.000
1714025867.142,-34.180,-34.668,0.000,-41.016,0.000
1714025867.146,-29.785,-25.879,0.000,-27.832,0.000
1714025867.150,-23.926,-25.391,0.000,-20.508,0.000
1714025867.154,-24.414,-28.320,0.000,-20.996,0.000
1714025867.158,-29.785,-28.809,0.000,-24.902,0.000
1714025867.162,-39.551,-27.344,0.000,-28.809,0.000
1714025867.165,-46.387,-32.227,0.000,-30.762,0.000
1714025867.169,-50.781,-37.109,0.000,-40.527,0.000
1714025867.173,-59.082,-34.668,0.000,-45.898,0.000
1714025867.177,-64.453,-34.180,0.000,-47.363,0.000
1714025867.181,-67.383,-38.574,0.000,-46.387,0.000
1714025867.183,-73.242,-39.551,-15.625,-58.105,0.000
1714025867.187,-74.707,-41.504,-15.137,-62.012,0.000
1714025867.191,-69.824,-45.898,-15.137,-59.082,0.000
1714025867.195,-72.266,-44.922,-17.578,-61.035,0.000
1714025867.199,-71.289,-33.691,-15.137,-53.711,0.000
1714025867.203,-60.547,-30.273,-10.742,-38.086,0.000
1714025867.207,-52.246,-31.738,-18.555,-28.320,0.000
1714025867.211,-46.875,-28.809,-23.926,-26.855,0.000
1714025867.215,-40.039,-26.855,-16.602,-21.484,0.000
1714025867.218,-37.598,-21.484,-15.625,-24.902,0.000
1714025867.222,-41.504,-19.043,-20.508,-32.715,0.000
1714025867.226,-43.457,-24.414,-22.949,-35.645,0.000
1714025867.234,-43.457,-28.809,-20.508,-32.715,0.000
1714025867.237,-39.062,-31.738,-17.090,-28.320,0.000
1714025867.241,-35.645,-33.203,-17.090,-35.645,0.000
1714025867.245,-33.203,-31.250,-22.461,-38.574,0.000
1714025867.249,-30.762,-26.367,-27.344,-33.691,0.000
1714025867.253,-27.344,-23.438,-25.879,-28.320,0.000
1714025867.257,-30.273,-21.973,-18.066,-30.273,0.000
1714025867.261,-30.762,-26.367,-15.137,-38.574,0.000
1714025867.265,-25.879,-28.320,-20.020,-32.227,0.000
1714025867.269,-20.996,-21.973,-28.809,-18.066,0.000
1714025867.273,-23.926,-22.461,-32.227,-19.531,0.000
1714025867.277,-31.738,-20.508,-25.391,-29.297,0.000
1714025867.282,-31.738,-19.531,-24.902,-29.785,0.000
1714025867.286,-25.879,-21.484,-26.367,-25.391,0.000
1714025867.290,-29.785,-23.926,-26.855,-30.762,0.000
1714025867.294,-32.715,-25.879,-27.344,-32.227,0.000
1714025867.298,-35.156,-28.809,-31.250,-33.203,0.000
1714025867.302,-41.504,-32.227,-33.691,-36.133,0.000
1714025867.306,-32.715,-30.762,-28.320,-27.832,0.000
1714025867.309,-33.203,-28.809,-26.855,-33.203,0.000
1714025867.313,-36.621,-26.367,-30.273,-36.621,0.000
1714025867.317,-32.715,-24.414,-27.832,-27.344,0.000
1714025867.321,-32.227,-20.996,-20.996,-22.949,0.000
1714025867.325,-25.391,-20.508,-26.855,-26.855,0.000
1714025867.329,-26.367,-27.832,-34.180,-27.832,0.000
1714025867.333,-24.414,-23.926,-30.762,-24.414,0.000
1714025867.337,-18.555,-21.973,-26.855,-23.438,0.000
1714025867.341,-19.531,-21.484,-25.879,-29.785,0.000
1714025867.345,-19.531,-16.113,-20.508,-34.180,0.000
1714025867.349,-20.508,-14.160,-18.066,-31.250,0.000
1714025867.353,-26.367,-12.695,-21.973,-30.273,0.000
1714025867.357,-27.832,-18.066,-21.973,-31.250,0.000
1714025867.360,-27.832,-23.438,-21.973,-29.785,0.000
1714025867.364,-33.691,-24.902,-21.973,-32.715,0.000
1714025867.368,-29.297,-24.414,-18.555,-32.715,0.000
1714025867.372,-25.879,-24.414,-19.043,-29.297,0.000
1714025867.376,-27.344,-22.949,-22.949,-33.203,0.000
1714025867.380,-29.297,-22.461,-30.273,-36.133,0.000
1714025867.384,-32.715,-23.438,-35.156,-37.109,0.000
1714025867.388,-32.227,-26.367,-30.762,-35.156,0.000
1714025867.391,-26.367,-25.391,-29.785,-28.809,0.000
1714025867.395,-24.902,-20.508,-37.109,-29.785,0.000
1714025867.399,-27.344,-20.020,-36.133,-29.785,0.000
1714025867.403,-20.020,-24.414,-30.762,-13.672,0.000
1714025867.407,-11.719,-23.926,-30.273,0.488,0.000
1714025867.411,-30.273,-17.578,-31.738,-23.438,0.000
1714025867.415,-45.898,-19.531,-32.227,-41.016,0.000
1714025867.419,-48.828,-24.414,-31.738,-39.551,0.000
1714025867.422,-49.316,-24.414,-29.297,-40.527,0.000
1714025867.426,-44.922,-24.414,-24.902,-37.598,0.000
1714025867.430,-42.969,-24.414,-22.461,-37.598,0.000
1714025867.434,-43.457,-26.855,-26.367,-38.086,0.000
1714025867.437,-42.969,-29.297,-28.320,-36.621,0.000
1714025867.441,-33.691,-25.391,-31.250,-32.715,0.000
1714025867.445,-33.691,-26.367,-34.668,-38.574,0.000
1714025867.449,-36.621,-26.855,-34.668,-33.691,0.000
1714025867.453,-33.203,-23.926,-32.227,-25.879,0.000
1714025867.457,-38.574,-25.391,-32.227,-35.645,0.000
1714025867.461,-37.598,-26.855,-28.320,-39.062,0.000
1714025867.465,-30.762,-28.809,-27.832,-41.016,0.000
1714025867.467,-24.414,-26.855,-28.320,-37.109,0.000
1714025867.471,-15.625,-22.949,-21.484,-28.809,0.000
1714025867.475,-8.301,-24.414,-27.344,-27.832,0.000
1714025867.479,-7.812,-30.762,-29.785,-34.668,0.000
1714025867.483,-10.254,-30.273,-26.367,-31.738,0.000
1714025867.487,-10.742,-26.855,-22.949,-25.879,0.000
1714025867.491,-20.020,-30.273,-20.996,-29.297,0.000
1714025867.495,-35.645,-28.809,-26.855,-21.973,0.000
1714025867.499,-42.969,-25.391,-26.367,-21.484,0.000
1714025867.503,-42.480,-29.785,-26.367,-21.973,0.000
1714025867.506,-41.016,-31.738,-27.832,-23.438,0.000
1714025867.510,-41.016,-25.879,-28.320,-33.691,0.000
1714025867.513,-44.434,-29.297,-26.855,-33.691,0.000
1714025867.517,-43.945,-31.250,-25.391,-27.832,0.000
1714025867.521,-33.691,-25.879,-30.273,-26.367,0.000
1714025867.525,-33.691,-28.320,-31.738,-30.762,0.000
1714025867.528,-38.574,-26.367,-27.832,-29.297,0.000
1714025867.532,-35.645,-27.344,-29.297,-29.785,0.000
1714025867.536,-34.180,-32.227,-32.227,-30.762,0.000
1714025867.540,-31.250,-33.691,-25.879,-25.879,0.000
1714025867.544,-32.715,-32.227,-22.949,-29.297,0.000
1714025867.548,-34.668,-37.598,-28.320,-28.320,0.000
1714025867.552,-29.785,-37.598,-23.926,-20.996,0.000
1714025867.556,-29.785,-33.691,-16.113,-22.461,0.000
1714025867.558,-32.227,-36.133,-17.578,-27.832,0.000
1714025867.562,-34.668,-34.180,-28.809,-29.297,0.000
1714025867.566,-36.133,-29.785,-32.715,-27.832,0.000
1714025867.570,-35.645,-27.344,-27.832,-30.762,0.000
1714025867.574,-34.668,-30.273,-29.785,-38.574,0.000
1714025867.577,-35.156,-32.227,-30.762,-38.086,0.000
1714025867.581,-34.180,-33.203,-33.691,-22.949,0.000
1714025867.585,-30.273,-26.367,-26.367,-22.461,0.000
1714025867.589,-35.156,-20.020,-21.484,-31.250,0.000
1714025867.593,-39.551,-21.484,-30.273,-31.250,0.000
1714025867.597,-37.109,-22.949,-29.297,-33.691,0.000
1714025867.601,-35.156,-22.461,-28.320,-36.621,0.000
1714025867.603,-32.227,-21.973,-34.668,-36.621,0.000
1714025867.607,-32.715,-23.438,-34.180,-35.156,0.000
1714025867.611,-32.227,-26.855,-32.715,-31.250,0.000
1714025867.615,-25.879,-26.855,-28.320,-28.809,0.000
1714025867.619,-20.508,-31.250,-28.320,-31.250,0.000
1714025867.623,-24.902,-33.203,-34.180,-35.645,0.000
1714025867.627,-25.391,-26.367,-32.715,-34.668,0.000
1714025867.631,-24.902,-23.926,-30.273,-37.109,0.000
1714025867.634,-18.066,-20.508,-31.250,-38.086,0.000
1714025867.638,-17.090,-23.926,-35.156,-34.668,0.000
1714025867.642,-25.879,-24.902,-38.086,-35.645,0.000
1714025867.646,-25.391,-23.926,-37.109,-40.039,0.000
1714025867.654,-25.391,-30.273,-41.016,-45.410,0.000
1714025867.657,-30.273,-28.320,-43.457,-42.480,0.000
1714025867.661,-31.738,-28.320,-40.039,-35.156,0.000
1714025867.665,-31.250,-28.809,-36.133,-26.855,0.000
1714025867.669,-30.273,-27.832,-34.668,-22.949,0.000
1714025867.673,-37.598,-31.250,-35.645,-31.738,0.000
1714025867.677,-41.016,-27.344,-33.691,-34.180,0.000
1714025867.681,-28.320,-25.879,-33.691,-26.367,0.000
1714025867.685,-17.578,-27.832,-31.250,-23.926,0.000
1714025867.689,-15.625,-26.367,-31.250,-21.484,0.000
1714025867.693,-15.137,-24.902,-36.133,-20.508,0.000
1714025867.696,-18.066,-24.902,-41.016,-26.855,0.000
1714025867.702,-22.461,-31.250,-41.504,-30.273,0.000
1714025867.706,-18.555,-33.691,-35.156,-25.879,0.000
1714025867.710,-19.043,-32.715,-32.715,-23.438,0.000
1714025867.714,-21.973,-31.738,-32.227,-25.879,0.000
1714025867.718,-17.090,-28.809,-29.297,-26.367,0.000
1714025867.722,-15.625,-31.738,-30.762,-23.926,0.000
1714025867.726,-20.508,-32.227,-38.574,-23.926,0.000
1714025867.729,-15.625,-34.180,-43.945,-24.414,0.000
1714025867.733,-17.090,-35.645,-46.387,-24.414,0.000
1714025867.737,-19.043,-28.809,-40.039,-16.113,0.000
1714025867.741,-13.672,-22.949,-36.621,-13.184,0.000
1714025867.745,-18.066,-28.809,-41.016,-19.043,0.000
1714025867.749,-13.672,-33.691,-41.992,-7.812,0.000
1714025867.753,-4.883,-31.250,-42.969,-3.418,0.000
1714025867.757,-26.367,-25.391,-44.922,-32.227,0.000
1714025867.761,-36.621,-22.461,-46.875,-41.992,0.000
1714025867.765,-22.461,-16.113,-44.434,-24.414,0.000
1714025867.769,-22.461,-17.578,-39.062,-15.625,0.000
1714025867.773,-21.484,-22.949,-44.434,-17.090,0.000
1714025867.777,-16.602,-21.973,-53.223,-19.531,0.000
1714025867.781,-27.344,-25.391,-50.293,-19.043,0.000
1714025867.785,-29.785,-22.461,-48.828,-20.020,0.000
1714025867.788,-20.508,-20.508,-52.246,-13.184,0.000
1714025867.792,-18.555,-22.461,-53.223,-7.324,0.000
1714025867.796,-18.066,-24.902,-59.082,-17.578,0.000
1714025867.800,-15.137,-23.438,-58.105,-17.090,0.000
1714025867.804,-17.578,-22.949,-57.129,-12.207,0.000
1714025867.808,-23.438,-25.879,-59.570,-19.043,0.000
1714025867.812,-24.902,-22.949,-57.129,-23.926,0.000
1714025867.815,-26.367,-22.461,-55.176,-22.949,0.000
1714025867.819,-29.785,-24.414,-56.641,-22.949,0.000
1714025867.823,-26.367,-24.902,-56.641,-15.137,0.000
1714025867.827,-24.902,-25.391,-52.734,-11.230,0.000
1714025867.831,-26.855,-20.508,-51.270,-15.137,0.000
1714025867.835,-29.297,-25.391,-55.176,-14.648,0.000
1714025867.839,-32.715,-34.668,-56.641,-13.184,0.000
1714025867.842,-34.180,-31.250,-52.734,-18.555,0.000
1714025867.846,-34.180,-22.949,-52.734,-22.949,0.000
1714025867.850,-28.809,-24.902,-53.711,-19.531,0.000
1714025867.854,-27.344,-26.855,-48.828,-21.484,0.000
1714025867.857,-30.762,-25.879,-49.805,-26.367,0.000
1714025867.861,-30.762,-28.320,-49.316,-29.785,0.000
1714025867.865,-25.879,-26.855,-42.969,-25.391,0.000
1714025867.869,-30.273,-25.391,-41.992,-17.578,0.000
1714025867.873,-31.738,-27.344,-36.133,-14.160,0.000
1714025867.877,-21.484,-25.391,-36.621,-8.301,0.000
1714025867.881,-15.625,-25.391,-45.898,-4.883,0.000
1714025867.885,-23.438,-24.414,-48.828,-20.020,0.000
1714025867.888,-24.414,-20.508,-47.852,-28.809,0.000
1714025867.891,-15.137,-17.090,-42.480,-20.508,0.000
1714025867.895,-21.973,-19.531,-39.551,-25.391,0.000
1714025867.899,-37.109,-26.855,-37.598,-39.551,0.000
1714025867.903,-24.902,-22.949,-35.645,-25.879,0.000
1714025867.907,-12.207,-19.043,-38.574,-17.578,0.000
1714025867.911,-19.531,-24.414,-43.945,-29.297,0.000
1714025867.915,-24.902,-19.043,-42.480,-29.297,0.000
1714025867.919,-20.020,-18.555,-34.668,-21.484,0.000
1714025867.923,-20.508,-29.297,-34.180,-22.949,0.000
1714025867.927,-21.484,-29.785,-33.691,-32.227,0.000
1714025867.930,-19.531,-30.273,-34.180,-27.344,0.000
1714025867.933,-18.555,-31.738,-33.203,-17.090,0.000
1714025867.937,-15.625,-29.785,-28.320,-19.043,0.000
1714025867.941,-18.555,-34.180,-33.203,-25.879,0.000
1714025867.945,-19.531,-34.180,-33.691,-28.809,0.000
1714025867.949,-14.160,-30.762,-25.879,-25.879,0.000
1714025867.952,-13.672,-29.785,-26.855,-20.020,0.000
1714025867.956,-16.602,-33.691,-31.738,-12.695,0.000
1714025867.960,-20.996,-34.180,-24.902,-19.043,0.000
1714025867.964,-25.879,-29.297,-21.973,-24.902,0.000
1714025867.968,-21.973,-29.297,-23.926,-20.508,0.000
1714025867.972,-19.043,-29.297,-23.926,-20.996,0.000
1714025867.976,-20.508,-27.832,-25.391,-20.996,0.000
1714025867.978,-23.438,-30.273,-19.531,-17.090,0.000
1714025867.982,-23.926,-34.180,-17.578,-19.043,0.000
1714025867.986,-20.996,-33.203,-22.949,-19.043,0.000
1714025867.990,-21.484,-30.762,-21.484,-20.020,0.000
1714025867.994,-27.832,-29.297,-13.184,-20.020,0.000
1714025867.998,-35.645,-30.273,-18.555,-19.531,0.000
1714025868.002,-31.250,-30.762,-20.508,-21.484,0.000
1714025868.005,-27.832,-31.738,-18.555,-27.344,0.000
1714025868.009,-29.297,-36.133,-15.625,-27.344,0.000
1714025868.013,-24.414,-37.109,-11.230,-19.531,0.000
1714025868.017,-26.855,-34.180,-7.812,-20.996,0.000
1714025868.021,-36.133,-33.203,-10.254,-30.762,0.000
1714025868.028,-33.691,-37.598,-14.648,-30.273,0.000
1714025868.032,-29.785,-37.109,-10.742,-25.879,0.000
1714025868.036,-28.809,-33.691,-12.207,-26.855,0.000
1714025868.040,-31.250,-32.227,-20.508,-36.621,0.000
1714025868.044,-36.133,-28.809,-20.996,-42.480,0.000
1714025868.048,-35.156,-32.715,-19.043,-31.738,0.000
1714025868.052,-27.832,-33.203,-20.508,-27.832,0.000
1714025868.056,-25.879,-32.715,-18.066,-41.016,0.000
1714025868.060,-32.227,-33.203,-20.020,-43.457,0.000
1714025868.064,-28.320,-32.227,-23.438,-28.320,0.000
1714025868.068,-29.297,-33.691,-16.113,-25.391,0.000
1714025868.071,-37.109,-36.133,-13.184,-37.109,0.000
1714025868.077,-36.133,-34.180,-16.602,-41.504,0.000
1714025868.081,-32.715,-29.785,-15.625,-31.738,0.000
1714025868.085,-36.133,-33.203,-15.625,-24.902,0.000
1714025868.089,-37.109,-34.668,-15.137,-23.926,0.000
1714025868.093,-31.250,-28.320,-7.812,-27.832,0.000
1714025868.097,-34.668,-28.320,-7.324,-34.668,0.000
1714025868.100,-38.086,-28.809,-11.719,-30.762,0.000
1714025868.104,-31.738,-21.973,-5.371,-23.438,0.000
1714025868.108,-27.344,-24.902,-6.348,-21.484,0.000
1714025868.112,-29.785,-24.902,-13.184,-23.926,0.000
1714025868.116,-31.738,-26.855,-16.602,-25.391,0.000
1714025868.120,-27.344,-32.227,-17.578,-19.043,0.000
1714025868.124,-21.973,-28.320,-14.648,-18.555,0.000
1714025868.128,-25.879,-30.273,-14.648,-24.902,0.000
1714025868.132,-30.273,-28.320,-17.090,-27.344,0.000
1714025868.136,-28.320,-24.902,-14.648,-26.855,0.000
1714025868.140,-28.809,-26.855,-11.719,-24.414,0.000
1714025868.144,-36.621,-30.273,-18.555,-24.414,0.000
1714025868.148,-45.898,-37.109,-21.973,-32.715,0.000
1714025868.152,-36.621,-38.086,-22.461,-27.832,0.000
1714025868.156,-27.832,-36.621,-25.391,-17.090,0.000
1714025868.159,-33.203,-32.227,-19.531,-27.344,0.000
1714025868.163,-34.668,-34.180,-16.602,-30.273,0.000
1714025868.167,-31.250,-34.180,-26.855,-27.344,0.000
1714025868.171,-32.715,-29.297,-29.785,-31.250,0.000
1714025868.175,-33.691,-29.297,-24.414,-29.785,0.000
1714025868.179,-28.320,-35.645,-23.438,-28.809,0.000
1714025868.183,-24.414,-37.109,-24.414,-25.391,0.000
1714025868.186,-22.949,-37.109,-21.973,-23.926,0.000
1714025868.190,-25.879,-36.621,-18.555,-25.879,0.000
1714025868.194,-22.461,-31.250,-20.508,-28.320,0.000
1714025868.198,-25.391,-36.133,-24.414,-27.832,0.000
1714025868.202,-34.668,-39.062,-27.832,-26.367,0.000
1714025868.206,-30.273,-32.715,-26.367,-29.297,0.000
1714025868.210,-29.297,-33.203,-26.855,-30.273,0.000
1714025868.214,-30.762,-35.645,-24.902,-33.203,0.000
1714025868.217,-23.438,-32.227,-16.113,-24.902,0.000
1714025868.221,-24.902,-28.320,-20.508,-20.996,0.000
1714025868.225,-25.879,-26.367,-19.531,-24.414,0.000
1714025868.229,-22.949,-27.344,-15.137,-23.926,0.000
1714025868.233,-22.461,-26.855,-20.996,-21.973,0.000
1714025868.236,-23.438,-22.461,-21.973,-24.414,0.000
1714025868.240,-22.461,-22.949,-23.438,-27.832,0.000
1714025868.244,-15.625,-28.320,-28.809,-21.973,0.000
1714025868.248,-13.672,-28.809,-28.320,-27.344,0.000
1714025868.252,-13.184,-26.855,-27.344,-32.227,0.000
1714025868.256,-6.836,-25.879,-27.344,-29.785,0.000
1714025868.260,-3.418,-24.902,-21.973,-32.715,0.000
1714025868.263,-7.812,-24.902,-22.949,-35.645,0.000
1714025868.266,-3.906,-21.973,-24.414,-27.832,0.000
1714025868.270,-8.789,-25.391,-22.949,-23.926,0.000
1714025868.274,-22.949,-29.297,-21.484,-27.344,0.000
1714025868.278,-23.438,-25.391,-22.461,-26.855,0.000
1714025868.282,-27.832,-26.367,-26.367,-23.438,0.000
1714025868.286,-31.738,-31.738,-26.367,-18.555,0.000
1714025868.290,-29.297,-30.762,-22.949,-19.531,0.000
1714025868.294,-28.809,-22.461,-25.391,-25.879,0.000
1714025868.298,-17.090,-23.438,-32.227,-14.648,0.000
1714025868.302,-10.742,-28.320,-30.273,-4.883,0.000
1714025868.305,-31.738,-28.809,-22.949,-23.926,0.000
1714025868.308,-45.410,-33.203,-18.555,-35.645,0.000
1714025868.312,-41.504,-36.621,-21.484,-30.762,0.000
1714025868.316,-32.227,-35.645,-21.484,-20.996,0.000
1714025868.320,-39.551,-35.645,-15.625,-21.973,0.000
1714025868.324,-44.434,-34.668,-17.090,-25.391,0.000
1714025868.328,-39.062,-32.715,-20.996,-20.508,0.000
1714025868.331,-32.227,-30.273,-22.461,-9.766,0.000
1714025868.335,-36.621,-30.273,-23.926,-15.625,0.000
1714025868.339,-44.922,-32.227,-27.344,-28.320,0.000
1714025868.343,-41.992,-30.273,-27.344,-26.855,0.000
1714025868.347,-35.645,-26.855,-19.043,-23.926,0.000
1714025868.351,-31.250,-22.461,-13.672,-17.578,0.000
1714025868.359,-30.762,-22.949,-16.113,-18.555,0.000
1714025868.363,-32.227,-27.344,-23.926,-25.879,0.000
1714025868.366,-28.809,-26.855,-25.391,-21.973,0.000
1714025868.370,-28.320,-22.461,-20.020,-14.648,0.000
1714025868.374,-34.180,-25.879,-17.090,-20.996,0.000
1714025868.378,-29.297,-26.367,-15.625,-18.555,0.000
1714025868.382,-28.809,-28.320,-20.508,-16.113,0.000
1714025868.386,-34.668,-35.156,-18.555,-19.043,0.000
1714025868.390,-32.715,-36.133,-17.578,-20.020,0.000
1714025868.394,-30.273,-38.574,-27.832,-22.949,0.000
1714025868.398,-30.762,-38.086,-31.250,-24.414,0.000
1714025868.402,-28.809,-36.133,-31.738,-21.484,0.000
1714025868.407,-25.391,-33.691,-33.203,-22.949,0.000
1714025868.411,-27.344,-32.227,-33.203,-29.297,0.000
1714025868.415,-26.367,-34.668,-32.715,-26.855,0.000
1714025868.419,-23.438,-34.668,-33.203,-22.949,0.000
1714025868.423,-24.414,-32.715,-36.621,-20.020,0.000
1714025868.427,-23.926,-32.715,-36.621,-27.344,0.000
1714025868.431,-20.508,-29.785,-29.785,-28.809,0.000
1714025868.435,-24.902,-30.762,-31.250,-24.414,0.000
1714025868.438,-28.320,-31.250,-34.668,-25.391,0.000
1714025868.442,-30.762,-28.320,-39.551,-24.414,0.000
1714025868.446,-38.086,-27.344,-38.086,-26.855,0.000
1714025868.450,-37.598,-28.320,-32.715,-21.484,0.000
1714025868.454,-30.762,-30.273,-31.738,-13.184,0.000
1714025868.458,-26.855,-31.250,-30.273,-17.578,0.000
1714025868.462,-29.785,-28.809,-30.273,-28.320,0.000
1714025868.466,-27.832,-26.367,-23.926,-24.902,0.000
1714025868.470,-27.832,-27.832,-19.043,-20.020,0.000
1714025868.474,-29.297,-30.762,-21.484,-23.926,0.000
1714025868.478,-31.250,-30.762,-32.227,-31.738,0.000
1714025868.482,-33.691,-30.762,-31.738,-37.598,0.000
1714025868.486,-25.879,-31.250,-23.926,-31.250,0.000
1714025868.490,-25.391,-29.297,-25.879,-26.855,0.000
1714025868.493,-21.484,-25.391,-30.762,-27.344,0.000
1714025868.497,-21.484,-29.785,-34.180,-28.809,0.000
1714025868.501,-25.879,-33.203,-33.691,-31.738,0.000
1714025868.505,-23.438,-26.367,-28.809,-29.297,0.000
1714025868.509,-23.926,-21.484,-21.973,-29.297,0.000
1714025868.513,-20.996,-19.043,-21.484,-27.832,0.000
1714025868.517,-18.066,-20.508,-25.391,-19.531,0.000
1714025868.520,-20.996,-23.926,-27.344,-15.137,0.000
1714025868.524,-17.578,-19.043,-23.438,-18.066,0.000
1714025868.528,-15.137,-20.996,-21.484,-26.855,0.000
1714025868.532,-22.461,-30.273,-29.297,-26.367,0.000
1714025868.536,-29.297,-28.809,-28.320,-28.809,0.000
1714025868.540,-22.949,-26.855,-19.043,-25.879,0.000
1714025868.544,-20.508,-28.320,-15.137,-23.926,0.000
1714025868.547,-27.832,-27.832,-17.578,-24.902,0.000
1714025868.551,-24.902,-24.414,-20.996,-22.949,0.000
1714025868.555,-23.438,-27.832,-17.578,-17.090,0.000
1714025868.559,-29.785,-27.344,-13.184,-16.602,0.000
1714025868.563,-25.391,-21.484,-14.648,-18.066,0.000
1714025868.567,-20.020,-21.484,-18.555,-19.043,0.000
1714025868.571,-21.973,-24.902,-22.949,-22.949,0.000
1714025868.575,-25.879,-30.273,-26.367,-26.367,0.000
1714025868.578,-30.762,-32.715,-25.879,-30.762,0.000
1714025868.582,-34.180,-32.227,-24.902,-32.227,0.000
1714025868.586,-35.156,-29.785,-23.926,-26.855,0.000
1714025868.590,-35.645,-22.949,-22.461,-27.832,0.000
1714025868.593,-35.645,-20.508,-23.926,-30.762,0.000
1714025868.597,-42.480,-28.320,-24.414,-30.762,0.000
1714025868.601,-44.434,-32.715,-24.902,-35.156,0.000
1714025868.605,-39.551,-31.738,-24.414,-34.668,0.000
1714025868.608,-37.598,-33.691,-20.996,-38.574,0.000
1714025868.612,-39.551,-35.645,-22.461,-41.016,0.000
1714025868.616,-32.715,-32.715,-29.785,-27.344,0.000
1714025868.620,-31.738,-28.320,-26.855,-20.508,0.000
1714025868.624,-42.969,-28.320,-21.973,-28.809,0.000
1714025868.628,-38.574,-29.785,-24.414,-25.879,0.000
1714025868.632,-35.645,-30.762,-28.320,-22.461,0.000
1714025868.636,-41.992,-39.062,-27.832,-28.809,0.000
1714025868.638,-40.527,-41.504,-31.250,-30.273,0.000
1714025868.642,-38.086,-39.062,-38.574,-29.297,0.000
1714025868.646,-38.086,-36.621,-38.086,-26.367,0.000
1714025868.650,-32.227,-35.156,-32.715,-27.832,0.000
1714025868.654,-29.785,-34.668,-33.203,-36.621,0.000
1714025868.658,-35.645,-32.715,-36.621,-38.574,0.000
1714025868.662,-37.598,-29.785,-34.180,-30.762,0.000
1714025868.666,-35.645,-31.738,-30.273,-22.949,0.000
1714025868.669,-29.785,-29.785,-25.391,-22.949,0.000
1714025868.673,-26.367,-29.785,-26.855,-25.879,0.000
1714025868.677,-26.367,-32.715,-30.762,-23.438,0.000
1714025868.681,-25.391,-31.250,-24.414,-24.414,0.000
1714025868.683,-27.344,-26.367,-20.508,-25.391,0.000
1714025868.687,-28.320,-22.949,-24.902,-21.484,0.000
1714025868.691,-24.902,-25.879,-24.902,-21.484,0.000
1714025868.695,-22.949,-26.855,-21.484,-22.949,0.000
1714025868.699,-21.973,-26.855,-20.020,-21.973,0.000
1714025868.703,-24.414,-30.762,-20.996,-26.855,0.000
1714025868.707,-29.297,-30.273,-26.367,-25.391,0.000
1714025868.711,-27.832,-25.391,-23.438,-27.344,0.000
1714025868.715,-28.320,-23.926,-18.555,-26.855,0.000
1714025868.719,-31.738,-23.926,-23.438,-25.879,0.000
1714025868.723,-32.227,-27.832,-22.949,-32.227,0.000
1714025868.726,-37.109,-28.809,-19.531,-36.621,0.000
1714025868.734,-36.133,-26.855,-21.484,-28.809,0.000
1714025868.737,-31.738,-27.832,-23.926,-20.508,0.000
1714025868.741,-33.691,-21.973,-21.484,-26.855,0.000
1714025868.745,-30.762,-18.555,-22.461,-29.785,0.000
1714025868.749,-29.297,-27.344,-23.438,-33.203,0.000
1714025868.753,-27.832,-28.320,-23.438,-33.203,0.000
1714025868.757,-26.367,-22.949,-25.879,-30.273,0.000
1714025868.761,-34.180,-24.902,-26.367,-38.086,0.000
1714025868.765,-35.156,-25.879,-24.902,-41.992,0.000
1714025868.769,-29.297,-24.414,-23.926,-33.203,0.000
1714025868.773,-24.902,-21.484,-22.949,-27.832,0.000
1714025868.777,-18.066,-17.090,-21.973,-27.344,0.000
1714025868.782,-17.090,-20.020,-27.832,-27.832,0.000
1714025868.786,-18.066,-24.414,-28.809,-21.484,0.000
1714025868.790,-21.484,-24.902,-16.602,-24.414,0.000
1714025868.794,-20.020,-20.996,-16.113,-31.738,0.000
1714025868.798,-17.090,-23.926,-25.391,-34.180,0.000
1714025868.802,-19.531,-24.902,-26.855,-29.785,0.000
1714025868.806,-20.020,-21.973,-27.344,-23.438,0.000
1714025868.809,-19.043,-26.367,-26.367,-33.691,0.000
1714025868.813,-23.438,-33.203,-24.902,-39.062,0.000
1714025868.817,-26.855,-33.203,-25.391,-23.926,0.000
1714025868.821,-20.020,-27.344,-24.902,-18.555,0.000
1714025868.825,-21.484,-28.320,-25.391,-27.832,0.000
1714025868.829,-27.344,-31.738,-28.809,-33.203,0.000
1714025868.833,-16.602,-25.879,-22.461,-26.367,0.000
1714025868.837,-17.578,-23.926,-21.973,-20.020,0.000
1714025868.841,-26.855,-27.832,-30.273,-26.367,0.000
1714025868.845,-26.855,-25.391,-25.391,-33.691,0.000
1714025868.849,-26.367,-23.438,-15.625,-31.250,0.000
1714025868.853,-25.879,-23.438,-13.672,-23.926,0.000
1714025868.857,-26.855,-25.879,-16.113,-23.926,0.000
1714025868.861,-30.762,-30.762,-20.996,-31.250,0.000
1714025868.865,-34.180,-31.250,-21.484,-34.668,0.000
1714025868.868,-31.250,-26.855,-16.602,-31.250,0.000
1714025868.872,-30.762,-25.879,-18.555,-31.250,0.000
1714025868.876,-34.668,-29.785,-25.391,-40.527,0.000
1714025868.880,-31.738,-32.227,-27.832,-42.480,0.000
1714025868.884,-29.785,-28.320,-24.902,-36.133,0.000
1714025868.888,-31.250,-27.344,-25.391,-33.203,0.000
1714025868.892,-32.227,-31.250,-29.297,-31.250,0.000
1714025868.896,-27.832,-27.832,-30.273,-28.320,0.000
1714025868.899,-23.438,-23.926,-24.414,-22.949,0.000
1714025868.903,-25.391,-22.461,-19.531,-20.508,0.000
1714025868.907,-25.391,-25.391,-24.902,-20.508,0.000
1714025868.911,-24.902,-23.926,-21.973,-28.809,0.000
1714025868.915,-25.391,-22.461,-20.996,-37.109,0.000
1714025868.919,-25.391,-24.902,-29.297,-36.133,0.000
1714025868.922,-22.949,-20.996,-29.785,-30.273,0.000
1714025868.926,-27.344,-21.484,-29.785,-33.203,0.000
1714025868.930,-32.715,-26.855,-30.762,-40.039,0.000
1714025868.934,-36.133,-25.879,-33.203,-40.527,0.000
1714025868.938,-35.645,-25.391,-36.621,-34.180,0.000
1714025868.942,-31.250,-26.367,-31.250,-31.738,0.000
1714025868.946,-31.738,-21.973,-23.438,-32.715,0.000
1714025868.950,-30.273,-22.461,-28.809,-24.902,0.000
1714025868.953,-27.832,-22.949,-27.344,-23.438,0.000
1714025868.957,-26.367,-22.949,-19.043,-29.297,0.000
1714025868.961,-20.508,-22.949,-22.461,-21.484,0.000
1714025868.965,-20.508,-16.602,-27.344,-21.973,0.000
1714025868.973,-28.320,-21.973,-21.973,-29.785,0.000
1714025868.977,-28.320,-29.297,-19.531,-24.414,0.000
1714025868.981,-26.855,-25.879,-22.461,-23.926,0.000
1714025868.984,-26.367,-28.320,-25.879,-27.344,0.000
1714025868.988,-26.367,-26.855,-29.297,-25.879,0.000
1714025868.992,-25.391,-25.391,-28.320,-29.785,0.000
1714025868.996,-29.297,-29.297,-31.738,-36.133,0.000
1714025869.000,-30.762,-29.297,-31.738,-29.297,0.000
1714025869.004,-23.926,-27.344,-23.438,-18.555,0.000
1714025869.008,-18.555,-29.297,-27.344,-15.137,0.000
1714025869.012,-21.973,-27.344,-33.203,-26.367,0.000
1714025869.016,-35.645,-24.414,-30.273,-46.875,0.000
1714025869.016,-41.016,-28.809,-28.809,-47.852,0.000
1714025869.020,-37.109,-25.879,-30.273,-40.527,0.000
1714025869.024,-33.203,-20.996,-28.320,-39.062,0.000
1714025869.028,-36.621,-22.949,-27.344,-50.781,0.000
1714025869.032,-55.176,-21.973,-26.367,-64.941,0.000
1714025869.036,-59.082,-20.020,-20.508,-60.547,0.000
1714025869.040,-53.711,-34.668,-23.926,-56.152,0.000
1714025869.044,-54.688,-31.250,-32.227,-56.152,0.000
1714025869.048,-63.477,-26.855,-30.762,-65.430,0.000
1714025869.052,-63.965,-33.691,-25.391,-66.895,0.000
1714025869.055,-53.223,-28.809,-25.879,-50.781,0.000
1714025869.059,-62.988,-24.902,-17.578,-61.035,0.000
1714025869.061,-80.566,-28.809,-12.695,-85.449,0.000
1714025869.064,-85.938,-31.250,-14.648,-88.867,0.000
1714025869.068,-85.449,-35.156,-15.137,-83.008,0.000
1714025869.072,-76.172,-35.156,-14.648,-85.938,0.000
1714025869.076,-66.406,-32.715,-19.043,-89.355,0.000
1714025869.080,-68.359,-31.250,-23.926,-89.844,0.000
1714025869.084,-67.383,-29.785,-20.508,-81.543,0.000
1714025869.088,-65.430,-34.668,-11.230,-84.961,0.000
1714025869.092,-61.523,-39.062,-10.742,-84.961,0.000
1714025869.096,-56.641,-35.645,-12.695,-72.754,0.000
1714025869.100,-56.152,-33.203,-6.348,-62.012,0.000
1714025869.104,-50.293,-32.715,-3.418,-49.805,0.000
1714025869.105,-43.457,-31.250,-7.324,-49.805,0.000
1714025869.109,-47.852,-32.227,-17.090,-51.758,0.000
1714025869.113,-54.199,-30.273,-22.461,-45.898,0.000
1714025869.117,-54.199,-33.203,-18.555,-51.758,0.000
1714025869.121,-47.852,-35.645,-19.531,-52.246,0.000
1714025869.125,-44.434,-33.203,-28.320,-42.969,0.000
1714025869.128,-51.758,-37.598,-31.250,-45.410,0.000
1714025869.132,-54.199,-36.133,-27.832,-54.199,0.000
1714025869.136,-44.922,-30.762,-29.785,-46.387,0.000
1714025869.140,-43.457,-30.273,-31.738,-41.992,0.000
1714025869.144,-41.992,-31.738,-24.902,-40.039,0.000
1714025869.148,-39.062,-31.738,-22.461,-30.273,0.000
1714025869.155,-44.434,-28.809,-23.438,-27.832,0.000
1714025869.158,-35.645,-26.367,-22.461,-24.902,0.000
1714025869.162,-26.855,-23.438,-26.855,-27.832,0.000
1714025869.166,-40.039,-20.508,-25.391,-41.992,0.000
1714025869.170,-42.969,-17.090,-20.996,-36.133,0.000
1714025869.174,-47.363,-24.414,-21.484,-41.016,0.000
1714025869.178,-54.199,-30.762,-23.438,-49.805,0.000
1714025869.182,-54.199,-20.020,-31.250,-48.340,0.000
1714025869.186,-55.664,-26.855,-29.785,-46.387,0.000
1714025869.190,-55.664,-27.832,-20.020,-41.016,0.000
1714025869.194,-72.266,-15.625,-20.508,-61.035,0.000
1714025869.198,-71.777,-19.531,-27.344,-64.941,0.000
1714025869.203,-71.777,-19.043,-30.273,-58.594,0.000
1714025869.207,-94.727,-16.602,-25.391,-82.031,0.000
1714025869.211,-97.656,-21.973,-21.973,-95.215,0.000
1714025869.215,-98.145,-25.391,-15.625,-93.750,0.000
1714025869.219,-104.980,-33.203,-15.137,-95.215,0.000
1714025869.222,-104.980,-40.039,-14.160,-100.586,0.000
1714025869.226,-97.656,-37.109,-10.254,-93.750,0.000
1714025869.230,-93.750,-29.297,-15.137,-84.961,0.000
1714025869.234,-90.820,-25.391,-25.879,-79.590,0.000
1714025869.238,-83.496,-22.461,-23.926,-72.266,0.000
1714025869.242,-80.566,-20.508,-14.648,-73.242,0.000
1714025869.246,-67.383,-19.043,-19.043,-64.453,0.000
1714025869.250,-50.781,-22.461,-20.020,-48.340,0.000
1714025869.254,-39.551,-22.461,-15.137,-37.109,0.000
1714025869.258,-22.461,-24.902,-20.020,-26.367,0.000
1714025869.262,-15.625,-25.879,-32.227,-22.949,0.000
1714025869.265,-15.137,-22.461,-36.621,-19.531,0.000
1714025869.269,-14.160,-21.973,-34.668,-17.578,0.000
1714025869.273,-6.836,-18.066,-35.156,-13.184,0.000
1714025869.277,-1.465,-20.508,-36.133,-10.254,0.000
1714025869.281,-4.395,-21.484,-33.691,-4.395,0.000
1714025869.285,-5.371,-18.555,-31.250,5.859,0.000
1714025869.289,4.883,-24.414,-28.320,16.602,0.000
1714025869.293,8.789,-28.809,-30.273,6.348,0.000
1714025869.297,4.883,-26.855,-41.016,-8.301,0.000
1714025869.300,5.371,-25.879,-41.992,-5.371,0.000
1714025869.304,-2.930,-26.367,-41.992,-0.488,0.000
1714025869.308,-6.836,-23.926,-46.875,-3.418,0.000
1714025869.312,-1.465,-24.414,-41.504,-5.371,0.000
1714025869.316,3.418,-25.879,-37.109,-2.441,0.000
1714025869.320,15.137,-22.461,-37.109,5.371,0.000
1714025869.324,19.531,-22.949,-32.715,6.348,0.000
1714025869.328,22.461,-21.973,-31.738,9.277,0.000
1714025869.332,21.973,-18.066,-32.227,9.766,0.000
1714025869.336,12.695,-25.391,-32.227,5.859,0.000
1714025869.339,14.160,-21.973,-29.785,11.230,0.000
1714025869.342,19.043,-12.207,-29.297,14.160,0.000
1714025869.346,16.602,-16.113,-26.855,10.742,0.000
1714025869.350,15.625,-18.555,-26.367,14.160,0.000
1714025869.354,15.137,-16.113,-21.973,13.672,0.000
1714025869.358,12.695,-13.184,-22.461,6.348,0.000
1714025869.362,12.207,-13.672,-29.297,4.883,0.000
1714025869.366,7.812,-16.113,-29.785,5.859,0.000
1714025869.370,-3.418,-22.949,-34.668,1.465,0.000
1714025869.374,-0.488,-19.043,-32.227,-8.301,0.000
1714025869.378,3.418,-17.578,-24.902,-14.160,0.000
1714025869.381,0.488,-19.531,-24.414,-5.371,0.000
1714025869.385,-5.859,-24.414,-21.973,1.953,0.000
1714025869.388,-8.789,-25.879,-23.438,-3.418,0.000
1714025869.392,-7.812,-26.855,-28.809,-9.277,0.000
1714025869.396,-6.348,-28.809,-28.809,-3.418,0.000
1714025869.400,-9.766,-21.484,-29.297,-2.930,0.000
1714025869.404,-12.695,-23.438,-32.715,-13.184,0.000
1714025869.408,-9.766,-25.879,-35.156,-16.113,0.000
1714025869.412,-15.137,-23.926,-37.109,-14.160,0.000
1714025869.416,-18.555,-21.484,-36.133,-8.789,0.000
1714025869.419,-13.184,-14.160,-28.320,-3.906,0.000
1714025869.423,-12.207,-15.625,-31.250,-4.883,0.000
1714025869.427,-16.113,-23.926,-39.551,-14.160,0.000
1714025869.431,-20.996,-22.949,-38.086,-15.137,0.000
1714025869.433,-20.020,-21.484,-28.809,-9.766,0.000
1714025869.437,-15.137,-20.996,-30.273,-10.742,0.000
1714025869.441,-18.066,-17.578,-39.062,-16.602,0.000
1714025869.445,-21.484,-20.996,-36.621,-17.090,0.000
1714025869.449,-20.020,-27.832,-33.691,-14.160,0.000
1714025869.453,-22.461,-27.832,-38.086,-14.648,0.000
1714025869.457,-21.973,-27.344,-38.574,-17.578,0.000
1714025869.461,-22.461,-27.832,-34.668,-24.414,0.000
1714025869.465,-21.973,-21.973,-35.645,-26.367,0.000
1714025869.469,-18.066,-21.973,-33.691,-21.973,0.000
1714025869.472,-21.973,-24.902,-37.109,-23.926,0.000
1714025869.476,-22.461,-25.391,-35.645,-21.484,0.000
1714025869.479,-20.020,-24.414,-30.273,-21.484,0.000
1714025869.483,-17.578,-23.926,-36.133,-22.461,0.000
1714025869.486,-12.207,-25.879,-40.527,-19.531,0.000
1714025869.490,-10.742,-23.926,-33.203,-17.578,0.000
1714025869.494,-11.719,-24.414,-27.832,-14.160,0.000
1714025869.498,-10.254,-22.461,-35.156,-15.137,0.000
1714025869.502,-19.043,-20.996,-37.598,-23.438,0.000
1714025869.506,-22.949,-22.949,-37.109,-22.461,0.000
1714025869.510,-16.602,-25.391,-41.016,-15.625,0.000
1714025869.514,-17.578,-28.320,-43.945,-14.160,0.000
1714025869.518,-20.020,-26.367,-40.527,-17.578,0.000
1714025869.522,-18.066,-17.090,-30.762,-20.020,0.000
1714025869.529,-19.043,-18.555,-27.832,-10.254,0.000
1714025869.533,-17.578,-23.926,-32.227,-6.836,0.000
1714025869.537,-14.160,-22.461,-30.273,-6.836,0.000
1714025869.540,-18.555,-25.391,-24.902,-10.742,0.000
1714025869.544,-23.438,-25.391,-23.438,-12.207,0.000
1714025869.548,-23.926,-24.414,-30.762,-3.906,0.000
1714025869.552,-23.926,-22.461,-33.203,-2.930,0.000
1714025869.556,-21.973,-19.043,-26.855,-11.230,0.000
1714025869.560,-18.066,-20.020,-27.344,-12.207,0.000
1714025869.564,-21.484,-22.949,-29.785,-4.883,0.000
1714025869.568,-31.738,-25.879,-30.762,-11.230,0.000
1714025869.572,-29.785,-27.832,-30.762,-19.043,0.000
1714025869.577,-23.438,-24.902,-27.344,-18.555,0.000
1714025869.581,-22.949,-23.438,-29.297,-15.137,0.000
1714025869.585,-24.414,-23.926,-31.250,-11.230,0.000
1714025869.589,-23.926,-27.832,-26.855,-15.137,0.000
1714025869.593,-23.438,-28.809,-24.902,-17.578,0.000
1714025869.597,-26.855,-30.273,-22.949,-20.996,0.000
1714025869.600,-21.973,-30.273,-22.461,-18.555,0.000
1714025869.604,-7.324,-30.762,-29.785,-6.836,0.000
1714025869.608,0.000,-30.762,-37.598,-5.371,0.000
1714025869.612,-11.230,-24.902,-35.645,-14.160,0.000
1714025869.616,-29.785,-21.973,-35.645,-25.391,0.000
1714025869.620,-30.273,-22.949,-29.785,-24.902,0.000
1714025869.624,-22.461,-25.879,-24.414,-15.625,0.000
1714025869.628,-20.020,-30.762,-28.320,-16.602,0.000
1714025869.632,-21.484,-23.438,-27.832,-23.926,0.000
1714025869.636,-21.973,-20.996,-21.973,-24.902,0.000
1714025869.640,-20.996,-25.879,-21.973,-27.344,0.000
1714025869.644,-26.855,-27.832,-28.320,-26.855,0.000
1714025869.648,-26.367,-26.855,-25.391,-20.508,0.000
1714025869.652,-21.484,-20.996,-22.949,-21.973,0.000
1714025869.656,-21.484,-20.996,-30.762,-14.160,0.000
1714025869.659,-19.043,-20.996,-28.809,-16.602,0.000
1714025869.663,-14.648,-17.578,-23.438,-24.902,0.000
1714025869.667,-14.648,-20.508,-28.320,-22.461,0.000
1714025869.671,-18.066,-21.484,-31.250,-24.414,0.000
1714025869.675,-24.902,-17.090,-33.203,-28.320,0.000
1714025869.679,-25.879,-17.578,-31.738,-28.809,0.000
1714025869.682,-21.973,-20.020,-28.809,-26.367,0.000
1714025869.686,-17.578,-25.391,-27.344,-25.391,0.000
1714025869.690,-10.254,-19.531,-23.438,-22.949,0.000
1714025869.694,-9.277,-14.160,-19.043,-23.438,0.000
1714025869.698,-15.625,-17.578,-24.902,-23.438,0.000
1714025869.702,-20.996,-21.973,-25.879,-25.391,0.000
1714025869.706,-19.531,-25.879,-19.531,-28.320,0.000
1714025869.710,-18.555,-25.879,-20.508,-21.973,0.000
1714025869.714,-17.578,-27.832,-21.484,-17.578,0.000
1714025869.717,-8.789,-26.855,-18.066,-12.695,0.000
1714025869.721,-2.930,-24.414,-17.090,-8.789,0.000
1714025869.725,-6.348,-24.902,-24.902,-13.184,0.000
1714025869.728,-9.277,-26.367,-24.414,-22.461,0.000
1714025869.732,-13.184,-26.855,-16.602,-22.949,0.000
1714025869.736,-18.066,-29.785,-21.484,-22.461,0.000
1714025869.740,-22.949,-34.668,-31.250,-31.738,0.000
1714025869.744,-32.715,-41.016,-35.156,-36.133,0.000
1714025869.748,-31.738,-37.598,-29.297,-35.156,0.000
1714025869.752,-29.297,-36.621,-27.832,-33.203,0.000
1714025869.756,-33.691,-37.598,-29.297,-38.086,0.000
1714025869.760,-34.180,-34.180,-27.832,-36.133,0.000
1714025869.762,-28.809,-35.156,-24.414,-29.297,0.000
1714025869.766,-25.879,-32.227,-23.438,-25.391,0.000
1714025869.770,-26.855,-27.832,-21.484,-25.391,0.000
1714025869.774,-22.949,-22.949,-15.625,-27.344,0.000
1714025869.778,-20.020,-21.484,-18.555,-29.297,0.000
1714025869.782,-23.438,-32.227,-24.902,-32.715,0.000
1714025869.786,-27.832,-32.715,-26.367,-33.203,0.000
1714025869.790,-33.691,-32.227,-28.809,-34.668,0.000
1714025869.794,-30.762,-32.715,-28.809,-37.109,0.000
1714025869.798,-23.926,-26.367,-24.902,-33.691,0.000
1714025869.801,-26.367,-28.320,-26.855,-30.762,0.000
1714025869.805,-30.273,-29.297,-31.250,-33.691,0.000
1714025869.808,-30.762,-27.344,-30.273,-31.250,0.000
1714025869.812,-24.414,-21.973,-29.785,-22.461,0.000
1714025869.816,-23.926,-23.438,-28.320,-25.879,0.000
1714025869.820,-24.902,-24.902,-25.391,-30.762,0.000
1714025869.824,-19.531,-19.531,-26.855,-27.344,0.000
1714025869.827,-23.926,-20.020,-31.738,-21.973,0.000
1714025869.831,-31.250,-24.902,-38.574,-15.625,0.000
1714025869.835,-28.320,-23.438,-33.691,-24.414,0.000
1714025869.839,-31.250,-21.484,-29.297,-40.039,0.000
1714025869.843,-39.062,-22.949,-31.250,-41.504,0.000
1714025869.847,-39.551,-21.973,-32.227,-39.062,0.000
1714025869.851,-35.156,-21.973,-27.344,-33.203,0.000
1714025869.853,-25.391,-23.438,-21.484,-26.855,0.000
1714025869.857,-20.508,-22.461,-23.926,-26.855,0.000
1714025869.861,-27.344,-22.949,-27.344,-28.320,0.000
1714025869.865,-22.461,-28.809,-27.344,-24.902,0.000
1714025869.869,-21.973,-30.762,-26.855,-28.320,0.000
1714025869.873,-27.832,-30.273,-26.855,-33.203,0.000
1714025869.877,-26.367,-27.832,-27.344,-30.762,0.000
1714025869.880,-27.832,-21.973,-20.996,-29.785,0.000
1714025869.884,-31.250,-21.484,-18.066,-28.809,0.000
1714025869.888,-29.297,-24.414,-23.926,-29.785,0.000
1714025869.892,-31.738,-27.344,-23.438,-30.762,0.000
1714025869.896,-38.086,-29.785,-21.484,-34.180,0.000
1714025869.903,-36.133,-30.273,-24.902,-33.691,0.000
1714025869.907,-32.227,-25.879,-24.414,-29.297,0.000
1714025869.911,-26.367,-24.902,-22.949,-31.738,0.000
1714025869.915,-26.367,-28.320,-23.926,-28.809,0.000
1714025869.919,-31.250,-28.320,-21.484,-27.832,0.000
1714025869.923,-29.785,-26.855,-21.484,-32.227,0.000
1714025869.927,-23.438,-30.273,-23.438,-30.762,0.000
1714025869.931,-17.578,-27.832,-19.531,-30.273,0.000
1714025869.935,-12.695,-22.461,-18.066,-32.715,0.000
1714025869.938,-3.906,-17.578,-19.043,-28.809,0.000
1714025869.942,-2.441,-15.625,-16.602,-33.203,0.000
1714025869.946,-12.695,-20.020,-22.461,-32.227,0.000
1714025869.952,-18.555,-24.902,-25.879,-26.367,0.000
1714025869.956,-23.438,-24.902,-21.484,-28.320,0.000
1714025869.960,-28.320,-24.414,-20.996,-31.250,0.000
1714025869.964,-33.203,-26.367,-24.902,-35.156,0.000
1714025869.968,-35.156,-22.949,-21.484,-28.809,0.000
1714025869.972,-35.156,-18.555,-20.508,-26.367,0.000
1714025869.975,-33.691,-23.926,-21.973,-30.762,0.000
1714025869.979,-31.738,-29.785,-23.438,-35.156,0.000
1714025869.983,-34.668,-31.738,-26.367,-34.668,0.000
1714025869.987,-39.062,-29.785,-23.926,-31.250,0.000
1714025869.991,-35.645,-28.809,-17.578,-32.715,0.000
1714025869.995,-36.621,-25.879,-18.555,-33.691,0.000
1714025869.999,-37.109,-24.902,-21.973,-37.598,0.000
1714025870.003,-38.574,-24.902,-14.648,-40.527,0.000
1714025870.007,-45.898,-25.391,-9.277,-53.711,0.000
1714025870.011,-45.410,-26.855,-17.090,-62.012,0.000
1714025870.015,-34.180,-31.250,-20.996,-41.016,0.000
1714025870.019,-29.785,-33.691,-17.090,-26.367,0.000
1714025870.023,-45.898,-25.391,-19.043,-41.992,0.000
1714025870.027,-56.641,-28.320,-15.625,-56.641,0.000
1714025870.031,-64.453,-30.762,-9.277,-62.012,0.000
1714025870.034,-88.379,-29.785,-7.812,-81.055,0.000
1714025870.038,-94.727,-28.809,-6.348,-88.379,0.000
1714025870.042,-102.051,-23.438,-3.418,-103.516,0.000
1714025870.046,-120.605,-34.180,0.977,-123.047,0.000
1714025870.050,-116.699,-35.156,3.906,-116.211,0.000
1714025870.053,-120.605,-27.832,1.953,-123.047,0.000
1714025870.057,-147.461,-27.832,5.371,-152.344,0.000
1714025870.061,-154.785,-24.902,11.719,-164.551,0.000
1714025870.065,-159.668,-23.438,8.789,-170.410,0.000
1714025870.069,-160.645,-20.020,8.789,-166.504,0.000
1714025870.073,-147.949,-21.973,9.766,-151.855,0.000
1714025870.077,-161.133,-23.926,9.766,-164.551,0.000
1714025870.081,-164.551,-20.020,11.719,-171.875,0.000
1714025870.085,-145.508,-13.184,9.766,-153.809,0.000
1714025870.089,-138.184,-11.719,2.930,-148.438,0.000
1714025870.092,-134.277,-13.672,-3.906,-146.973,0.000
1714025870.096,-125.977,-11.230,-3.906,-131.348,0.000
1714025870.100,-124.512,-10.254,-1.465,-127.441,0.000
1714025870.103,-113.770,-12.207,-9.277,-115.234,0.000
1714025870.107,-104.004,-12.695,-22.461,-104.492,0.000
1714025870.111,-97.168,-9.277,-32.715,-99.609,0.000
1714025870.115,-80.566,-10.254,-41.016,-78.125,0.000
1714025870.119,-88.379,-13.184,-44.434,-74.219,0.000
1714025870.123,-95.215,-7.812,-42.480,-88.867,0.000
1714025870.127,-69.336,-1.953,-48.340,-71.777,0.000
1714025870.131,-50.293,-1.465,-56.152,-53.711,0.000
1714025870.135,-55.664,-5.371,-54.688,-59.570,0.000
1714025870.138,-47.363,-13.184,-57.617,-53.223,0.000
1714025870.142,-33.203,-12.695,-60.547,-44.434,0.000
1714025870.146,-31.250,-9.766,-64.941,-52.246,0.000
1714025870.149,-22.949,-6.836,-61.523,-45.898,0.000
1714025870.153,-19.043,-6.348,-61.035,-39.062,0.000
1714025870.157,-20.020,-10.742,-66.895,-44.434,0.000
1714025870.161,-11.719,-11.230,-67.871,-31.738,0.000
1714025870.165,-3.906,-8.789,-66.406,-20.996,0.000
1714025870.169,0.000,-5.859,-61.523,-22.949,0.000
1714025870.173,2.930,-8.301,-64.941,-22.461,0.000
1714025870.177,0.488,-14.160,-69.824,-22.949,0.000
1714025870.181,-0.977,-11.230,-66.406,-19.043,0.000
1714025870.183,0.000,-12.695,-63.965,-7.812,0.000
1714025870.187,-3.906,-20.020,-58.594,-9.277,0.000
1714025870.191,-3.906,-19.043,-60.059,-11.230,0.000
1714025870.195,-0.977,-15.625,-57.129,-9.766,0.000
1714025870.199,-3.906,-19.531,-52.734,-13.184,0.000
1714025870.203,-4.883,-19.043,-54.199,-17.090,0.000
1714025870.207,-3.418,-20.020,-56.641,-13.184,0.000
1714025870.211,-5.371,-14.648,-54.688,-11.719,0.000
1714025870.215,0.000,-7.324,-49.805,-5.371,0.000
1714025870.219,-2.441,-13.672,-52.246,-11.719,0.000
1714025870.222,-8.789,-20.996,-46.875,-15.625,0.000
1714025870.226,-10.742,-19.531,-43.945,-6.348,0.000
1714025870.228,-3.418,-14.648,-42.969,-0.488,0.000
1714025870.232,5.371,-12.695,-45.898,0.488,0.000
1714025870.236,2.441,-17.090,-50.781,-4.883,0.000
1714025870.240,-1.953,-23.438,-44.434,-2.930,0.000
1714025870.244,-5.371,-23.438,-40.039,0.488,0.000
1714025870.248,-2.930,-19.531,-37.598,0.488,0.000
1714025870.252,-0.977,-18.066,-34.668,-5.371,0.000
1714025870.256,-3.906,-18.066,-35.645,-13.672,0.000
1714025870.260,-2.930,-13.184,-33.203,-5.371,0.000
1714025870.264,-4.883,-13.672,-36.621,-1.953,0.000
1714025870.268,-4.395,-18.555,-43.457,-6.836,0.000
1714025870.271,-5.371,-19.531,-45.410,-10.742,0.000
1714025870.278,-12.207,-20.020,-43.945,-14.160,0.000
1714025870.282,-13.184,-19.531,-38.574,-13.184,0.000
1714025870.286,-9.766,-17.578,-36.133,-12.695,0.000
1714025870.290,-10.254,-14.160,-35.156,-19.043,0.000
1714025870.294,-13.672,-14.160,-29.297,-20.996,0.000
1714025870.298,-16.602,-15.137,-26.367,-19.531,0.000
1714025870.302,-21.484,-14.648,-29.785,-27.832,0.000
1714025870.306,-27.344,-17.578,-31.250,-36.133,0.000
1714025870.310,-24.902,-21.484,-38.086,-35.156,0.000
1714025870.314,-23.926,-25.879,-40.527,-27.832,0.000
1714025870.318,-29.297,-27.344,-28.809,-31.738,0.000
1714025870.321,-28.809,-21.484,-22.461,-27.344,0.000
1714025870.327,-23.438,-13.184,-25.879,-20.508,0.000
1714025870.331,-23.926,-18.555,-21.973,-20.508,0.000
1714025870.335,-24.414,-19.531,-4.883,-18.066,0.000
1714025870.339,-31.250,-13.672,-11.230,-29.297,0.000
1714025870.343,-41.504,-20.996,-26.367,-38.086,0.000
1714025870.346,-52.246,-34.668,-27.344,-49.316,0.000
1714025870.350,-64.941,-41.016,-23.438,-64.941,0.000
1714025870.354,-74.219,-35.156,-21.484,-72.266,0.000
1714025870.358,-84.961,-33.203,-21.484,-80.566,0.000
1714025870.362,-97.656,-24.902,-18.066,-90.332,0.000
1714025870.366,-98.145,-22.461,-16.113,-94.727,0.000
1714025870.370,-112.305,-26.367,-13.184,-108.887,0.000
1714025870.374,-132.324,-20.020,-0.488,-130.371,0.000
1714025870.378,-134.277,-14.648,7.324,-140.137,0.000
1714025870.382,-143.555,-14.160,14.648,-149.902,0.000
1714025870.386,-146.973,-18.066,19.531,-154.297,0.000
1714025870.390,-139.648,-15.625,18.066,-151.367,0.000
1714025870.394,-138.184,-7.324,17.578,-145.996,0.000
1714025870.398,-124.512,-6.836,14.648,-138.184,0.000
1714025870.402,-111.328,-9.766,12.695,-122.070,0.000
1714025870.406,-103.516,-5.371,10.254,-102.539,0.000
1714025870.410,-90.332,-10.254,-2.441,-94.727,0.000
1714025870.413,-84.961,-16.113,-6.836,-88.867,0.000
1714025870.417,-79.102,-15.625,0.977,-81.055,0.000
1714025870.421,-61.523,-20.020,-2.441,-74.707,0.000
1714025870.425,-46.875,-23.926,-8.789,-69.824,0.000
1714025870.429,-33.691,-20.996,-20.508,-50.781,0.000
1714025870.433,-21.973,-21.484,-27.344,-30.273,0.000
1714025870.436,-22.949,-30.273,-30.762,-31.250,0.000
1714025870.440,-21.484,-35.645,-41.992,-27.344,0.000
1714025870.444,-12.695,-39.062,-39.551,-20.996,0.000
1714025870.448,-11.719,-43.945,-40.039,-13.672,0.000
1714025870.452,-7.324,-40.527,-44.434,0.000,0.000
1714025870.456,2.930,-34.668,-35.156,5.859,0.000
1714025870.460,1.953,-37.598,-35.645,1.953,0.000
1714025870.464,2.441,-42.480,-43.457,-2.930,0.000
1714025870.467,4.395,-38.574,-38.086,4.395,0.000
1714025870.471,11.719,-35.156,-35.156,11.230,0.000
1714025870.475,21.973,-34.668,-41.016,15.137,0.000
1714025870.479,20.020,-35.645,-50.781,15.137,0.000
1714025870.483,17.578,-41.504,-55.664,14.648,0.000
1714025870.487,19.531,-41.992,-54.199,11.719,0.000
1714025870.490,19.531,-34.180,-52.246,13.672,0.000
1714025870.494,17.090,-32.715,-52.734,24.414,0.000
1714025870.498,23.926,-31.738,-46.875,31.250,0.000
1714025870.502,26.855,-28.809,-48.340,33.691,0.000
1714025870.506,20.508,-26.855,-55.664,29.785,0.000
1714025870.510,17.090,-27.832,-57.129,24.902,0.000
1714025870.513,17.578,-26.367,-54.199,20.996,0.000
1714025870.516,16.113,-21.973,-50.293,22.461,0.000
1714025870.520,11.230,-25.391,-52.246,23.438,0.000
1714025870.524,9.766,-30.273,-55.176,14.160,0.000
1714025870.528,7.812,-29.297,-57.617,11.719,0.000
1714025870.532,12.695,-30.762,-57.129,13.184,0.000
1714025870.536,13.184,-34.180,-51.758,12.207,0.000
1714025870.540,11.719,-31.738,-49.316,10.254,0.000
1714025870.544,11.230,-29.785,-44.434,0.977,0.000
1714025870.548,8.789,-28.809,-43.945,4.883,0.000
1714025870.552,9.277,-23.926,-44.434,10.254,0.000
1714025870.556,8.301,-22.461,-40.039,2.930,0.000
1714025870.558,6.348,-20.508,-41.016,1.465,0.000
1714025870.562,6.836,-18.066,-36.133,7.324,0.000
1714025870.566,10.254,-19.531,-32.715,5.371,0.000
1714025870.570,3.906,-22.461,-34.668,-1.465,0.000
1714025870.574,0.000,-21.973,-37.598,1.953,0.000
1714025870.578,0.488,-25.879,-37.598,5.371,0.000
1714025870.581,-6.836,-31.738,-36.621,7.812,0.000
1714025870.585,-13.672,-28.809,-31.250,0.000,0.000
1714025870.589,-11.230,-22.949,-37.598,-5.859,0.000
1714025870.593,-8.301,-23.926,-39.551,-0.488,0.000
1714025870.597,-1.465,-22.949,-28.320,3.418,0.000
1714025870.601,2.930,-20.020,-32.715,6.348,0.000
1714025870.603,-7.324,-24.414,-41.016,-0.977,0.000
1714025870.607,-8.301,-30.273,-42.969,-8.789,0.000
1714025870.611,-9.277,-31.250,-41.016,-10.742,0.000
1714025870.615,-13.184,-26.855,-40.039,-4.395,0.000
1714025870.619,-12.207,-25.879,-35.156,-1.953,0.000
1714025870.623,-10.254,-22.461,-32.715,-1.953,0.000
1714025870.627,-10.742,-21.973,-28.320,3.418,0.000
1714025870.631,-13.184,-26.855,-20.508,-2.441,0.000
1714025870.635,-12.695,-25.879,-22.949,-6.836,0.000
1714025870.639,-14.160,-22.461,-30.273,-10.254,0.000
1714025870.642,-22.949,-24.902,-33.691,-19.531,0.000
1714025870.646,-26.367,-28.320,-28.320,-24.414,0.000
1714025870.653,-22.949,-29.785,-26.367,-19.531,0.000
1714025870.657,-17.090,-21.973,-21.973,-13.672,0.000
1714025870.661,-15.625,-18.066,-18.555,-17.578,0.000
1714025870.665,-15.625,-21.973,-22.461,-20.996,0.000
1714025870.669,-14.648,-25.879,-25.879,-20.020,0.000
1714025870.673,-20.020,-29.297,-31.250,-24.414,0.000
1714025870.677,-21.973,-26.367,-28.809,-26.367,0.000
1714025870.681,-18.066,-20.508,-24.902,-19.531,0.000
1714025870.685,-20.508,-20.996,-22.949,-15.137,0.000
1714025870.689,-22.461,-25.391,-25.391,-14.160,0.000
1714025870.692,-21.973,-26.367,-25.879,-24.902,0.000
1714025870.696,-18.555,-23.438,-20.020,-22.461,0.000
1714025870.702,-21.484,-20.020,-27.832,-19.043,0.000
1714025870.706,-23.926,-19.043,-32.227,-22.949,0.000
1714025870.710,-20.508,-22.461,-30.273,-25.391,0.000
1714025870.714,-17.578,-22.949,-33.691,-25.391,0.000
1714025870.717,-11.719,-22.949,-29.297,-25.391,0.000
1714025870.721,-5.859,-24.902,-25.879,-26.367,0.000
1714025870.725,-6.348,-24.902,-29.297,-26.367,0.000
1714025870.729,-4.395,-20.020,-28.320,-26.855,0.000
1714025870.733,-5.371,-19.531,-27.344,-15.137,0.000
1714025870.737,-13.184,-23.926,-26.855,-11.230,0.000
1714025870.741,-19.531,-22.461,-27.832,-19.531,0.000
1714025870.745,-23.926,-28.320,-33.203,-22.949,0.000
1714025870.750,-28.320,-30.762,-33.203,-26.367,0.000
1714025870.753,-27.832,-24.902,-26.855,-25.879,0.000
1714025870.757,-25.879,-28.320,-25.879,-28.809,0.000
1714025870.761,-24.414,-32.715,-30.762,-25.879,0.000
1714025870.765,-20.020,-31.738,-37.598,-20.996,0.000
1714025870.769,-18.555,-29.297,-30.273,-21.484,0.000
1714025870.773,-26.367,-29.297,-24.902,-25.391,0.000
1714025870.777,-22.949,-35.156,-25.879,-15.137,0.000
1714025870.781,-14.648,-34.180,-28.320,1.465,0.000
1714025870.785,-42.969,-28.320,-33.203,-29.785,0.000
1714025870.789,-52.246,-23.438,-32.227,-46.875,0.000
1714025870.793,-36.133,-21.484,-32.715,-34.180,0.000
1714025870.796,-43.945,-23.926,-36.133,-41.504,0.000
1714025870.800,-58.105,-28.809,-40.527,-57.129,0.000
1714025870.804,-53.223,-31.738,-41.992,-56.641,0.000
1714025870.808,-46.875,-25.391,-37.598,-49.805,0.000
1714025870.812,-50.781,-25.391,-36.621,-52.734,0.000
1714025870.816,-48.828,-28.809,-40.527,-46.875,0.000
1714025870.820,-40.527,-27.344,-39.062,-41.992,0.000
1714025870.824,-36.621,-25.879,-40.039,-43.457,0.000
1714025870.828,-35.645,-20.020,-43.457,-37.598,0.000
1714025870.831,-31.738,-20.508,-37.598,-34.668,0.000
1714025870.835,-30.273,-21.973,-27.832,-34.180,0.000
1714025870.839,-35.645,-25.391,-29.297,-36.621,0.000
1714025870.842,-36.621,-25.391,-35.645,-38.086,0.000
1714025870.846,-31.738,-20.020,-31.738,-36.621,0.000
1714025870.850,-31.250,-21.973,-26.855,-36.621,0.000
1714025870.854,-30.273,-23.438,-27.344,-38.086,0.000
1714025870.858,-28.809,-15.137,-25.879,-40.527,0.000
1714025870.862,-29.297,-17.090,-20.996,-37.109,0.000
1714025870.866,-19.531,-20.508,-17.578,-30.273,0.000
1714025870.870,-14.160,-20.508,-23.438,-23.926,0.000
1714025870.873,-21.484,-22.949,-20.020,-25.879,0.000
1714025870.877,-23.438,-21.973,-15.137,-28.320,0.000
1714025870.881,-22.949,-24.414,-22.461,-27.832,0.000
1714025870.885,-26.367,-22.949,-22.461,-25.879,0.000
1714025870.888,-20.508,-17.090,-21.973,-25.879,0.000
1714025870.892,-16.602,-18.066,-25.879,-29.785,0.000
1714025870.895,-21.484,-23.438,-27.344,-36.133,0.000
1714025870.899,-25.391,-23.926,-28.809,-39.062,0.000
1714025870.903,-25.391,-20.508,-36.133,-41.992,0.000
1714025870.907,-19.531,-15.137,-41.504,-37.598,0.000
1714025870.911,-20.996,-16.602,-32.227,-26.367,0.000
1714025870.915,-23.926,-21.484,-29.785,-22.461,0.000
1714025870.919,-26.855,-16.602,-29.297,-28.320,0.000
1714025870.923,-30.273,-14.648,-24.902,-35.156,0.000
1714025870.927,-31.738,-18.555,-30.762,-41.992,0.000
1714025870.931,-32.715,-18.555,-34.180,-43.945,0.000
1714025870.933,-35.156,-21.484,-36.133,-42.480,0.000
1714025870.937,-34.180,-24.902,-39.062,-39.551,0.000
1714025870.941,-27.344,-20.020,-36.621,-38.086,0.000
1714025870.945,-26.855,-20.020,-34.180,-35.645,0.000
1714025870.949,-29.785,-23.438,-35.156,-32.227,0.000
1714025870.953,-30.762,-28.320,-43.945,-28.809,0.000
1714025870.956,-30.762,-25.391,-48.828,-25.879,0.000
1714025870.960,-25.879,-17.090,-42.969,-31.250,0.000
1714025870.964,-23.438,-22.949,-38.574,-34.180,0.000
1714025870.968,-27.832,-25.391,-39.062,-31.738,0.000
1714025870.972,-30.273,-21.484,-37.109,-27.344,0.000
1714025870.976,-29.297,-24.902,-36.133,-27.832,0.000
1714025870.978,-28.809,-25.391,-38.574,-29.297,0.000
1714025870.982,-32.715,-28.320,-39.551,-28.809,0.000
1714025870.986,-36.621,-28.320,-36.621,-34.180,0.000
1714025870.990,-31.738,-24.414,-31.738,-41.992,0.000
1714025870.994,-32.715,-18.066,-30.273,-37.109,0.000
1714025870.998,-30.762,-19.531,-33.203,-30.762,0.000
1714025871.002,-28.320,-26.855,-37.109,-33.203,0.000
1714025871.006,-27.344,-24.902,-32.715,-31.250,0.000
1714025871.009,-27.344,-24.902,-31.738,-27.832,0.000
1714025871.013,-32.227,-28.809,-36.133,-23.438,0.000
1714025871.017,-27.832,-28.809,-32.227,-20.020,0.000
1714025871.021,-26.367,-30.762,-28.320,-25.391,0.000
1714025871.028,-30.762,-25.879,-32.715,-20.508,0.000
1714025871.032,-26.855,-20.508,-38.086,-16.113,0.000
1714025871.036,-28.320,-24.902,-29.785,-20.508,0.000
1714025871.040,-34.180,-27.832,-30.762,-28.320,0.000
1714025871.044,-30.273,-25.879,-39.062,-27.344,0.000
1714025871.048,-27.832,-27.832,-36.133,-23.438,0.000
1714025871.052,-28.809,-25.879,-24.902,-21.484,0.000
1714025871.056,-27.344,-19.043,-17.578,-20.020,0.000
1714025871.060,-21.973,-20.996,-21.484,-15.625,0.000
1714025871.064,-20.020,-20.508,-18.555,-3.418,0.000
1714025871.067,-23.438,-19.043,-16.602,-9.277,0.000
1714025871.071,-25.391,-22.949,-27.344,-24.414,0.000
1714025871.077,-27.832,-28.320,-35.645,-32.227,0.000
1714025871.081,-29.297,-30.273,-37.109,-32.715,0.000
1714025871.085,-24.902,-30.762,-33.203,-31.250,0.000
1714025871.088,-23.438,-28.320,-27.832,-27.344,0.000
1714025871.092,-22.949,-27.832,-30.762,-20.508,0.000
1714025871.096,-20.020,-28.320,-31.738,-17.090,0.000
1714025871.100,-27.344,-24.414,-27.344,-21.973,0.000
1714025871.104,-32.715,-19.043,-27.344,-28.320,0.000
1714025871.108,-21.484,-21.484,-34.180,-25.879,0.000
1714025871.112,-25.391,-26.855,-35.645,-23.438,0.000
1714025871.116,-37.598,-31.738,-28.320,-27.832,0.000
1714025871.120,-30.762,-26.367,-26.367,-24.414,0.000
1714025871.129,-33.691,-23.438,-22.461,-28.809,0.000
1714025871.133,-36.621,-27.344,-22.949,-32.715,0.000
1714025871.137,-22.461,-23.926,-23.926,-19.531,0.000
1714025871.141,-23.926,-24.902,-19.043,-18.066,0.000
1714025871.145,-29.297,-26.855,-21.973,-24.902,0.000
1714025871.149,-29.785,-22.461,-23.926,-27.344,0.000
1714025871.153,-30.762,-18.555,-24.414,-28.320,0.000
1714025871.156,-25.391,-25.391,-19.531,-17.578,0.000
1714025871.160,-20.508,-30.762,-20.508,-6.348,0.000
1714025871.164,-23.438,-23.438,-24.902,-20.508,0.000
1714025871.168,-27.344,-23.438,-20.020,-31.250,0.000
1714025871.172,-30.273,-22.461,-16.602,-30.273,0.000
1714025871.174,-37.109,-19.531,-21.484,-34.180,0.000
1714025871.178,-38.086,-23.926,-22.461,-35.156,0.000
1714025871.182,-36.133,-26.367,-23.438,-32.227,0.000
1714025871.186,-41.016,-24.414,-24.902,-29.297,0.000
1714025871.190,-39.551,-25.391,-20.996,-29.297,0.000
1714025871.193,-31.250,-26.367,-19.531,-33.203,0.000
1714025871.197,-32.227,-24.902,-24.414,-36.621,0.000
1714025871.201,-34.668,-21.973,-27.832,-32.227,0.000
1714025871.205,-34.180,-26.367,-20.508,-28.809,0.000
1714025871.209,-35.156,-24.902,-20.508,-35.156,0.000
1714025871.213,-31.250,-22.949,-24.414,-40.527,0.000
1714025871.217,-27.344,-31.250,-24.414,-30.273,0.000
1714025871.219,-31.250,-28.809,-26.367,-29.297,0.000
1714025871.223,-29.297,-21.484,-29.297,-35.156,0.000
1714025871.227,-25.879,-16.602,-30.762,-29.297,0.000
1714025871.231,-27.832,-16.113,-29.785,-35.156,0.000
1714025871.234,-25.391,-18.555,-21.484,-36.621,0.000
1714025871.238,-30.762,-26.367,-19.531,-33.691,0.000
1714025871.242,-38.086,-28.320,-21.973,-38.574,0.000
1714025871.246,-40.527,-27.344,-23.438,-35.156,0.000
1714025871.250,-43.457,-32.227,-24.902,-39.551,0.000
1714025871.254,-43.457,-31.250,-26.855,-50.781,0.000
1714025871.258,-40.039,-28.320,-29.785,-46.387,0.000
1714025871.262,-41.504,-24.902,-26.367,-41.504,0.000
1714025871.264,-39.551,-19.531,-23.438,-36.621,0.000
1714025871.268,-37.598,-21.484,-22.949,-27.832,0.000
1714025871.272,-36.133,-24.414,-25.391,-26.367,0.000
1714025871.276,-33.691,-25.391,-28.320,-27.344,0.000
1714025871.279,-31.250,-27.344,-25.879,-26.855,0.000
1714025871.283,-32.227,-29.297,-23.438,-29.297,0.000
1714025871.287,-30.273,-24.902,-29.785,-29.785,0.000
1714025871.291,-13.184,-12.695,-33.203,-17.578,0.000
1714025871.295,-3.418,-12.207,-25.391,-10.742,0.000
1714025871.299,-31.738,-23.438,-16.602,-31.250,0.000
1714025871.303,-48.340,-20.508,-5.859,-42.480,0.000
1714025871.307,-32.227,-17.578,-6.348,-34.668,0.000
1714025871.309,-31.738,-26.855,-12.695,-39.551,0.000
1714025871.313,-42.480,-31.738,-6.836,-40.039,0.000
1714025871.317,-51.758,-38.574,-18.066,-44.922,0.000
1714025871.321,-57.617,-35.645,-18.555,-56.152,0.000
1714025871.325,-64.941,-37.598,-7.324,-67.383,0.000
1714025871.329,-79.590,-48.828,-11.719,-74.219,0.000
1714025871.333,-87.402,-51.270,-16.113,-66.895,0.000
1714025871.337,-91.309,-46.875,-5.371,-71.289,0.000
1714025871.340,-102.539,-44.922,8.789,-89.844,0.000
1714025871.344,-107.422,-39.551,16.113,-93.262,0.000
1714025871.348,-101.562,-38.574,15.625,-83.008,0.000
1714025871.352,-103.516,-44.434,24.902,-81.055,0.000
1714025871.354,-113.770,-40.039,36.621,-93.750,0.000
1714025871.358,-105.957,-38.086,29.297,-89.844,0.000
1714025871.362,-98.633,-45.410,30.273,-76.172,0.000
1714025871.366,-102.051,-50.293,37.109,-79.590,0.000
1714025871.370,-81.055,-53.223,35.645,-66.895,0.000
1714025871.374,-63.965,-49.805,27.832,-48.340,0.000
1714025871.378,-59.082,-49.805,20.020,-41.016,0.000
1714025871.381,-34.180,-48.828,21.973,-19.043,0.000
1714025871.385,-24.414,-47.852,15.137,-15.625,0.000
1714025871.389,-18.066,-48.828,2.930,-17.578,0.000
1714025871.393,0.488,-47.852,-2.930,-3.418,0.000
1714025871.397,1.465,-45.410,-10.742,-3.906,0.000
1714025871.404,2.930,-45.898,-16.113,-0.977,0.000
1714025871.408,21.484,-46.875,-16.602,16.113,0.000
1714025871.412,35.645,-44.434,-15.137,36.621,0.000
1714025871.416,38.086,-47.363,-20.508,42.480,0.000
1714025871.420,42.969,-42.969,-33.203,39.551,0.000
1714025871.424,44.434,-39.062,-36.133,36.133,0.000
1714025871.428,45.898,-35.156,-34.180,35.156,0.000
1714025871.431,44.434,-33.203,-41.504,30.273,0.000
1714025871.435,41.992,-34.668,-45.410,30.273,0.000
1714025871.439,39.551,-33.691,-41.992,31.250,0.000
1714025871.443,34.668,-31.738,-37.109,20.508,0.000
1714025871.447,39.062,-24.414,-40.527,26.367,0.000
1714025871.452,46.875,-23.438,-41.992,35.645,0.000
1714025871.456,46.387,-27.344,-40.527,34.180,0.000
1714025871.460,45.898,-30.762,-45.898,32.715,0.000
1714025871.464,44.434,-30.762,-41.992,30.762,0.000
1714025871.468,32.715,-32.227,-43.945,25.391,0.000
1714025871.472,26.855,-36.133,-52.246,21.484,0.000
1714025871.476,24.414,-34.180,-45.898,17.578,0.000
1714025871.480,17.578,-34.180,-40.039,15.137,0.000
1714025871.484,16.113,-38.574,-43.457,22.461,0.000
1714025871.488,22.949,-37.598,-40.039,28.320,0.000
1714025871.491,24.902,-34.180,-34.668,15.625,0.000
1714025871.495,27.832,-32.227,-39.551,4.395,0.000
1714025871.500,22.949,-32.715,-45.898,6.836,0.000
1714025871.503,18.555,-33.691,-41.016,7.812,0.000
1714025871.507,20.996,-29.297,-44.434,2.930,0.000
1714025871.511,15.137,-27.832,-51.758,-0.977,0.000
1714025871.515,5.371,-28.320,-48.828,1.465,0.000
1714025871.519,2.441,-29.785,-45.410,1.465,0.000
1714025871.523,2.441,-33.203,-42.480,-2.441,0.000
1714025871.527,4.395,-26.367,-38.086,1.953,0.000
1714025871.531,1.465,-28.809,-43.457,6.348,0.000
1714025871.535,-2.930,-36.133,-39.062,2.930,0.000
1714025871.539,-5.859,-28.809,-32.715,2.441,0.000
1714025871.542,-3.418,-22.949,-38.086,5.859,0.000
1714025871.546,-7.812,-24.902,-40.039,-2.441,0.000
1714025871.550,-12.695,-26.855,-37.598,-4.883,0.000
1714025871.554,-10.254,-24.414,-36.621,4.883,0.000
1714025871.558,-13.184,-22.461,-34.180,-0.488,0.000
1714025871.562,-16.113,-22.461,-29.297,-6.836,0.000
1714025871.566,-10.254,-20.996,-28.320,1.953,0.000
1714025871.569,-7.812,-23.926,-35.156,-4.395,0.000
1714025871.573,-5.371,-22.461,-33.691,-6.836,0.000
1714025871.577,-4.395,-20.020,-32.715,-1.953,0.000
1714025871.581,-11.719,-23.438,-34.668,-8.301,0.000
1714025871.585,-15.137,-29.297,-37.598,-11.230,0.000
1714025871.589,-15.137,-36.133,-32.715,-12.695,0.000
1714025871.592,-16.602,-41.016,-26.855,-17.090,0.000
1714025871.596,-17.090,-41.504,-31.738,-21.484,0.000
1714025871.600,-19.531,-36.133,-34.668,-19.043,0.000
1714025871.604,-18.555,-28.809,-30.273,-18.555,0.000
1714025871.608,-17.090,-27.832,-31.250,-27.832,0.000
1714025871.612,-18.066,-30.273,-36.621,-32.227,0.000
1714025871.615,-9.277,-28.320,-34.668,-17.578,0.000
1714025871.619,0.977,-28.809,-33.691,2.930,0.000
1714025871.623,-15.137,-28.809,-30.273,-17.090,0.000
1714025871.627,-34.668,-32.715,-21.484,-37.109,0.000
1714025871.631,-35.156,-37.598,-18.555,-34.180,0.000
1714025871.635,-30.273,-34.668,-25.391,-23.926,0.000
1714025871.638,-24.902,-28.809,-23.926,-15.137,0.000
1714025871.642,-21.484,-27.832,-21.973,-18.066,0.000
1714025871.645,-19.043,-30.762,-25.391,-15.625,0.000
1714025871.649,-22.461,-31.250,-27.344,-11.719,0.000
1714025871.653,-21.973,-32.715,-29.297,-18.555,0.000
1714025871.657,-14.648,-36.133,-26.367,-20.996,0.000
1714025871.661,-20.508,-38.574,-28.809,-26.855,0.000
1714025871.665,-25.879,-34.180,-30.273,-25.391,0.000
1714025871.669,-25.391,-34.180,-24.902,-22.949,0.000
1714025871.673,-30.762,-40.039,-21.973,-31.738,0.000
1714025871.677,-32.715,-41.504,-22.461,-26.855,0.000
1714025871.681,-31.250,-34.668,-19.043,-19.043,0.000
1714025871.683,-23.438,-26.367,-7.324,-21.484,0.000
1714025871.687,-17.578,-26.855,-6.348,-20.508,0.000
1714025871.691,-25.391,-35.156,-19.043,-17.090,0.000
1714025871.695,-27.832,-33.691,-17.090,-16.113,0.000
1714025871.699,-29.297,-29.785,-16.113,-14.160,0.000
1714025871.703,-25.879,-29.297,-13.672,-11.719,0.000
1714025871.706,-27.832,-33.203,-17.090,-13.184,0.000
1714025871.710,-32.715,-35.156,-21.973,-22.949,0.000
1714025871.714,-29.785,-34.180,-22.461,-24.414,0.000
1714025871.718,-25.879,-28.320,-23.438,-13.184,0.000
1714025871.722,-27.832,-24.902,-21.973,-15.625,0.000
1714025871.726,-29.785,-25.879,-16.113,-28.809,0.000
1714025871.728,-24.902,-23.926,-20.020,-27.344,0.000
1714025871.732,-24.414,-25.391,-27.832,-23.438,0.000
1714025871.736,-26.367,-27.344,-31.738,-24.414,0.000
1714025871.740,-24.414,-24.902,-31.738,-27.832,0.000
1714025871.744,-24.414,-22.461,-29.785,-29.785,0.000
1714025871.748,-20.020,-23.926,-34.180,-27.344,0.000
1714025871.752,-13.672,-22.949,-37.598,-24.414,0.000
1714025871.756,-13.672,-20.020,-30.273,-26.855,0.000
1714025871.760,-15.625,-23.926,-27.832,-24.414,0.000
1714025871.763,-17.090,-26.855,-28.809,-22.461,0.000
1714025871.767,-15.137,-20.996,-20.020,-22.949,0.000
1714025871.771,-17.578,-14.160,-19.043,-26.855,0.000
1714025871.779,-20.020,-15.625,-28.320,-23.926,0.000
1714025871.783,-19.043,-23.438,-30.762,-19.531,0.000
1714025871.787,-19.043,-27.344,-28.809,-21.973,0.000
1714025871.790,-17.090,-24.902,-23.926,-21.484,0.000
1714025871.794,-19.531,-22.461,-26.367,-20.020,0.000
1714025871.798,-22.461,-24.414,-32.715,-21.484,0.000
1714025871.802,-20.020,-30.762,-26.367,-22.949,0.000
1714025871.806,-18.066,-27.832,-25.879,-17.578,0.000
1714025871.810,-19.043,-27.344,-27.344,-19.043,0.000
1714025871.814,-20.996,-24.902,-28.320,-14.160,0.000
1714025871.818,-17.090,-23.926,-25.391,-4.883,0.000
1714025871.822,-19.043,-28.809,-21.973,-7.812,0.000
1714025871.827,-21.973,-31.250,-29.297,-13.184,0.000
1714025871.831,-21.973,-35.645,-26.855,-16.602,0.000
1714025871.835,-25.879,-34.668,-18.066,-23.438,0.000
1714025871.839,-24.902,-27.832,-19.043,-23.926,0.000
1714025871.843,-25.879,-26.855,-27.344,-27.832,0.000
1714025871.847,-27.344,-32.227,-32.715,-28.809,0.000
1714025871.851,-27.344,-31.738,-26.367,-23.438,0.000
1714025871.854,-26.367,-30.273,-20.020,-24.902,0.000
1714025871.858,-24.414,-27.832,-19.043,-24.414,0.000
1714025871.862,-20.996,-22.461,-19.531,-17.578,0.000
1714025871.866,-20.996,-21.973,-12.695,-13.672,0.000
1714025871.870,-22.461,-25.391,-14.160,-10.742,0.000
1714025871.874,-20.508,-26.367,-23.438,-11.230,0.000
1714025871.878,-22.461,-24.414,-24.902,-20.020,0.000
1714025871.882,-29.297,-26.855,-21.484,-24.414,0.000
1714025871.886,-26.367,-22.461,-18.555,-19.531,0.000
1714025871.890,-28.809,-18.066,-21.484,-21.973,0.000
1714025871.894,-34.668,-22.949,-23.926,-33.203,0.000
1714025871.898,-32.227,-27.832,-23.438,-33.691,0.000
1714025871.902,-31.250,-32.227,-24.414,-23.926,0.000
1714025871.906,-30.273,-36.133,-22.949,-23.438,0.000
1714025871.910,-30.762,-34.180,-21.973,-29.297,0.000
1714025871.913,-32.715,-27.344,-22.461,-29.297,0.000
1714025871.917,-27.832,-23.926,-25.879,-24.414,0.000
1714025871.921,-23.926,-28.809,-24.902,-24.414,0.000
1714025871.925,-33.203,-29.785,-28.809,-32.715,0.000
1714025871.929,-33.203,-27.344,-32.715,-28.320,0.000
1714025871.933,-30.762,-31.250,-28.809,-25.879,0.000
1714025871.937,-35.156,-32.227,-24.414,-33.691,0.000
1714025871.940,-32.227,-27.344,-21.973,-32.227,0.000
1714025871.944,-30.762,-29.297,-24.414,-30.273,0.000
1714025871.948,-28.320,-36.621,-21.484,-27.344,0.000
1714025871.952,-23.926,-38.086,-20.508,-20.508,0.000
1714025871.956,-26.855,-27.344,-19.531,-30.762,0.000
1714025871.960,-34.668,-22.461,-23.438,-39.551,0.000
1714025871.964,-37.109,-29.785,-30.273,-41.992,0.000
1714025871.967,-37.109,-30.273,-31.738,-44.434,0.000
1714025871.971,-36.133,-25.879,-24.414,-36.621,0.000
1714025871.975,-29.297,-24.902,-21.484,-34.668,0.000
1714025871.979,-27.344,-26.855,-20.508,-34.180,0.000
1714025871.983,-32.227,-26.855,-16.113,-30.273,0.000
1714025871.987,-33.691,-28.809,-17.090,-29.785,0.000
1714025871.991,-35.156,-29.785,-23.926,-35.156,0.000
1714025871.995,-35.645,-30.273,-32.227,-34.180,0.000
1714025871.998,-27.832,-23.438,-27.832,-24.902,0.000
1714025872.002,-20.020,-15.137,-13.184,-18.066,0.000
1714025872.006,-22.461,-15.137,-18.066,-20.508,0.000
1714025872.010,-26.367,-19.531,-27.832,-30.762,0.000
1714025872.013,-27.832,-24.414,-25.391,-33.691,0.000
1714025872.017,-32.715,-24.902,-30.273,-33.691,0.000
1714025872.021,-27.832,-25.391,-34.668,-29.785,0.000
1714025872.024,-26.367,-26.367,-28.809,-30.273,0.000
1714025872.028,-31.738,-27.832,-28.320,-33.691,0.000
1714025872.032,-28.320,-27.832,-29.785,-32.227,0.000
1714025872.036,-24.414,-28.320,-33.203,-32.227,0.000
1714025872.040,-29.297,-29.785,-34.180,-29.297,0.000
1714025872.044,-27.344,-28.320,-27.344,-25.391,0.000
1714025872.048,-23.438,-25.879,-30.762,-20.020,0.000
1714025872.052,-25.879,-26.855,-39.551,-20.996,0.000
1714025872.056,-27.832,-26.367,-43.457,-28.809,0.000
1714025872.058,-20.020,-21.484,-41.992,-27.344,0.000
1714025872.062,-18.555,-23.438,-37.109,-20.508,0.000
1714025872.066,-24.414,-28.320,-38.086,-31.250,0.000
1714025872.070,-27.344,-29.785,-38.574,-39.551,0.000
1714025872.074,-24.902,-25.879,-33.203,-28.809,0.000
1714025872.078,-19.043,-22.461,-36.621,-26.855,0.000
1714025872.082,-20.020,-26.367,-34.668,-29.297,0.000
1714025872.086,-26.855,-25.391,-32.227,-34.668,0.000
1714025872.089,-29.297,-26.855,-37.109,-41.504,0.000
1714025872.093,-30.273,-23.438,-37.598,-36.133,0.000
1714025872.097,-30.762,-21.973,-31.738,-20.996,0.000
1714025872.101,-23.438,-18.555,-23.926,-16.602,0.000
1714025872.103,-17.578,-14.160,-24.414,-18.555,0.000
1714025872.107,-20.508,-15.137,-26.855,-22.461,0.000
1714025872.111,-23.926,-16.113,-23.926,-25.391,0.000
1714025872.115,-20.508,-15.137,-25.391,-26.855,0.000
1714025872.119,-20.020,-18.555,-24.414,-35.156,0.000
1714025872.123,-26.367,-24.902,-20.020,-41.992,0.000
1714025872.127,-29.297,-23.438,-22.461,-32.227,0.000
1714025872.131,-29.785,-20.020,-25.391,-27.344,0.000
1714025872.135,-26.855,-18.066,-22.461,-28.809,0.000
1714025872.139,-26.855,-16.602,-20.020,-26.367,0.000
1714025872.142,-27.832,-17.578,-20.508,-24.902,0.000
1714025872.146,-20.020,-17.090,-23.438,-19.043,0.000
1714025872.154,-17.578,-15.137,-20.508,-15.137,0.000
1714025872.158,-26.367,-17.090,-23.438,-22.949,0.000
1714025872.161,-25.391,-15.625,-24.414,-20.996,0.000
1714025872.165,-21.973,-13.672,-17.578,-14.648,0.000
1714025872.169,-28.320,-19.043,-20.508,-19.531,0.000
1714025872.173,-29.785,-19.531,-23.438,-20.020,0.000
1714025872.177,-28.809,-17.090,-20.996,-24.414,0.000
1714025872.181,-30.762,-14.160,-20.508,-29.785,0.000
1714025872.185,-31.250,-14.648,-24.414,-27.344,0.000
1714025872.189,-37.598,-24.902,-20.508,-23.438,0.000
1714025872.193,-40.039,-25.391,-22.949,-30.273,0.000
1714025872.197,-44.434,-21.973,-24.414,-45.898,0.000
1714025872.202,-37.598,-25.391,-15.625,-34.180,0.000
1714025872.206,-23.438,-24.414,-17.578,-22.949,0.000
1714025872.210,-39.551,-20.996,-26.367,-46.875,0.000
1714025872.214,-65.918,-25.879,-21.484,-66.406,0.000
1714025872.218,-75.684,-28.809,-15.137,-76.660,0.000
1714025872.222,-83.984,-28.809,-17.090,-85.449,0.000
1714025872.225,-101.074,-32.227,-16.113,-99.121,0.000
1714025872.229,-114.258,-32.715,-7.812,-114.746,0.000
1714025872.233,-112.793,-29.785,-3.906,-115.234,0.000
1714025872.237,-124.023,-28.809,-0.977,-119.141,0.000
1714025872.241,-141.113,-27.832,5.371,-140.625,0.000
1714025872.245,-157.715,-26.367,4.883,-162.598,0.000
1714025872.249,-167.969,-31.738,7.324,-167.969,0.000
1714025872.253,-168.457,-34.180,12.695,-169.922,0.000
1714025872.257,-174.805,-28.320,12.695,-178.223,0.000
1714025872.261,-175.781,-18.555,9.766,-172.852,0.000
1714025872.265,-177.246,-13.184,6.348,-175.293,0.000
1714025872.269,-171.387,-13.184,-0.977,-172.852,0.000
1714025872.273,-158.203,-11.230,-2.930,-166.016,0.000
1714025872.277,-150.879,-11.230,-7.812,-164.551,0.000
1714025872.281,-151.367,-13.672,-19.043,-164.551,0.000
1714025872.284,-139.648,-14.160,-26.855,-164.062,0.000
1714025872.288,-125.488,-17.090,-26.855,-149.414,0.000
1714025872.292,-125.488,-16.113,-32.227,-140.625,0.000
1714025872.296,-119.629,-16.113,-39.062,-134.766,0.000
1714025872.300,-110.352,-19.043,-30.273,-119.141,0.000
1714025872.304,-101.562,-14.648,-28.320,-112.305,0.000
1714025872.308,-86.426,-4.883,-38.574,-102.051,0.000
1714025872.312,-75.195,-7.324,-50.293,-93.750,0.000
1714025872.316,-86.914,-17.578,-59.570,-105.469,0.000
1714025872.320,-76.660,-14.160,-58.105,-92.773,0.000
1714025872.324,-53.223,-4.883,-55.664,-66.406,0.000
1714025872.327,-63.477,-11.719,-59.570,-71.289,0.000
1714025872.331,-59.082,-17.090,-54.688,-71.777,0.000
1714025872.335,-40.039,-14.160,-51.270,-58.105,0.000
1714025872.339,-33.691,-17.578,-54.688,-55.664,0.000
1714025872.342,-26.367,-15.625,-61.035,-56.152,0.000
1714025872.346,-21.973,-12.207,-64.941,-57.617,0.000
1714025872.350,-15.625,-19.043,-63.477,-54.199,0.000
1714025872.354,-2.930,-21.484,-61.035,-49.316,0.000
1714025872.358,8.789,-19.043,-55.664,-44.922,0.000
1714025872.362,9.766,-20.996,-56.152,-35.645,0.000
1714025872.366,4.883,-20.996,-57.617,-23.926,0.000
1714025872.369,-3.906,-25.879,-59.082,-15.137,0.000
1714025872.373,-9.766,-23.926,-53.223,-18.555,0.000
1714025872.377,-9.277,-22.461,-49.805,-16.602,0.000
1714025872.381,-7.324,-26.367,-51.270,-8.301,0.000
1714025872.385,-10.254,-26.855,-48.340,-2.930,0.000
1714025872.388,-10.742,-22.949,-48.828,-5.371,0.000
1714025872.392,-10.254,-23.926,-51.270,-11.230,0.000
1714025872.396,-7.812,-27.344,-50.293,-8.789,0.000
1714025872.400,-5.859,-24.414,-48.340,-6.348,0.000
1714025872.404,-6.836,-24.414,-40.527,-9.277,0.000
1714025872.407,-0.977,-20.996,-35.156,-6.348,0.000
1714025872.411,-2.930,-19.043,-47.363,-10.254,0.000
1714025872.415,-7.324,-20.996,-50.293,-11.719,0.000
1714025872.419,-6.836,-20.996,-42.480,-15.625,0.000
1714025872.423,-11.230,-23.926,-40.527,-20.508,0.000
1714025872.427,-10.254,-20.996,-41.992,-14.648,0.000
1714025872.431,-4.883,-19.531,-43.457,-14.648,0.000
1714025872.438,-2.930,-19.043,-43.945,-12.695,0.000
1714025872.442,-3.418,-17.578,-41.504,-12.207,0.000
1714025872.446,-2.930,-18.066,-44.434,-11.230,0.000
1714025872.450,1.953,-20.020,-46.875,-6.348,0.000
1714025872.454,-0.977,-23.438,-46.875,-11.230,0.000
1714025872.458,-3.906,-26.855,-52.246,-14.648,0.000
1714025872.462,-1.465,-31.738,-52.246,-6.348,0.000
1714025872.466,-10.742,-32.715,-50.293,-11.230,0.000
1714025872.470,-15.137,-31.250,-48.340,-13.184,0.000
1714025872.473,-11.230,-33.691,-40.527,-5.371,0.000
1714025872.477,-11.719,-36.133,-40.039,-13.672,0.000
1714025872.481,-14.648,-33.203,-46.387,-21.484,0.000
1714025872.482,-10.742,-27.344,-48.340,-12.207,0.000
1714025872.486,-5.859,-24.414,-44.922,-7.812,0.000
1714025872.490,-5.859,-20.996,-44.922,-4.883,0.000
1714025872.493,-6.348,-21.973,-44.922,-8.301,0.000
1714025872.497,-8.789,-25.391,-41.992,-12.207,0.000
1714025872.501,-8.789,-29.785,-42.969,-9.277,0.000
1714025872.505,-11.230,-28.320,-47.852,-18.066,0.000
1714025872.509,-14.648,-23.926,-46.387,-20.996,0.000
1714025872.513,-15.625,-26.855,-49.805,-21.484,0.000
1714025872.517,-13.672,-32.715,-57.129,-19.531,0.000
1714025872.521,-13.184,-26.855,-54.199,-12.207,0.000
1714025872.525,-11.719,-22.949,-44.922,-15.137,0.000
1714025872.531,-10.742,-28.809,-40.527,-20.996,0.000
1714025872.535,-15.137,-24.414,-43.457,-21.973,0.000
1714025872.539,-14.160,-16.602,-37.109,-19.043,0.000
1714025872.543,-12.207,-18.555,-29.785,-23.438,0.000
1714025872.547,-10.742,-22.461,-36.133,-26.855,0.000
1714025872.550,-9.766,-22.949,-42.969,-17.090,0.000
1714025872.554,-10.742,-22.949,-44.434,-11.230,0.000
1714025872.558,-12.207,-20.996,-41.016,-14.648,0.000
1714025872.562,-13.184,-20.020,-35.156,-21.484,0.000
1714025872.566,-22.949,-26.367,-42.480,-24.414,0.000
1714025872.570,-23.926,-24.414,-43.945,-24.414,0.000
1714025872.574,-18.066,-20.996,-37.598,-24.414,0.000
1714025872.579,-18.555,-21.973,-34.668,-23.926,0.000
1714025872.582,-20.996,-22.461,-36.133,-24.902,0.000
1714025872.586,-20.508,-20.508,-35.156,-20.996,0.000
1714025872.590,-20.508,-18.555,-30.762,-14.648,0.000
1714025872.594,-20.020,-18.555,-29.785,-15.137,0.000
1714025872.598,-18.555,-19.531,-34.180,-17.578,0.000
1714025872.602,-20.996,-21.973,-34.180,-16.602,0.000
1714025872.606,-20.996,-25.879,-27.832,-20.020,0.000
1714025872.610,-14.160,-25.391,-32.715,-17.090,0.000
1714025872.614,-18.555,-24.414,-37.109,-13.672,0.000
1714025872.618,-25.879,-27.344,-34.668,-24.902,0.000
1714025872.622,-25.391,-24.902,-38.574,-31.250,0.000
1714025872.625,-27.832,-27.344,-45.410,-36.621,0.000
1714025872.629,-32.227,-31.738,-45.898,-38.574,0.000
1714025872.633,-28.320,-31.250,-35.156,-25.879,0.000
1714025872.637,-20.996,-30.273,-22.461,-15.137,0.000
1714025872.641,-21.484,-29.297,-32.227,-16.602,0.000
1714025872.645,-22.461,-24.902,-35.645,-15.137,0.000
1714025872.649,-20.508,-20.020,-25.391,-14.648,0.000
1714025872.653,-18.555,-18.555,-29.785,-14.160,0.000
1714025872.657,-17.578,-20.020,-31.250,-4.395,0.000
1714025872.660,-24.902,-20.996,-25.879,-13.184,0.000
1714025872.664,-31.738,-26.367,-32.715,-31.738,0.000
1714025872.668,-30.762,-29.297,-36.621,-26.367,0.000
1714025872.672,-29.785,-26.855,-35.645,-20.020,0.000
1714025872.675,-33.691,-29.297,-31.250,-24.414,0.000
1714025872.679,-33.691,-27.344,-28.809,-20.508,0.000
1714025872.683,-27.344,-18.555,-27.344,-14.648,0.000
1714025872.687,-22.461,-20.020,-20.508,-11.719,0.000
1714025872.691,-26.367,-26.855,-20.020,-12.207,0.000
1714025872.695,-31.738,-25.879,-28.320,-16.602,0.000
1714025872.699,-28.320,-26.855,-34.668,-13.184,0.000
1714025872.703,-29.785,-32.715,-36.621,-9.277,0.000
1714025872.707,-36.133,-32.227,-26.855,-12.695,0.000
1714025872.711,-30.273,-28.809,-20.508,-17.578,0.000
1714025872.714,-27.344,-28.809,-27.344,-22.949,0.000
1714025872.717,-28.320,-27.344,-25.391,-21.484,0.000
1714025872.721,-25.879,-24.414,-27.832,-24.902,0.000
1714025872.725,-27.344,-25.879,-36.621,-34.668,0.000
1714025872.729,-26.855,-27.832,-34.668,-30.273,0.000
1714025872.733,-21.973,-26.855,-21.484,-22.461,0.000
1714025872.737,-20.508,-28.320,-19.043,-20.508,0.000
1714025872.741,-21.973,-27.344,-22.461,-25.391,0.000
1714025872.745,-19.043,-27.344,-23.438,-19.043,0.000
1714025872.749,-22.949,-26.855,-24.902,-15.625,0.000
1714025872.753,-27.832,-22.949,-27.832,-21.484,0.000
1714025872.756,-28.809,-25.391,-28.809,-26.367,0.000
1714025872.760,-31.250,-30.762,-25.879,-31.250,0.000
1714025872.763,-29.785,-26.367,-25.391,-26.855,0.000
1714025872.767,-25.879,-23.438,-25.879,-20.996,0.000
1714025872.771,-26.367,-24.414,-24.902,-20.508,0.000
1714025872.774,-29.785,-19.531,-16.113,-22.949,0.000
1714025872.778,-30.273,-19.531,-13.672,-17.090,0.000
1714025872.782,-32.227,-26.855,-20.508,-9.766,0.000
1714025872.786,-33.691,-27.832,-29.297,-16.113,0.000
1714025872.790,-29.785,-25.391,-32.715,-20.020,0.000
1714025872.794,-26.855,-21.973,-26.367,-22.949,0.000
1714025872.798,-32.227,-21.484,-27.344,-25.391,0.000
1714025872.802,-35.645,-25.391,-32.715,-26.855,0.000
1714025872.806,-36.621,-28.320,-26.855,-28.320,0.000
1714025872.808,-34.180,-24.902,-20.996,-24.414,0.000
1714025872.812,-32.715,-25.391,-23.438,-20.020,0.000
1714025872.816,-35.156,-28.809,-28.809,-18.066,0.000
1714025872.820,-39.551,-25.391,-30.273,-21.484,0.000
1714025872.824,-40.527,-24.902,-29.785,-29.297,0.000
1714025872.828,-37.109,-30.762,-25.879,-28.809,0.000
1714025872.831,-35.156,-33.691,-16.602,-21.973,0.000
1714025872.835,-33.203,-33.691,-15.625,-20.996,0.000
1714025872.839,-31.250,-32.715,-17.090,-25.879,0.000
1714025872.843,-33.203,-33.203,-25.879,-32.715,0.000
1714025872.847,-27.832,-32.227,-21.973,-29.785,0.000
1714025872.851,-24.414,-28.320,-10.742,-20.020,0.000
1714025872.853,-24.414,-21.484,-12.695,-23.926,0.000
1714025872.857,-33.691,-28.809,-29.297,-36.621,0.000
1714025872.861,-38.086,-31.250,-35.645,-37.598,0.000
1714025872.865,-36.621,-24.902,-20.020,-38.086,0.000
1714025872.869,-33.203,-25.391,-16.113,-41.504,0.000
1714025872.873,-29.785,-26.855,-24.902,-38.086,0.000
1714025872.877,-27.832,-24.902,-25.879,-30.762,0.000
1714025872.881,-24.902,-23.926,-23.926,-28.320,0.000
1714025872.885,-22.461,-25.391,-18.066,-29.785,0.000
1714025872.888,-25.879,-24.414,-15.625,-30.762,0.000
1714025872.892,-29.785,-23.926,-21.484,-30.762,0.000
1714025872.896,-32.227,-31.738,-26.855,-33.691,0.000
1714025872.904,-32.227,-34.180,-21.484,-34.180,0.000
1714025872.908,-32.227,-28.320,-22.461,-38.086,0.000
1714025872.912,-33.691,-27.832,-29.297,-38.574,0.000
1714025872.916,-33.203,-28.809,-21.973,-31.738,0.000
1714025872.919,-33.203,-33.203,-22.461,-32.715,0.000
1714025872.923,-32.715,-35.156,-33.691,-34.668,0.000
1714025872.927,-28.809,-27.832,-34.668,-30.762,0.000
1714025872.931,-25.391,-27.344,-31.738,-27.832,0.000
1714025872.935,-25.391,-28.809,-33.691,-25.879,0.000
1714025872.939,-24.414,-26.367,-37.109,-20.020,0.000
1714025872.943,-21.484,-28.320,-25.391,-22.461,0.000
1714025872.947,-18.066,-29.785,-17.090,-26.855,0.000
1714025872.952,-19.531,-29.785,-22.461,-26.367,0.000
1714025872.956,-21.973,-34.180,-30.273,-27.832,0.000
1714025872.960,-19.043,-31.250,-37.109,-26.855,0.000
1714025872.964,-18.066,-25.879,-29.785,-29.297,0.000
1714025872.968,-24.902,-20.996,-24.414,-29.297,0.000
1714025872.972,-20.020,-17.578,-30.762,-23.926,0.000
1714025872.976,-18.066,-22.461,-34.668,-26.367,0.000
1714025872.980,-24.902,-21.484,-28.320,-31.738,0.000
1714025872.984,-22.461,-22.949,-26.367,-23.438,0.000
1714025872.988,-25.391,-25.879,-26.367,-14.648,0.000
1714025872.992,-30.762,-22.461,-19.043,-22.461,0.000
1714025872.995,-24.902,-13.672,-20.996,-22.949,0.000
1714025873.000,-23.926,-15.137,-28.809,-21.973,0.000
1714025873.003,-28.809,-25.879,-27.832,-31.250,0.000
1714025873.007,-27.832,-29.297,-24.414,-32.715,0.000
1714025873.011,-28.809,-31.738,-24.414,-30.273,0.000
1714025873.015,-27.344,-28.809,-24.902,-28.320,0.000
1714025873.019,-27.344,-24.414,-21.484,-27.832,0.000
1714025873.023,-25.879,-25.879,-18.555,-34.180,0.000
1714025873.027,-19.043,-17.090,-10.742,-31.250,0.000
1714025873.031,-19.043,-13.672,-21.484,-22.461,0.000
1714025873.035,-28.320,-20.996,-33.203,-26.367,0.000
1714025873.039,-23.438,-22.949,-31.738,-32.715,0.000
1714025873.042,-13.184,-21.973,-28.320,-29.297,0.000
1714025873.046,-20.996,-22.949,-23.438,-28.320,0.000
1714025873.050,-25.879,-23.438,-22.949,-29.297,0.000
1714025873.054,-17.090,-21.484,-25.391,-22.461,0.000
1714025873.058,-15.625,-20.508,-24.902,-20.996,0.000
1714025873.062,-17.090,-18.555,-16.602,-28.809,0.000
1714025873.066,-19.531,-20.508,-22.461,-30.273,0.000
1714025873.069,-25.391,-25.391,-35.645,-28.320,0.000
1714025873.073,-22.949,-20.996,-34.668,-22.461,0.000
1714025873.077,-20.996,-22.461,-28.320,-19.043,0.000
1714025873.081,-26.855,-23.438,-25.391,-26.367,0.000
1714025873.085,-22.949,-20.996,-26.855,-25.391,0.000
1714025873.089,-18.555,-20.508,-29.785,-33.203,0.000
1714025873.092,-20.020,-22.461,-24.902,-34.180,0.000
1714025873.096,-18.066,-23.926,-22.949,-27.344,0.000
1714025873.100,-17.090,-22.461,-33.691,-30.273,0.000
1714025873.104,-23.438,-26.855,-38.574,-35.156,0.000
1714025873.108,-21.973,-24.414,-41.992,-34.180,0.000
1714025873.111,-15.137,-27.344,-43.945,-30.762,0.000
1714025873.115,-18.066,-34.668,-41.016,-28.809,0.000
1714025873.119,-16.113,-31.738,-37.109,-20.508,0.000
1714025873.123,-13.672,-26.855,-41.016,-20.996,0.000
1714025873.127,-21.484,-22.949,-40.527,-36.621,0.000
1714025873.131,-29.297,-22.949,-41.504,-41.992,0.000
1714025873.135,-23.926,-23.926,-48.828,-29.785,0.000
1714025873.138,-21.973,-29.297,-46.875,-27.832,0.000
1714025873.142,-27.832,-30.762,-45.898,-31.250,0.000
1714025873.145,-25.879,-28.320,-44.434,-27.344,0.000
1714025873.149,-23.926,-31.250,-39.551,-26.855,0.000
1714025873.153,-22.949,-28.809,-42.969,-28.320,0.000
1714025873.157,-24.902,-28.320,-43.457,-36.621,0.000
1714025873.161,-28.809,-26.367,-36.133,-42.480,0.000
1714025873.165,-27.832,-25.391,-38.086,-33.691,0.000
1714025873.169,-28.809,-27.344,-36.621,-32.227,0.000
1714025873.173,-31.250,-34.668,-37.598,-36.621,0.000
1714025873.177,-35.645,-37.598,-42.969,-40.527,0.000
1714025873.181,-38.086,-31.250,-42.480,-37.598,0.000
1714025873.183,-34.180,-30.273,-41.504,-31.738,0.000
1714025873.187,-35.645,-32.715,-41.504,-37.598,0.000
1714025873.191,-41.992,-37.109,-48.340,-50.781,0.000
1714025873.195,-41.504,-34.180,-41.992,-43.945,0.000
1714025873.199,-35.645,-29.297,-27.344,-33.691,0.000
1714025873.203,-31.250,-29.785,-30.273,-29.785,0.000
1714025873.207,-28.320,-31.250,-37.598,-30.273,0.000
1714025873.210,-30.273,-34.668,-32.227,-30.273,0.000
1714025873.214,-34.180,-37.598,-32.715,-27.344,0.000
1714025873.218,-37.598,-35.645,-42.969,-32.715,0.000
1714025873.222,-37.598,-32.715,-39.551,-35.156,0.000
1714025873.226,-29.785,-26.367,-26.855,-31.250,0.000
1714025873.229,-20.508,-24.902,-22.461,-27.832,0.000
1714025873.232,-21.973,-31.250,-35.156,-33.691,0.000
1714025873.236,-19.531,-27.832,-41.504,-31.738,0.000
1714025873.240,-12.695,-26.367,-31.738,-25.879,0.000
1714025873.244,-11.719,-32.715,-28.320,-30.273,0.000
1714025873.248,-9.766,-33.203,-35.156,-24.414,0.000
1714025873.252,-9.766,-33.691,-34.668,-16.602,0.000
1714025873.256,-12.695,-32.227,-30.273,-21.484,0.000
1714025873.260,-21.973,-28.320,-33.203,-27.344,0.000
1714025873.264,-33.691,-33.203,-28.809,-20.020,0.000
1714025873.268,-15.137,-29.785,-20.508,0.977,0.000
1714025873.271,-9.277,-20.020,-23.438,-0.977,0.000
1714025873.279,-29.297,-9.277,-31.250,-24.414,0.000
1714025873.283,-40.039,-17.578,-28.320,-35.156,0.000
1714025873.287,-38.574,-31.250,-22.461,-40.039,0.000
1714025873.291,-29.297,-18.555,-26.367,-37.109,0.000
1714025873.294,-45.898,-9.277,-34.668,-49.805,0.000
1714025873.298,-47.363,-9.766,-38.574,-45.898,0.000
1714025873.302,-34.180,0.488,-30.273,-37.109,0.000
1714025873.306,-43.945,-0.488,-31.738,-57.129,0.000
1714025873.310,-43.945,-9.766,-45.898,-62.500,0.000
1714025873.314,-42.480,-6.836,-48.828,-61.035,0.000
1714025873.318,-39.551,-15.137,-50.293,-61.523,0.000
1714025873.322,-34.180,-19.043,-44.434,-62.500,0.000
1714025873.327,-29.297,-1.953,-41.016,-59.570,0.000
1714025873.331,-24.414,5.371,-51.758,-53.711,0.000
1714025873.335,-27.344,-2.441,-48.340,-65.918,0.000
1714025873.339,-20.996,1.953,-45.898,-62.012,0.000
1714025873.343,-20.996,7.324,-57.129,-58.594,0.000
1714025873.347,-20.508,8.789,-59.082,-61.035,0.000
1714025873.351,-18.555,15.625,-53.223,-58.594,0.000
1714025873.355,-17.090,14.160,-49.805,-60.059,0.000
1714025873.359,-9.277,9.277,-58.594,-57.617,0.000
1714025873.363,-13.672,8.301,-58.594,-58.105,0.000
1714025873.367,-13.672,10.742,-45.410,-57.617,0.000
1714025873.370,-14.160,8.789,-41.504,-57.617,0.000
1714025873.375,-15.137,8.789,-49.316,-60.547,0.000
1714025873.379,-2.930,16.602,-50.293,-52.246,0.000
1714025873.383,-0.977,27.832,-53.223,-45.410,0.000
1714025873.386,-7.812,23.926,-56.152,-44.434,0.000
1714025873.390,-4.883,18.066,-55.176,-42.480,0.000
1714025873.394,-7.324,20.020,-55.176,-46.875,0.000
1714025873.398,-7.812,16.602,-50.781,-44.434,0.000
1714025873.402,-0.977,12.207,-46.875,-36.133,0.000
1714025873.406,-4.395,5.371,-47.363,-30.762,0.000
1714025873.410,-11.230,3.418,-50.781,-40.039,0.000
1714025873.414,-16.602,8.301,-52.734,-50.293,0.000
1714025873.418,-20.996,7.324,-49.316,-47.852,0.000
1714025873.421,-19.531,5.859,-47.852,-45.410,0.000
1714025873.425,-14.648,0.977,-52.246,-48.340,0.000
1714025873.429,-11.719,-4.883,-50.293,-45.898,0.000
1714025873.433,-12.695,-2.930,-38.086,-37.598,0.000
1714025873.437,-12.207,-2.930,-33.203,-34.668,0.000
1714025873.441,-9.766,-0.488,-32.715,-35.645,0.000
1714025873.445,-10.254,-0.488,-33.203,-30.273,0.000
1714025873.448,-14.648,-3.906,-36.133,-26.367,0.000
1714025873.452,-18.066,-6.836,-33.691,-27.832,0.000
1714025873.456,-16.113,-8.301,-31.738,-37.109,0.000
1714025873.460,-15.625,-13.184,-35.645,-38.086,0.000
1714025873.464,-19.043,-21.484,-37.598,-34.668,0.000
1714025873.467,-20.996,-15.137,-37.109,-37.109,0.000
1714025873.471,-15.137,-4.883,-37.598,-37.598,0.000
1714025873.475,-9.277,-9.766,-33.691,-35.645,0.000
1714025873.479,-12.207,-12.207,-30.762,-35.156,0.000
1714025873.483,-21.484,-16.602,-30.273,-35.156,0.000
1714025873.487,-20.508,-18.066,-22.949,-30.273,0.000
1714025873.491,-18.066,-16.113,-26.855,-30.762,0.000
1714025873.494,-17.090,-17.090,-35.645,-26.367,0.000
1714025873.498,-19.531,-19.531,-26.855,-24.414,0.000
1714025873.502,-20.020,-20.020,-19.043,-23.438,0.000
1714025873.506,-19.531,-15.625,-19.531,-23.926,0.000
1714025873.510,-25.879,-20.508,-27.832,-32.227,0.000
1714025873.513,-27.344,-21.973,-32.715,-36.133,0.000
1714025873.517,-22.949,-20.996,-25.391,-28.809,0.000
1714025873.520,-22.949,-32.715,-22.949,-24.902,0.000
1714025873.524,-27.344,-35.156,-30.762,-29.297,0.000
1714025873.528,-30.762,-21.973,-29.297,-29.785,0.000
1714025873.532,-30.762,-19.043,-29.297,-28.320,0.000
1714025873.536,-30.762,-25.879,-32.227,-28.320,0.000
1714025873.540,-28.809,-34.180,-30.273,-26.367,0.000
1714025873.544,-28.809,-33.203,-32.715,-32.715,0.000
1714025873.548,-29.785,-25.879,-35.645,-28.809,0.000
1714025873.552,-29.297,-19.531,-27.832,-19.531,0.000
1714025873.556,-29.785,-24.414,-20.508,-25.879,0.000
1714025873.558,-30.273,-29.297,-20.508,-33.203,0.000
1714025873.562,-22.949,-31.250,-21.484,-20.996,0.000
1714025873.566,-24.414,-24.902,-21.973,-13.672,0.000
1714025873.570,-34.668,-8.301,-23.438,-20.996,0.000
1714025873.574,-36.621,-8.301,-23.438,-30.273,0.000
1714025873.578,-36.133,-20.508,-24.414,-34.180,0.000
1714025873.582,-35.156,-28.320,-26.855,-24.902,0.000
1714025873.585,-32.227,-32.715,-25.391,-32.227,0.000
1714025873.589,-28.809,-33.203,-26.855,-38.574,0.000
1714025873.593,-26.367,-29.785,-31.738,-32.227,0.000
1714025873.597,-24.902,-28.809,-28.320,-25.391,0.000
1714025873.601,-25.879,-29.785,-21.484,-23.438,0.000
1714025873.603,-29.297,-19.043,-21.973,-31.738,0.000
1714025873.607,-30.762,-10.742,-22.461,-41.016,0.000
1714025873.611,-35.645,-23.926,-21.973,-36.621,0.000
1714025873.615,-31.738,-40.039,-18.066,-31.250,0.000
1714025873.619,-26.367,-35.156,-13.184,-36.133,0.000
1714025873.623,-32.227,-34.180,-26.367,-34.668,0.000
1714025873.627,-32.227,-33.203,-27.344,-27.344,0.000
1714025873.631,-25.391,-29.785,-17.578,-26.855,0.000
1714025873.634,-28.320,-29.297,-20.996,-28.809,0.000
1714025873.638,-25.391,-26.367,-25.879,-28.320,0.000
1714025873.642,-12.695,-28.809,-30.762,-20.996,0.000
1714025873.646,-11.719,-31.738,-30.273,-15.137,0.000
1714025873.654,-24.902,-30.762,-24.414,-26.367,0.000
1714025873.657,-31.250,-23.438,-20.996,-42.969,0.000
1714025873.661,-18.555,-15.137,-16.113,-32.715,0.000
1714025873.665,-20.996,-14.160,-16.113,-28.809,0.000
1714025873.669,-29.785,-16.602,-20.508,-38.086,0.000
1714025873.673,-31.250,-18.066,-28.320,-42.969,0.000
1714025873.677,-27.832,-18.555,-31.250,-40.039,0.000
1714025873.681,-22.461,-18.066,-30.273,-36.133,0.000
1714025873.685,-19.043,-18.555,-32.227,-34.668,0.000
1714025873.689,-14.160,-22.949,-28.809,-24.414,0.000
1714025873.693,-12.207,-22.461,-16.113,-20.020,0.000
1714025873.697,-10.254,-19.043,-19.043,-27.344,0.000
1714025873.702,-9.766,-14.160,-24.414,-28.320,0.000
1714025873.706,-9.277,-15.625,-22.461,-25.879,0.000
1714025873.710,-13.672,-21.484,-21.973,-28.320,0.000
1714025873.714,-21.484,-17.578,-26.367,-32.715,0.000
1714025873.718,-19.531,-13.184,-31.250,-30.762,0.000
1714025873.722,-19.531,-15.625,-32.715,-35.156,0.000
1714025873.726,-22.949,-17.578,-22.949,-41.016,0.000
1714025873.730,-21.484,-16.113,-14.648,-36.133,0.000
1714025873.733,-21.484,-14.648,-21.484,-29.297,0.000
1714025873.737,-23.438,-12.207,-31.250,-26.367,0.000
1714025873.741,-24.902,-17.578,-33.203,-34.180,0.000
1714025873.745,-23.438,-21.973,-27.832,-32.715,0.000
1714025873.750,-25.391,-21.973,-28.320,-32.715,0.000
1714025873.754,-30.273,-20.996,-20.996,-33.691,0.000
1714025873.758,-27.344,-17.578,-11.230,-30.273,0.000
1714025873.761,-29.785,-14.648,-20.020,-34.180,0.000
1714025873.765,-31.250,-20.020,-23.926,-40.527,0.000
1714025873.769,-26.367,-19.531,-18.066,-38.574,0.000
1714025873.773,-25.879,-14.648,-26.367,-33.691,0.000
1714025873.777,-25.879,-20.020,-31.738,-36.621,0.000
1714025873.781,-21.973,-19.043,-28.809,-29.297,0.000
1714025873.785,-20.020,-14.648,-23.926,-27.344,0.000
1714025873.789,-19.043,-22.461,-21.973,-31.250,0.000
1714025873.793,-22.949,-24.902,-20.508,-33.203,0.000
1714025873.796,-28.809,-17.090,-15.137,-31.738,0.000
1714025873.800,-25.391,-19.531,-16.602,-26.855,0.000
1714025873.804,-19.043,-20.508,-23.438,-23.438,0.000
1714025873.808,-24.414,-15.137,-29.297,-27.832,0.000
1714025873.812,-30.273,-23.926,-28.320,-34.180,0.000
1714025873.816,-31.738,-35.156,-23.926,-34.180,0.000
1714025873.820,-34.180,-23.438,-21.973,-29.297,0.000
1714025873.823,-38.574,-19.043,-24.414,-27.832,0.000
1714025873.827,-36.133,-30.762,-21.973,-26.855,0.000
1714025873.831,-33.203,-23.926,-23.438,-30.273,0.000
1714025873.835,-31.738,-17.578,-29.297,-29.785,0.000
1714025873.839,-31.250,-23.926,-30.762,-29.785,0.000
1714025873.842,-33.691,-19.531,-29.297,-32.715,0.000
1714025873.846,-32.227,-17.090,-27.832,-36.133,0.000
1714025873.850,-35.156,-23.438,-28.320,-35.645,0.000
1714025873.854,-34.180,-24.902,-32.715,-31.738,0.000
1714025873.858,-32.227,-24.902,-28.320,-37.109,0.000
1714025873.861,-31.738,-22.949,-23.438,-37.598,0.000
1714025873.865,-30.762,-24.414,-26.367,-26.367,0.000
1714025873.869,-34.180,-36.621,-34.180,-19.531,0.000
1714025873.873,-35.156,-34.180,-34.180,-29.297,0.000
1714025873.877,-33.203,-25.391,-30.762,-37.598,0.000
1714025873.881,-35.156,-26.367,-24.414,-29.297,0.000
1714025873.885,-31.250,-25.391,-22.949,-25.879,0.000
1714025873.888,-20.508,-19.531,-29.297,-25.391,0.000
1714025873.892,-23.438,-18.555,-25.391,-25.879,0.000
1714025873.896,-30.762,-24.902,-21.484,-27.832,0.000
1714025873.899,-30.273,-31.250,-21.484,-23.438,0.000
1714025873.903,-28.809,-28.809,-29.785,-25.879,0.000
1714025873.907,-27.832,-22.949,-31.250,-26.855,0.000
1714025873.911,-28.320,-30.762,-27.344,-23.926,0.000
1714025873.915,-30.273,-32.715,-32.227,-21.484,0.000
1714025873.919,-34.180,-36.133,-28.320,-27.832,0.000
1714025873.923,-28.809,-35.645,-23.438,-31.738,0.000
1714025873.927,-29.297,-22.949,-22.461,-23.926,0.000
1714025873.931,-35.156,-28.809,-30.273,-20.508,0.000
