timestamps,TP9,AF7,AF8,TP10,Right AUX
1714027060.608,-29.785,-26.855,-25.391,-29.297,0.000
1714027060.612,-25.879,-17.090,-27.832,-20.508,0.000
1714027060.616,-18.555,-16.602,-20.020,-17.090,0.000
1714027060.620,-20.996,-20.996,-22.949,-18.555,0.000
1714027060.624,-22.949,-19.043,-27.344,-21.484,0.000
1714027060.628,-22.949,-24.414,-29.297,-17.090,0.000
1714027060.632,-25.391,-31.738,-29.297,-10.254,0.000
1714027060.636,-25.879,-28.320,-27.344,-9.766,0.000
1714027060.640,-26.367,-23.438,-24.414,-13.672,0.000
1714027060.644,-25.879,-21.973,-19.531,-20.508,0.000
1714027060.648,-22.461,-20.508,-18.066,-20.508,0.000
1714027060.651,-27.344,-25.879,-23.438,-18.555,0.000
1714027060.655,-31.738,-30.273,-28.320,-25.391,0.000
1714027060.659,-23.438,-25.879,-27.832,-25.879,0.000
1714027060.663,-20.508,-29.297,-33.691,-19.531,0.000
1714027060.667,-20.020,-35.156,-35.156,-19.043,0.000
1714027060.671,-16.113,-23.926,-26.367,-18.555,0.000
1714027060.675,-19.531,-13.184,-19.043,-19.043,0.000
1714027060.679,-20.996,-19.043,-20.996,-18.555,0.000
1714027060.683,-16.602,-23.438,-28.809,-16.113,0.000
1714027060.687,-19.043,-19.531,-29.785,-20.996,0.000
1714027060.690,-22.949,-18.555,-26.855,-23.438,0.000
1714027060.694,-24.902,-17.578,-29.785,-21.484,0.000
1714027060.698,-16.602,-18.066,-36.621,-20.996,0.000
1714027060.702,-14.648,-21.973,-22.949,-15.625,0.000
1714027060.706,-17.090,-21.484,-18.066,-20.996,0.000
1714027060.710,-24.902,-19.531,-32.227,-35.645,0.000
1714027060.714,-29.297,-16.602,-39.551,-31.738,0.000
1714027060.718,-20.020,-18.555,-34.180,-20.508,0.000
1714027060.722,-12.695,-19.043,-30.273,-22.461,0.000
1714027060.726,-11.230,-20.996,-30.762,-24.902,0.000
1714027060.730,-4.883,-22.461,-27.832,-20.020,0.000
1714027060.733,-2.441,-17.578,-26.367,-19.043,0.000
1714027060.737,-4.395,-15.625,-19.531,-19.043,0.000
1714027060.741,-9.766,-19.043,-16.113,-22.949,0.000
1714027060.745,-20.020,-25.879,-23.926,-22.949,0.000
1714027060.749,-20.020,-24.902,-22.461,-9.766,0.000
1714027060.753,-25.879,-22.461,-22.949,-10.742,0.000
1714027060.757,-34.180,-23.926,-32.227,-19.043,0.000
1714027060.761,-28.320,-21.484,-31.250,-12.207,0.000
1714027060.765,-28.320,-21.973,-27.832,-13.672,0.000
1714027060.769,-27.832,-22.949,-30.273,-18.555,0.000
1714027060.772,-28.809,-23.926,-25.879,-15.137,0.000
1714027060.776,-29.297,-30.762,-22.461,-11.230,0.000
1714027060.780,-28.320,-28.809,-29.785,-13.672,0.000
1714027060.784,-24.902,-19.531,-26.367,-13.672,0.000
1714027060.788,-24.414,-20.996,-27.344,-16.602,0.000
1714027060.792,-25.879,-26.367,-25.391,-20.020,0.000
1714027060.796,-21.973,-31.250,-18.066,-14.160,0.000
1714027060.800,-17.090,-27.344,-18.555,-9.277,0.000
1714027060.804,-15.137,-17.578,-24.414,-12.695,0.000
1714027060.808,-21.484,-23.438,-43.945,-31.738,0.000
1714027060.812,-20.996,-22.949,-44.922,-35.156,0.000
1714027060.815,-20.508,-22.949,-36.133,-24.902,0.000
1714027060.819,-22.949,-24.902,-38.574,-24.414,0.000
1714027060.823,-21.484,-20.996,-37.598,-29.785,0.000
1714027060.827,-22.949,-21.973,-32.715,-34.668,0.000
1714027060.831,-21.973,-27.832,-27.344,-26.855,0.000
1714027060.835,-20.508,-31.250,-19.043,-19.043,0.000
1714027060.839,-15.137,-25.879,-26.855,-22.949,0.000
1714027060.843,-11.230,-19.531,-27.832,-30.273,0.000
1714027060.847,-15.137,-18.555,-17.090,-27.832,0.000
1714027060.851,-12.207,-16.113,-18.066,-18.555,0.000
1714027060.855,-18.555,-22.949,-20.996,-19.531,0.000
1714027060.858,-17.578,-34.668,-24.902,-15.137,0.000
1714027060.862,-5.859,-30.273,-30.762,-8.301,0.000
1714027060.866,-19.531,-21.484,-33.691,-24.414,0.000
1714027060.870,-30.762,-22.949,-37.109,-39.062,0.000
1714027060.874,-29.785,-26.855,-31.738,-36.133,0.000
1714027060.878,-35.645,-25.391,-30.273,-36.133,0.000
1714027060.882,-39.062,-28.809,-34.668,-43.457,0.000
1714027060.886,-39.551,-32.227,-31.250,-37.598,0.000
1714027060.890,-41.504,-20.020,-29.297,-34.180,0.000
1714027060.894,-33.691,-12.695,-26.855,-36.621,0.000
1714027060.898,-26.855,-19.043,-28.809,-33.203,0.000
1714027060.901,-25.879,-25.391,-28.320,-26.367,0.000
1714027060.905,-28.320,-27.344,-32.227,-36.621,0.000
1714027060.909,-36.133,-25.879,-36.621,-45.410,0.000
1714027060.913,-38.086,-28.320,-30.273,-39.551,0.000
1714027060.917,-33.203,-33.691,-30.762,-35.156,0.000
1714027060.921,-34.668,-32.715,-29.297,-28.320,0.000
1714027060.925,-38.574,-27.832,-28.809,-31.250,0.000
1714027060.929,-38.574,-28.320,-32.715,-38.086,0.000
1714027060.933,-39.551,-30.762,-29.297,-38.574,0.000
1714027060.937,-35.645,-28.320,-36.133,-28.320,0.000
1714027060.941,-35.156,-27.344,-40.039,-29.297,0.000
1714027060.944,-39.062,-34.668,-24.414,-37.109,0.000
1714027060.948,-34.668,-28.809,-15.625,-27.344,0.000
1714027060.952,-29.785,-22.461,-20.508,-22.461,0.000
1714027060.956,-32.227,-27.344,-21.484,-33.203,0.000
1714027060.960,-35.156,-24.902,-20.996,-39.062,0.000
1714027060.964,-27.344,-24.414,-34.180,-36.621,0.000
1714027060.968,-20.020,-25.879,-40.039,-32.715,0.000
1714027060.972,-17.090,-26.367,-31.250,-34.668,0.000
1714027060.976,-13.672,-22.461,-26.367,-29.297,0.000
1714027060.980,-13.672,-20.996,-20.020,-26.367,0.000
1714027060.984,-9.766,-18.066,-15.625,-27.344,0.000
1714027060.987,-10.254,-12.207,-17.090,-22.949,0.000
1714027060.991,-15.625,-16.602,-31.250,-25.391,0.000
1714027060.995,-13.672,-21.973,-39.062,-20.020,0.000
1714027060.999,-15.137,-22.461,-35.645,-19.043,0.000
1714027061.003,-16.602,-18.555,-26.855,-21.484,0.000
1714027061.007,-14.648,-13.184,-27.832,-25.391,0.000
1714027061.011,-21.484,-16.602,-36.621,-23.438,0.000
1714027061.015,-20.020,-19.043,-24.414,-15.625,0.000
1714027061.019,-21.484,-19.531,-20.508,-21.973,0.000
1714027061.023,-31.250,-23.438,-33.203,-30.762,0.000
1714027061.026,-29.297,-22.461,-30.273,-31.250,0.000
1714027061.030,-22.949,-24.414,-25.879,-22.461,0.000
1714027061.034,-17.578,-25.391,-20.020,-10.742,0.000
1714027061.038,-21.484,-20.508,-23.438,-15.625,0.000
1714027061.042,-25.391,-15.137,-35.645,-23.926,0.000
1714027061.046,-28.320,-19.043,-24.902,-23.926,0.000
1714027061.050,-30.273,-24.902,-18.555,-21.484,0.000
1714027061.054,-38.574,-21.484,-27.344,-25.391,0.000
1714027061.058,-40.527,-22.949,-35.156,-25.879,0.000
1714027061.062,-41.992,-25.879,-33.691,-31.738,0.000
1714027061.066,-37.598,-20.996,-26.367,-29.785,0.000
1714027061.070,-28.809,-20.996,-23.438,-18.555,0.000
1714027061.073,-30.273,-23.926,-20.020,-21.973,0.000
1714027061.077,-29.297,-21.484,-14.160,-20.996,0.000
1714027061.081,-27.344,-28.809,-21.484,-18.555,0.000
1714027061.085,-29.785,-38.086,-33.691,-20.020,0.000
1714027061.089,-35.156,-37.109,-28.809,-28.320,0.000
1714027061.093,-40.039,-35.156,-29.297,-40.039,0.000
1714027061.097,-39.551,-40.039,-28.809,-40.039,0.000
1714027061.101,-34.180,-36.133,-26.855,-32.227,0.000
1714027061.105,-27.344,-24.414,-28.809,-29.297,0.000
1714027061.109,-27.832,-23.438,-30.762,-35.156,0.000
1714027061.112,-37.109,-30.762,-30.273,-37.598,0.000
1714027061.116,-33.691,-37.598,-32.227,-23.438,0.000
1714027061.120,-27.344,-35.156,-32.227,-26.855,0.000
1714027061.124,-28.809,-27.832,-30.762,-38.086,0.000
1714027061.128,-28.809,-25.391,-32.715,-30.273,0.000
1714027061.132,-27.344,-21.484,-27.832,-20.020,0.000
1714027061.136,-23.438,-19.531,-23.438,-15.625,0.000
1714027061.140,-21.973,-17.578,-24.414,-23.438,0.000
1714027061.144,-25.879,-20.508,-28.320,-25.879,0.000
1714027061.148,-26.855,-24.902,-31.250,-14.648,0.000
1714027061.152,-22.461,-29.297,-26.367,-13.184,0.000
1714027061.155,-24.414,-29.297,-29.297,-21.973,0.000
1714027061.159,-24.902,-21.973,-33.691,-27.344,0.000
1714027061.163,-21.484,-20.020,-29.785,-24.414,0.000
1714027061.167,-23.926,-28.809,-30.762,-22.949,0.000
1714027061.171,-20.508,-24.414,-34.668,-20.020,0.000
1714027061.175,-19.043,-15.137,-31.250,-20.020,0.000
1714027061.179,-20.508,-21.973,-26.367,-29.297,0.000
1714027061.183,-16.113,-23.926,-26.855,-33.203,0.000
1714027061.187,-12.207,-20.508,-27.344,-27.832,0.000
1714027061.191,-17.578,-25.391,-35.645,-28.320,0.000
1714027061.195,-24.414,-27.344,-43.945,-32.715,0.000
1714027061.198,-28.809,-28.320,-30.273,-26.855,0.000
1714027061.202,-25.391,-34.180,-25.391,-19.043,0.000
1714027061.206,-21.973,-32.715,-22.461,-19.043,0.000
1714027061.210,-24.902,-22.949,-19.043,-22.461,0.000
1714027061.214,-22.461,-19.043,-24.902,-18.555,0.000
1714027061.218,-23.438,-22.461,-32.227,-18.555,0.000
1714027061.222,-28.320,-21.973,-33.203,-30.273,0.000
1714027061.226,-30.762,-20.508,-30.762,-38.574,0.000
1714027061.230,-37.109,-21.973,-28.809,-36.133,0.000
1714027061.234,-36.621,-30.273,-24.902,-29.297,0.000
1714027061.237,-33.691,-34.668,-21.484,-30.762,0.000
1714027061.241,-32.715,-31.738,-24.414,-32.227,0.000
1714027061.245,-26.855,-24.902,-33.203,-24.414,0.000
1714027061.249,-22.461,-25.879,-28.320,-24.902,0.000
1714027061.253,-25.879,-29.785,-23.926,-26.367,0.000
1714027061.257,-31.250,-24.902,-37.109,-31.250,0.000
1714027061.261,-31.250,-27.344,-42.969,-32.715,0.000
1714027061.265,-30.273,-27.832,-32.715,-31.738,0.000
1714027061.269,-28.809,-25.391,-31.250,-29.785,0.000
1714027061.273,-24.902,-23.926,-32.715,-21.973,0.000
1714027061.277,-23.926,-19.043,-23.926,-21.484,0.000
1714027061.280,-24.414,-19.531,-21.973,-15.625,0.000
1714027061.284,-23.438,-23.926,-23.438,-17.578,0.000
1714027061.288,-26.367,-23.438,-24.414,-29.785,0.000
1714027061.292,-27.832,-22.949,-26.855,-38.086,0.000
1714027061.296,-29.297,-27.832,-29.297,-32.227,0.000
1714027061.300,-33.203,-25.879,-22.949,-20.020,0.000
1714027061.304,-29.297,-16.602,-19.043,-23.438,0.000
1714027061.308,-26.855,-12.695,-20.508,-27.832,0.000
1714027061.312,-29.297,-21.484,-23.438,-26.855,0.000
1714027061.316,-30.273,-26.367,-31.250,-22.461,0.000
1714027061.320,-27.832,-18.066,-30.273,-20.508,0.000
1714027061.323,-24.414,-19.531,-37.109,-24.414,0.000
1714027061.327,-27.344,-27.344,-33.203,-25.391,0.000
1714027061.331,-32.715,-27.344,-21.484,-18.066,0.000
1714027061.335,-33.203,-24.902,-21.973,-10.254,0.000
1714027061.339,-29.297,-32.715,-16.113,-12.207,0.000
1714027061.343,-31.738,-36.133,-20.020,-17.578,0.000
1714027061.347,-37.109,-31.738,-28.320,-22.949,0.000
1714027061.351,-31.250,-32.227,-27.344,-21.973,0.000
1714027061.355,-25.879,-26.367,-28.320,-17.578,0.000
1714027061.359,-27.832,-26.855,-31.738,-23.926,0.000
1714027061.363,-26.855,-30.762,-29.297,-21.973,0.000
1714027061.366,-23.926,-28.809,-23.438,-12.695,0.000
1714027061.370,-26.367,-33.203,-31.250,-19.043,0.000
1714027061.374,-30.762,-35.156,-37.598,-28.320,0.000
1714027061.378,-30.273,-32.715,-32.227,-29.785,0.000
1714027061.382,-24.902,-35.156,-32.715,-31.250,0.000
1714027061.386,-19.531,-41.016,-33.691,-27.832,0.000
1714027061.390,-15.625,-28.809,-31.250,-26.367,0.000
1714027061.394,-12.207,-19.531,-22.949,-34.668,0.000
1714027061.398,-9.766,-24.414,-21.973,-23.438,0.000
1714027061.402,-9.766,-26.367,-26.855,-16.602,0.000
1714027061.405,-20.996,-31.250,-31.250,-30.762,0.000
1714027061.409,-30.762,-29.785,-31.250,-29.297,0.000
1714027061.413,-36.133,-30.762,-26.855,-25.391,0.000
1714027061.417,-36.133,-36.133,-31.250,-26.855,0.000
1714027061.421,-36.133,-34.668,-35.645,-26.855,0.000
1714027061.425,-38.574,-30.273,-27.344,-28.320,0.000
1714027061.429,-37.109,-30.762,-23.926,-30.762,0.000
1714027061.433,-36.133,-25.879,-31.250,-25.391,0.000
1714027061.437,-40.527,-27.344,-26.855,-32.227,0.000
1714027061.441,-45.410,-30.762,-31.738,-42.480,0.000
1714027061.445,-45.898,-26.855,-37.109,-37.598,0.000
1714027061.448,-43.457,-27.344,-37.109,-34.180,0.000
1714027061.452,-41.504,-30.273,-32.227,-35.156,0.000
1714027061.456,-35.645,-27.344,-23.926,-33.691,0.000
1714027061.460,-33.691,-26.855,-31.250,-38.086,0.000
1714027061.464,-33.203,-26.855,-32.227,-32.715,0.000
1714027061.468,-29.297,-26.367,-25.879,-21.973,0.000
1714027061.472,-32.227,-31.738,-19.043,-29.297,0.000
1714027061.476,-36.621,-29.785,-22.461,-32.227,0.000
1714027061.480,-40.039,-27.832,-32.227,-24.414,0.000
1714027061.484,-33.691,-27.832,-24.902,-19.531,0.000
1714027061.488,-26.367,-28.320,-16.602,-21.484,0.000
1714027061.491,-29.785,-32.715,-20.020,-23.438,0.000
1714027061.495,-31.250,-33.203,-24.902,-22.461,0.000
1714027061.499,-23.926,-26.855,-29.297,-18.555,0.000
1714027061.503,-26.367,-25.391,-41.504,-21.484,0.000
1714027061.507,-27.344,-25.391,-36.621,-26.367,0.000
1714027061.511,-22.949,-26.367,-20.508,-20.996,0.000
1714027061.515,-22.461,-22.461,-17.090,-13.672,0.000
1714027061.519,-23.438,-24.902,-19.531,-19.531,0.000
1714027061.523,-22.949,-26.367,-29.297,-22.461,0.000
1714027061.527,-29.785,-28.809,-29.785,-24.902,0.000
1714027061.530,-31.250,-34.668,-20.996,-25.391,0.000
1714027061.534,-31.250,-32.715,-17.090,-25.879,0.000
1714027061.538,-37.598,-29.297,-23.926,-36.621,0.000
1714027061.542,-38.574,-27.344,-25.879,-37.598,0.000
1714027061.546,-44.434,-32.715,-29.297,-32.227,0.000
1714027061.550,-42.969,-28.809,-30.762,-29.297,0.000
1714027061.554,-27.832,-27.832,-19.531,-27.344,0.000
1714027061.558,-22.461,-25.879,-14.648,-25.391,0.000
1714027061.562,-25.391,-28.320,-20.020,-27.344,0.000
1714027061.566,-23.926,-35.156,-25.879,-21.484,0.000
1714027061.570,-23.926,-26.367,-23.926,-16.113,0.000
1714027061.573,-25.391,-21.973,-26.855,-27.344,0.000
1714027061.577,-29.297,-25.879,-25.879,-37.109,0.000
1714027061.581,-35.645,-34.180,-24.902,-32.715,0.000
1714027061.585,-29.785,-29.297,-35.156,-28.320,0.000
1714027061.589,-24.902,-23.926,-31.250,-32.715,0.000
1714027061.593,-32.227,-25.879,-26.367,-35.645,0.000
1714027061.597,-34.668,-33.691,-37.109,-37.109,0.000
1714027061.601,-34.180,-39.062,-42.480,-35.156,0.000
1714027061.605,-25.391,-26.855,-29.785,-27.344,0.000
1714027061.609,-18.066,-19.043,-21.484,-20.020,0.000
1714027061.613,-27.832,-25.879,-29.297,-20.996,0.000
1714027061.616,-27.832,-26.367,-33.203,-17.090,0.000
1714027061.620,-22.949,-23.438,-30.762,-20.020,0.000
1714027061.624,-22.461,-21.973,-30.273,-24.902,0.000
1714027061.628,-22.949,-20.996,-32.715,-16.113,0.000
1714027061.632,-29.297,-20.508,-31.250,-17.578,0.000
1714027061.636,-28.320,-18.555,-29.785,-28.320,0.000
1714027061.640,-14.648,-20.996,-23.926,-19.043,0.000
1714027061.644,-14.160,-24.902,-19.043,-20.020,0.000
1714027061.648,-34.180,-31.250,-20.508,-40.039,0.000
1714027061.652,-42.480,-35.156,-25.391,-38.086,0.000
1714027061.656,-33.691,-35.645,-20.996,-27.832,0.000
1714027061.659,-32.227,-34.180,-14.160,-27.832,0.000
1714027061.663,-33.203,-32.227,-23.926,-20.996,0.000
1714027061.667,-26.855,-35.645,-20.020,-21.973,0.000
1714027061.671,-29.785,-38.574,-12.207,-23.926,0.000
1714027061.675,-35.645,-35.645,-25.391,-21.484,0.000
1714027061.679,-28.809,-31.250,-30.762,-22.461,0.000
1714027061.683,-27.344,-34.668,-26.367,-14.160,0.000
1714027061.687,-30.273,-38.086,-31.250,-17.090,0.000
1714027061.691,-25.391,-32.715,-27.344,-22.461,0.000
1714027061.695,-28.809,-29.297,-21.484,-24.902,0.000
1714027061.699,-26.855,-30.762,-18.066,-21.484,0.000
1714027061.702,-26.367,-29.785,-21.973,-20.996,0.000
1714027061.706,-31.738,-29.785,-26.855,-27.832,0.000
1714027061.710,-33.691,-28.320,-22.461,-26.855,0.000
1714027061.714,-30.273,-27.832,-26.855,-19.531,0.000
1714027061.718,-22.949,-24.902,-29.297,-16.602,0.000
1714027061.722,-22.949,-23.926,-17.578,-22.461,0.000
1714027061.726,-18.555,-24.414,-14.648,-14.648,0.000
1714027061.730,-20.508,-24.414,-19.531,-11.230,0.000
1714027061.734,-29.785,-25.879,-19.531,-20.996,0.000
1714027061.738,-28.320,-24.414,-21.973,-19.531,0.000
1714027061.741,-24.902,-26.367,-29.785,-17.090,0.000
1714027061.745,-28.809,-31.250,-25.879,-13.184,0.000
1714027061.749,-23.926,-26.367,-14.648,-1.953,0.000
1714027061.753,-12.207,-13.184,-13.184,-4.395,0.000
1714027061.757,-16.602,-15.625,-21.484,-19.531,0.000
1714027061.761,-23.438,-20.508,-23.926,-17.090,0.000
1714027061.765,-19.531,-18.555,-18.066,-12.207,0.000
1714027061.769,-10.254,-19.531,-21.973,-11.719,0.000
1714027061.773,-15.625,-19.043,-32.227,-24.414,0.000
1714027061.777,-23.438,-17.578,-39.551,-31.738,0.000
1714027061.781,-19.043,-22.461,-35.645,-22.949,0.000
1714027061.784,-20.996,-22.461,-28.320,-24.414,0.000
1714027061.788,-19.043,-24.902,-28.320,-20.508,0.000
1714027061.792,-18.555,-30.762,-31.738,-18.066,0.000
1714027061.796,-25.391,-30.762,-31.738,-24.902,0.000
1714027061.800,-26.367,-29.297,-30.762,-24.902,0.000
1714027061.804,-28.320,-28.320,-33.203,-24.902,0.000
1714027061.808,-35.156,-29.785,-28.320,-26.855,0.000
1714027061.812,-34.668,-26.367,-21.973,-30.762,0.000
1714027061.816,-26.367,-20.020,-16.113,-27.344,0.000
1714027061.820,-27.344,-21.973,-13.672,-17.578,0.000
1714027061.824,-29.297,-25.391,-19.043,-19.531,0.000
1714027061.827,-35.156,-27.344,-29.297,-26.855,0.000
1714027061.831,-37.109,-28.809,-37.598,-28.809,0.000
1714027061.835,-35.156,-27.832,-29.297,-27.344,0.000
1714027061.839,-34.668,-32.715,-26.855,-22.949,0.000
1714027061.843,-34.668,-33.691,-35.645,-22.949,0.000
1714027061.847,-38.574,-33.203,-28.809,-35.645,0.000
1714027061.851,-30.273,-35.645,-20.996,-30.273,0.000
1714027061.855,-20.996,-25.879,-19.043,-18.066,0.000
1714027061.859,-24.414,-20.020,-19.043,-27.344,0.000
1714027061.863,-24.902,-20.020,-30.762,-26.855,0.000
1714027061.866,-17.578,-21.973,-26.367,-15.625,0.000
1714027061.870,-20.996,-27.832,-18.555,-22.461,0.000
1714027061.874,-28.809,-30.273,-27.344,-35.645,0.000
1714027061.878,-33.203,-30.273,-28.320,-29.785,0.000
1714027061.882,-39.062,-29.297,-24.414,-33.691,0.000
1714027061.886,-33.691,-25.391,-26.367,-31.250,0.000
1714027061.890,-21.973,-31.250,-24.902,-26.855,0.000
1714027061.894,-21.973,-33.203,-24.902,-25.879,0.000
1714027061.898,-30.273,-30.762,-34.180,-18.555,0.000
1714027061.902,-30.273,-27.344,-35.645,-19.531,0.000
1714027061.906,-24.414,-19.043,-23.926,-19.043,0.000
1714027061.909,-28.320,-19.531,-15.625,-26.367,0.000
1714027061.913,-33.691,-22.949,-22.461,-29.785,0.000
1714027061.917,-28.320,-21.484,-15.137,-11.719,0.000
1714027061.921,-24.902,-24.414,-13.672,-15.625,0.000
1714027061.925,-22.461,-25.391,-26.855,-17.090,0.000
1714027061.929,-22.461,-29.297,-25.879,-17.090,0.000
1714027061.933,-26.367,-26.367,-23.926,-21.484,0.000
1714027061.937,-26.855,-24.902,-27.344,-18.555,0.000
1714027061.941,-32.227,-29.297,-27.344,-28.320,0.000
1714027061.945,-34.668,-22.461,-23.438,-36.133,0.000
1714027061.948,-28.809,-25.391,-19.531,-25.879,0.000
1714027061.952,-27.832,-26.367,-20.020,-22.949,0.000
1714027061.956,-30.273,-27.832,-24.414,-22.461,0.000
1714027061.960,-30.273,-28.809,-25.879,-24.414,0.000
1714027061.964,-28.809,-30.762,-21.484,-26.367,0.000
1714027061.968,-25.391,-32.227,-24.902,-20.020,0.000
1714027061.972,-27.832,-29.785,-34.180,-24.414,0.000
1714027061.976,-30.762,-26.367,-28.320,-23.926,0.000
1714027061.980,-29.785,-25.391,-17.090,-15.625,0.000
1714027061.984,-28.809,-32.715,-12.207,-14.160,0.000
1714027061.988,-31.738,-35.645,-17.090,-19.531,0.000
1714027061.991,-39.062,-33.691,-20.508,-28.809,0.000
1714027061.995,-39.062,-33.203,-20.996,-29.785,0.000
1714027061.999,-33.203,-32.715,-27.832,-24.414,0.000
1714027062.003,-32.227,-27.832,-22.949,-28.809,0.000
1714027062.007,-31.738,-22.461,-14.648,-34.668,0.000
1714027062.011,-32.227,-27.344,-17.578,-29.297,0.000
1714027062.015,-26.855,-29.297,-23.438,-26.855,0.000
1714027062.019,-29.297,-28.809,-22.461,-24.902,0.000
1714027062.023,-36.133,-28.320,-21.973,-33.203,0.000
1714027062.027,-37.109,-28.809,-28.809,-30.762,0.000
1714027062.031,-35.645,-23.926,-29.297,-17.090,0.000
1714027062.034,-29.785,-22.461,-25.879,-21.973,0.000
1714027062.038,-31.250,-29.297,-21.973,-27.344,0.000
1714027062.042,-38.086,-33.691,-24.902,-29.297,0.000
1714027062.046,-39.551,-32.227,-26.855,-24.902,0.000
1714027062.050,-35.156,-32.715,-20.996,-14.160,0.000
1714027062.054,-35.645,-35.156,-28.809,-23.926,0.000
1714027062.058,-39.551,-33.691,-33.691,-36.621,0.000
1714027062.062,-38.574,-28.320,-30.273,-34.180,0.000
1714027062.066,-32.715,-25.879,-32.227,-31.738,0.000
1714027062.070,-22.949,-23.926,-18.555,-33.691,0.000
1714027062.074,-20.020,-25.879,-9.766,-37.598,0.000
1714027062.077,-20.996,-29.297,-25.391,-35.156,0.000
1714027062.081,-20.996,-25.879,-29.785,-30.273,0.000
1714027062.085,-29.297,-20.508,-20.020,-27.344,0.000
1714027062.089,-36.621,-36.621,-20.996,-25.391,0.000
1714027062.093,-31.738,-42.480,-22.949,-20.020,0.000
1714027062.097,-33.203,-30.273,-14.160,-27.344,0.000
1714027062.101,-35.645,-25.879,-16.602,-32.227,0.000
1714027062.105,-35.156,-24.902,-26.367,-28.320,0.000
1714027062.109,-35.156,-24.902,-23.926,-24.414,0.000
1714027062.113,-31.738,-25.391,-26.855,-21.973,0.000
1714027062.116,-34.180,-29.297,-32.227,-25.391,0.000
1714027062.120,-36.621,-28.809,-20.508,-26.855,0.000
1714027062.124,-30.762,-26.367,-14.648,-23.438,0.000
1714027062.128,-33.203,-31.250,-27.344,-19.043,0.000
1714027062.132,-36.621,-32.715,-30.762,-19.531,0.000
1714027062.136,-34.668,-33.203,-27.344,-15.625,0.000
1714027062.140,-35.645,-36.621,-26.367,-18.555,0.000
1714027062.144,-35.156,-31.250,-26.855,-34.668,0.000
1714027062.148,-27.832,-25.391,-24.414,-25.391,0.000
1714027062.152,-23.926,-28.809,-21.484,-14.160,0.000
1714027062.156,-26.855,-29.297,-24.902,-27.344,0.000
1714027062.159,-26.855,-25.879,-26.367,-25.879,0.000
1714027062.163,-34.668,-28.320,-30.762,-30.762,0.000
1714027062.167,-38.574,-33.691,-40.527,-39.551,0.000
1714027062.171,-29.785,-28.809,-32.227,-32.715,0.000
1714027062.175,-30.273,-22.461,-11.719,-31.738,0.000
1714027062.179,-31.250,-24.414,-14.648,-26.367,0.000
1714027062.183,-28.809,-28.320,-28.320,-19.531,0.000
1714027062.187,-33.203,-24.414,-22.949,-27.344,0.000
1714027062.191,-38.574,-20.996,-26.367,-39.062,0.000
1714027062.195,-41.504,-24.902,-37.598,-38.086,0.000
1714027062.198,-41.504,-33.691,-31.738,-30.762,0.000
1714027062.202,-39.551,-35.156,-25.879,-28.809,0.000
1714027062.206,-37.109,-34.180,-31.738,-38.086,0.000
1714027062.210,-27.832,-35.156,-34.180,-40.527,0.000
1714027062.214,-29.297,-36.621,-41.504,-33.691,0.000
1714027062.218,-27.344,-26.855,-42.480,-30.762,0.000
1714027062.222,-22.461,-20.996,-38.086,-34.668,0.000
1714027062.226,-25.391,-30.762,-42.969,-36.133,0.000
1714027062.230,-28.320,-29.297,-36.621,-35.645,0.000
1714027062.234,-32.227,-27.344,-29.785,-40.527,0.000
1714027062.238,-30.762,-27.832,-29.297,-45.410,0.000
1714027062.241,-31.738,-29.785,-35.645,-48.340,0.000
1714027062.245,-36.621,-26.367,-34.180,-41.016,0.000
1714027062.249,-41.016,-20.020,-21.973,-37.598,0.000
1714027062.253,-44.922,-27.344,-30.273,-40.527,0.000
1714027062.257,-53.223,-34.668,-30.762,-52.246,0.000
1714027062.261,-62.012,-32.227,-19.531,-63.965,0.000
1714027062.265,-73.730,-29.785,-18.066,-77.148,0.000
1714027062.269,-82.031,-33.691,-16.113,-78.125,0.000
1714027062.273,-84.473,-36.133,-18.066,-77.637,0.000
1714027062.277,-94.727,-28.809,-12.695,-91.797,0.000
1714027062.280,-100.098,-22.949,-5.859,-94.238,0.000
1714027062.284,-101.562,-23.438,-5.859,-93.750,0.000
1714027062.288,-104.980,-29.297,-2.441,-99.121,0.000
1714027062.292,-107.422,-28.809,-6.836,-107.910,0.000
1714027062.296,-104.980,-22.461,-0.488,-103.027,0.000
1714027062.300,-104.980,-22.949,4.883,-94.238,0.000
1714027062.304,-104.980,-23.926,5.371,-101.562,0.000
1714027062.308,-104.004,-21.973,18.066,-107.422,0.000
1714027062.312,-110.840,-22.949,14.648,-104.980,0.000
1714027062.316,-100.586,-18.555,7.812,-94.238,0.000
1714027062.320,-89.355,-13.672,11.230,-91.309,0.000
1714027062.323,-93.262,-14.160,8.301,-97.168,0.000
1714027062.327,-81.055,-18.066,4.395,-83.984,0.000
1714027062.331,-70.801,-22.949,0.977,-73.730,0.000
1714027062.335,-72.754,-23.926,1.953,-73.730,0.000
1714027062.339,-74.219,-23.438,-3.906,-75.195,0.000
1714027062.343,-69.336,-25.391,-13.184,-67.383,0.000
1714027062.347,-62.500,-27.344,-12.207,-57.617,0.000
1714027062.351,-62.012,-25.879,-14.648,-56.152,0.000
1714027062.355,-56.641,-26.367,-15.137,-55.176,0.000
1714027062.359,-41.992,-20.508,-13.672,-46.875,0.000
1714027062.363,-38.086,-11.230,-10.742,-47.363,0.000
1714027062.366,-32.227,-8.301,-13.672,-39.551,0.000
1714027062.370,-41.016,-21.973,-25.391,-41.992,0.000
1714027062.374,-60.547,-33.691,-23.926,-60.547,0.000
1714027062.378,-64.453,-27.832,-13.672,-57.617,0.000
1714027062.382,-72.754,-23.438,-10.254,-59.082,0.000
1714027062.386,-83.008,-25.879,-20.996,-77.148,0.000
1714027062.390,-83.984,-31.250,-19.531,-84.961,0.000
1714027062.394,-92.773,-31.738,-11.719,-94.238,0.000
1714027062.398,-108.887,-28.320,-7.324,-105.469,0.000
1714027062.402,-101.074,-31.738,0.977,-95.703,0.000
1714027062.406,-103.027,-34.668,6.836,-91.309,0.000
1714027062.409,-104.004,-30.273,2.441,-94.238,0.000
1714027062.413,-103.516,-26.367,1.465,-98.145,0.000
1714027062.417,-105.469,-22.461,5.859,-93.750,0.000
1714027062.421,-97.168,-23.926,2.930,-83.984,0.000
1714027062.425,-98.633,-25.879,-0.977,-94.727,0.000
1714027062.429,-103.027,-24.414,-3.906,-102.051,0.000
1714027062.433,-101.074,-29.297,-4.883,-93.750,0.000
1714027062.437,-83.984,-33.203,-0.977,-79.102,0.000
1714027062.441,-66.895,-27.832,-6.348,-71.289,0.000
1714027062.445,-62.988,-22.949,-15.137,-73.242,0.000
1714027062.449,-58.105,-22.461,-19.531,-67.871,0.000
1714027062.452,-53.223,-21.484,-28.320,-59.082,0.000
1714027062.456,-50.293,-27.344,-27.344,-56.152,0.000
1714027062.460,-46.387,-33.203,-29.785,-57.129,0.000
1714027062.464,-42.480,-31.250,-42.480,-48.340,0.000
1714027062.468,-37.598,-29.785,-40.527,-31.250,0.000
1714027062.472,-27.832,-30.273,-27.832,-25.391,0.000
1714027062.476,-19.531,-30.762,-24.414,-26.855,0.000
1714027062.480,-14.648,-31.738,-38.574,-20.020,0.000
1714027062.484,-1.465,-31.738,-51.758,-9.277,0.000
1714027062.488,5.859,-28.320,-43.945,-5.859,0.000
1714027062.492,1.465,-28.320,-35.645,-6.836,0.000
1714027062.495,0.977,-33.691,-45.410,-5.859,0.000
1714027062.499,4.395,-30.762,-51.270,1.953,0.000
1714027062.503,-0.977,-29.297,-51.758,0.488,0.000
1714027062.507,2.441,-30.762,-50.781,0.488,0.000
1714027062.511,8.789,-33.691,-51.758,15.625,0.000
1714027062.515,10.742,-38.086,-51.270,18.066,0.000
1714027062.519,15.137,-32.227,-50.781,5.371,0.000
1714027062.523,18.555,-28.320,-57.617,6.348,0.000
1714027062.527,23.438,-38.574,-60.547,11.230,0.000
1714027062.531,21.973,-45.410,-57.617,15.137,0.000
1714027062.534,24.414,-34.668,-48.340,23.438,0.000
1714027062.538,35.645,-27.832,-42.969,26.367,0.000
1714027062.542,35.156,-27.832,-43.945,21.484,0.000
1714027062.546,26.367,-28.809,-50.293,19.043,0.000
1714027062.550,24.414,-27.832,-55.664,17.578,0.000
1714027062.554,25.391,-32.227,-56.152,16.602,0.000
1714027062.558,25.879,-35.156,-58.105,14.648,0.000
1714027062.562,26.367,-25.391,-51.270,15.625,0.000
1714027062.566,22.949,-23.926,-49.316,15.625,0.000
1714027062.570,20.020,-30.762,-51.270,14.160,0.000
1714027062.574,19.043,-33.691,-55.664,7.812,0.000
1714027062.577,13.184,-34.668,-57.129,8.789,0.000
1714027062.581,20.996,-25.879,-52.246,22.949,0.000
1714027062.585,26.367,-22.461,-51.758,28.320,0.000
1714027062.589,13.672,-24.902,-48.828,13.184,0.000
1714027062.593,8.301,-25.879,-47.852,13.672,0.000
1714027062.597,13.184,-25.879,-50.781,19.531,0.000
1714027062.601,11.230,-30.273,-43.457,19.531,0.000
1714027062.605,9.277,-29.297,-42.480,22.461,0.000
1714027062.609,13.184,-23.926,-52.246,12.207,0.000
1714027062.613,12.695,-25.879,-54.688,13.184,0.000
1714027062.617,9.766,-30.762,-48.828,20.508,0.000
1714027062.620,11.719,-28.320,-46.875,12.695,0.000
1714027062.624,10.254,-24.902,-46.875,8.789,0.000
1714027062.628,8.301,-26.367,-44.434,14.160,0.000
1714027062.632,7.812,-22.949,-40.527,19.531,0.000
1714027062.636,4.395,-25.391,-35.645,16.602,0.000
1714027062.640,1.953,-24.414,-40.039,8.301,0.000
1714027062.644,1.465,-28.320,-45.898,8.301,0.000
1714027062.648,-0.977,-33.691,-44.434,11.719,0.000
1714027062.652,-4.883,-25.879,-41.016,5.371,0.000
1714027062.656,-4.883,-22.461,-40.039,3.418,0.000
1714027062.659,-7.812,-24.902,-36.621,11.719,0.000
1714027062.663,-16.113,-30.273,-35.645,8.789,0.000
1714027062.667,-15.625,-28.809,-38.574,3.418,0.000
1714027062.671,-2.441,-16.602,-41.016,11.719,0.000
1714027062.675,0.000,-11.230,-39.551,3.418,0.000
1714027062.679,-3.906,-16.602,-42.480,-5.859,0.000
1714027062.683,-0.977,-18.066,-44.434,2.441,0.000
1714027062.687,0.488,-16.113,-38.086,1.953,0.000
1714027062.691,0.977,-16.602,-36.133,3.418,0.000
1714027062.695,-9.277,-23.438,-41.504,-0.977,0.000
1714027062.698,-11.230,-21.973,-42.969,-6.348,0.000
1714027062.702,-4.883,-16.113,-34.180,-2.441,0.000
1714027062.706,-6.348,-17.090,-37.598,0.977,0.000
1714027062.710,-11.719,-19.043,-47.852,-7.812,0.000
1714027062.714,-12.207,-22.949,-43.945,-14.160,0.000
1714027062.718,-5.859,-23.926,-40.039,-4.883,0.000
1714027062.722,-8.789,-29.297,-36.133,-9.277,0.000
1714027062.726,-19.043,-30.273,-32.227,-21.484,0.000
1714027062.730,-20.508,-19.043,-28.320,-15.625,0.000
1714027062.734,-12.695,-20.020,-27.832,-9.766,0.000
1714027062.738,-16.113,-25.391,-39.062,-14.160,0.000
1714027062.741,-21.973,-24.414,-41.992,-14.648,0.000
1714027062.745,-20.020,-22.949,-37.109,-10.254,0.000
1714027062.749,-21.973,-23.438,-46.875,-1.953,0.000
1714027062.753,-27.344,-24.414,-52.734,-2.930,0.000
1714027062.757,-21.484,-25.879,-41.504,-18.066,0.000
1714027062.761,-19.043,-25.879,-29.785,-18.066,0.000
1714027062.765,-20.508,-21.973,-27.344,-12.207,0.000
1714027062.769,-22.949,-24.414,-30.762,-16.113,0.000
1714027062.773,-22.949,-22.949,-36.133,-18.555,0.000
1714027062.777,-22.461,-19.531,-40.527,-20.020,0.000
1714027062.781,-20.996,-21.484,-40.039,-18.555,0.000
1714027062.784,-7.812,-23.438,-35.156,-9.766,0.000
1714027062.788,-8.301,-24.902,-24.414,-13.672,0.000
1714027062.792,-13.672,-20.020,-22.461,-20.996,0.000
1714027062.796,-12.207,-15.625,-25.879,-8.789,0.000
1714027062.800,-19.043,-19.043,-37.598,-7.324,0.000
1714027062.804,-23.926,-23.926,-41.992,-23.438,0.000
1714027062.808,-19.531,-25.879,-39.062,-27.344,0.000
1714027062.812,-18.555,-33.203,-41.016,-23.926,0.000
1714027062.816,-17.578,-30.273,-31.738,-20.020,0.000
1714027062.820,-14.648,-26.855,-25.391,-22.461,0.000
1714027062.824,-17.578,-34.668,-27.344,-30.273,0.000
1714027062.827,-17.090,-29.297,-37.598,-28.809,0.000
1714027062.831,-17.578,-27.344,-40.527,-26.367,0.000
1714027062.835,-14.160,-30.762,-36.621,-26.367,0.000
1714027062.839,-10.254,-29.785,-40.039,-27.344,0.000
1714027062.843,-9.766,-24.902,-33.691,-25.391,0.000
1714027062.847,-10.254,-17.578,-23.438,-14.160,0.000
1714027062.851,-7.812,-14.648,-28.809,-14.160,0.000
1714027062.855,-8.789,-17.578,-35.156,-16.113,0.000
1714027062.859,-22.461,-20.020,-26.367,-18.555,0.000
1714027062.863,-29.297,-19.531,-28.320,-20.996,0.000
1714027062.867,-19.043,-17.090,-34.180,-12.695,0.000
1714027062.870,-19.531,-18.066,-35.156,-19.531,0.000
1714027062.874,-27.344,-20.996,-43.945,-31.738,0.000
1714027062.878,-27.344,-22.949,-40.527,-31.250,0.000
1714027062.882,-21.484,-20.508,-27.344,-27.344,0.000
1714027062.886,-24.414,-20.996,-31.250,-22.461,0.000
1714027062.890,-34.180,-22.949,-34.180,-24.902,0.000
1714027062.894,-38.086,-22.949,-32.715,-26.367,0.000
1714027062.898,-38.086,-28.809,-41.992,-23.926,0.000
1714027062.902,-32.715,-32.227,-37.598,-24.902,0.000
1714027062.906,-15.625,-30.273,-27.832,-13.672,0.000
1714027062.909,-13.184,-26.367,-25.879,-13.184,0.000
1714027062.913,-31.250,-24.902,-23.926,-33.691,0.000
1714027062.917,-31.250,-32.715,-24.414,-34.668,0.000
1714027062.921,-25.879,-34.180,-28.809,-27.832,0.000
1714027062.925,-28.809,-30.273,-42.969,-33.203,0.000
1714027062.929,-35.645,-27.832,-47.852,-37.109,0.000
1714027062.933,-39.062,-26.367,-44.922,-21.484,0.000
1714027062.937,-29.785,-24.902,-30.762,-11.230,0.000
1714027062.941,-27.344,-26.855,-27.344,-28.809,0.000
1714027062.945,-29.785,-31.250,-41.016,-32.227,0.000
1714027062.949,-27.344,-22.461,-36.133,-20.508,0.000
1714027062.952,-22.461,-20.508,-27.832,-22.949,0.000
1714027062.956,-21.973,-23.438,-24.414,-27.344,0.000
1714027062.960,-28.320,-24.902,-26.855,-27.344,0.000
1714027062.964,-23.926,-23.438,-23.438,-21.973,0.000
1714027062.968,-16.602,-20.020,-18.555,-16.113,0.000
1714027062.972,-19.531,-22.949,-23.438,-17.090,0.000
1714027062.976,-25.391,-25.391,-28.809,-20.508,0.000
1714027062.980,-26.367,-23.438,-27.344,-22.461,0.000
1714027062.984,-22.949,-21.484,-22.461,-17.090,0.000
1714027062.988,-19.043,-23.438,-21.484,-13.184,0.000
1714027062.991,-11.230,-25.879,-26.855,-18.066,0.000
1714027062.995,-13.672,-29.297,-23.926,-10.742,0.000
1714027062.999,-19.531,-27.344,-18.066,-16.113,0.000
1714027063.003,-16.113,-24.902,-29.785,-26.367,0.000
1714027063.007,-14.160,-28.809,-39.551,-21.973,0.000
1714027063.011,-18.066,-30.273,-36.133,-23.926,0.000
1714027063.015,-15.137,-27.832,-23.926,-19.043,0.000
1714027063.019,-8.789,-24.902,-18.066,-11.719,0.000
1714027063.023,-13.184,-21.484,-24.414,-16.113,0.000
1714027063.027,-11.230,-22.461,-22.461,-20.020,0.000
1714027063.031,-14.648,-30.273,-19.531,-20.508,0.000
1714027063.034,-11.719,-26.855,-23.438,-18.555,0.000
1714027063.038,-7.812,-17.090,-29.297,-22.461,0.000
1714027063.042,-24.414,-20.020,-34.180,-35.645,0.000
1714027063.046,-28.809,-22.949,-31.738,-34.668,0.000
1714027063.050,-14.648,-27.832,-29.785,-20.996,0.000
1714027063.054,-13.184,-31.250,-27.832,-22.949,0.000
1714027063.058,-20.020,-23.438,-31.738,-39.551,0.000
1714027063.062,-19.043,-17.578,-34.180,-39.062,0.000
1714027063.066,-22.949,-22.949,-32.227,-30.762,0.000
1714027063.070,-23.438,-21.973,-32.715,-27.832,0.000
1714027063.073,-18.066,-23.926,-27.344,-29.785,0.000
1714027063.077,-14.160,-27.344,-23.926,-26.367,0.000
1714027063.081,-17.090,-28.320,-25.879,-19.531,0.000
1714027063.085,-25.879,-26.855,-19.531,-29.297,0.000
1714027063.089,-24.902,-23.926,-19.531,-31.250,0.000
1714027063.093,-21.973,-26.367,-28.809,-23.438,0.000
1714027063.097,-18.066,-21.973,-27.344,-24.414,0.000
1714027063.101,-17.090,-29.785,-23.438,-27.344,0.000
1714027063.105,-20.020,-35.645,-31.250,-34.180,0.000
1714027063.109,-17.090,-31.738,-36.621,-35.156,0.000
1714027063.113,-17.090,-36.133,-35.156,-31.250,0.000
1714027063.116,-18.066,-38.086,-30.273,-27.344,0.000
1714027063.120,-11.719,-31.250,-26.855,-27.832,0.000
1714027063.124,-16.602,-27.344,-36.133,-32.227,0.000
1714027063.128,-25.391,-31.250,-47.363,-29.785,0.000
1714027063.132,-26.367,-28.809,-34.668,-25.391,0.000
1714027063.136,-20.020,-24.414,-21.484,-22.461,0.000
1714027063.140,-13.672,-23.926,-20.996,-20.996,0.000
1714027063.144,-19.043,-30.273,-18.555,-26.855,0.000
1714027063.148,-24.414,-34.180,-25.879,-27.832,0.000
1714027063.152,-21.484,-30.762,-34.668,-24.902,0.000
1714027063.156,-20.996,-31.738,-33.203,-26.855,0.000
1714027063.159,-30.273,-30.273,-27.832,-32.715,0.000
1714027063.163,-32.715,-30.273,-26.367,-29.297,0.000
1714027063.167,-22.949,-31.250,-33.203,-28.320,0.000
1714027063.171,-24.414,-29.785,-29.297,-31.738,0.000
1714027063.175,-26.367,-29.785,-21.484,-27.832,0.000
1714027063.179,-22.461,-34.180,-29.297,-34.668,0.000
1714027063.183,-24.414,-32.715,-29.785,-34.668,0.000
1714027063.187,0.000,-30.273,-26.855,-25.879,0.000
1714027063.191,0.000,-28.809,-22.949,-24.902,0.000
1714027063.195,0.000,-31.250,-22.949,-28.809,0.000
1714027063.199,0.000,-32.227,-27.832,-30.273,0.000
1714027063.202,0.000,-20.508,-18.066,-20.996,0.000
1714027063.206,0.000,-24.414,-21.973,-27.344,0.000
1714027063.210,0.000,-32.715,-32.715,-39.551,0.000
1714027063.214,0.000,-31.738,-29.785,-24.902,0.000
1714027063.218,0.000,-28.809,-22.949,-18.555,0.000
1714027063.222,0.000,-21.973,-20.996,-31.250,0.000
1714027063.226,0.000,-21.973,-20.020,-30.762,0.000
1714027063.230,0.000,-28.809,-25.879,-24.414,0.000
1714027063.234,-27.832,-33.691,-28.809,-29.297,0.000
1714027063.238,-25.391,-30.273,-26.367,-27.832,0.000
1714027063.242,-23.438,-24.902,-31.250,-25.879,0.000
1714027063.245,-23.438,-22.461,-31.250,-22.949,0.000
1714027063.249,-22.461,-21.973,-27.344,-13.184,0.000
1714027063.253,-18.066,-24.414,-28.320,-7.324,0.000
1714027063.257,-19.043,-22.949,-27.344,-17.578,0.000
1714027063.261,-25.879,-22.461,-27.344,-18.555,0.000
1714027063.265,-22.949,-28.809,-32.715,-14.648,0.000
1714027063.269,-27.344,-31.738,-36.621,-35.156,0.000
1714027063.273,-33.203,-30.762,-38.086,-40.039,0.000
1714027063.277,-27.832,-25.879,-29.785,-31.738,0.000
1714027063.281,-34.180,-23.438,-25.391,-33.203,0.000
1714027063.284,-34.180,-23.926,-27.344,-28.809,0.000
1714027063.288,-27.832,-22.949,-29.297,-24.414,0.000
1714027063.292,-35.156,-26.367,-34.180,-35.645,0.000
1714027063.296,-34.668,-26.855,-26.855,-40.039,0.000
1714027063.300,-27.344,-31.738,-18.555,-29.785,0.000
1714027063.304,-28.809,-39.551,-29.785,-33.203,0.000
1714027063.308,-26.855,-26.855,-40.527,-39.062,0.000
1714027063.312,-30.273,-19.531,-36.621,-40.039,0.000
1714027063.316,-34.180,-24.414,-22.949,-40.527,0.000
1714027063.320,-28.809,-26.367,-16.113,-35.156,0.000
1714027063.324,-32.715,-27.832,-24.902,-34.180,0.000
1714027063.327,-36.133,-30.273,-34.180,-38.574,0.000
1714027063.331,-31.250,-33.203,-26.367,-32.715,0.000
1714027063.335,-30.273,-33.203,-20.996,-32.715,0.000
1714027063.339,-29.297,-29.785,-33.203,-38.086,0.000
1714027063.343,-24.414,-29.297,-34.668,-33.691,0.000
1714027063.347,-27.832,-31.250,-29.297,-35.645,0.000
1714027063.351,-31.738,-33.691,-33.203,-35.645,0.000
1714027063.355,-21.973,-35.156,-37.109,-27.832,0.000
1714027063.359,-14.648,-34.668,-36.133,-25.391,0.000
1714027063.363,-27.344,-36.621,-27.344,-31.250,0.000
1714027063.366,-39.062,-35.645,-21.484,-36.133,0.000
1714027063.370,-33.203,-33.691,-20.020,-29.785,0.000
1714027063.374,-28.809,-32.227,-18.555,-33.203,0.000
1714027063.378,-32.715,-35.645,-24.414,-37.109,0.000
1714027063.382,-40.039,-40.527,-43.457,-31.738,0.000
1714027063.386,-38.086,-36.133,-35.645,-29.785,0.000
1714027063.390,-31.738,-32.227,-18.555,-33.203,0.000
1714027063.394,-31.250,-36.133,-20.020,-33.203,0.000
1714027063.398,-32.227,-38.086,-24.414,-25.879,0.000
1714027063.402,-31.738,-32.715,-24.414,-24.902,0.000
1714027063.406,-29.297,-33.691,-21.484,-37.109,0.000
1714027063.409,-25.391,-33.691,-22.461,-39.062,0.000
1714027063.413,-27.344,-28.809,-31.250,-36.621,0.000
1714027063.417,-31.250,-31.738,-35.645,-34.668,0.000
1714027063.421,-33.691,-35.156,-34.668,-35.645,0.000
1714027063.425,-31.738,-39.062,-34.180,-37.109,0.000
1714027063.429,-22.949,-35.156,-25.391,-31.738,0.000
1714027063.433,-25.391,-31.738,-22.949,-27.832,0.000
1714027063.437,-26.367,-30.762,-28.320,-24.902,0.000
1714027063.441,-28.809,-27.344,-27.344,-24.414,0.000
1714027063.445,-33.203,-28.320,-22.949,-29.297,0.000
1714027063.449,-30.762,-28.320,-20.020,-30.273,0.000
1714027063.452,-34.180,-30.273,-25.879,-30.762,0.000
1714027063.456,-37.109,-32.227,-27.832,-35.645,0.000
1714027063.460,-36.133,-32.227,-21.484,-37.598,0.000
1714027063.464,-35.156,-33.691,-28.320,-35.156,0.000
1714027063.468,-31.250,-30.273,-37.598,-27.832,0.000
1714027063.472,-28.809,-29.297,-31.738,-27.344,0.000
1714027063.476,-25.391,-26.367,-21.484,-32.715,0.000
1714027063.480,-25.879,-33.203,-28.809,-34.180,0.000
1714027063.484,-22.949,-34.668,-33.691,-26.367,0.000
1714027063.488,-19.043,-24.902,-32.715,-26.855,0.000
1714027063.492,-24.902,-24.414,-33.691,-37.598,0.000
1714027063.495,-30.762,-31.738,-33.203,-38.574,0.000
1714027063.499,-28.809,-36.621,-35.156,-33.691,0.000
1714027063.503,-22.949,-28.320,-39.062,-24.902,0.000
1714027063.507,-24.414,-21.484,-31.738,-27.344,0.000
1714027063.511,-25.391,-25.391,-23.438,-33.691,0.000
1714027063.515,-25.391,-30.273,-20.020,-27.344,0.000
1714027063.519,-26.367,-26.367,-29.785,-24.902,0.000
1714027063.523,-23.926,-26.367,-39.062,-32.227,0.000
1714027063.527,-23.926,-33.691,-38.086,-39.551,0.000
1714027063.531,-26.367,-34.180,-41.504,-38.086,0.000
1714027063.535,-21.973,-28.809,-40.527,-28.320,0.000
1714027063.538,-27.344,-28.320,-44.434,-33.691,0.000
1714027063.542,-38.086,-27.832,-39.062,-43.457,0.000
1714027063.546,-33.203,-28.320,-25.879,-25.391,0.000
1714027063.550,-33.691,-22.949,-36.133,-22.461,0.000
1714027063.554,-37.598,-19.043,-45.898,-30.762,0.000
1714027063.558,-39.062,-27.344,-40.527,-30.762,0.000
1714027063.562,-37.598,-31.250,-31.250,-28.320,0.000
1714027063.566,-32.227,-23.926,-25.391,-15.625,0.000
1714027063.570,-29.785,-14.648,-23.438,-18.555,0.000
1714027063.574,-23.438,-18.066,-22.461,-21.973,0.000
1714027063.577,-24.414,-30.273,-29.785,-25.391,0.000
1714027063.581,-33.203,-33.203,-40.527,-30.273,0.000
1714027063.585,-32.227,-21.484,-38.574,-32.715,0.000
1714027063.589,-33.691,-21.973,-34.668,-40.039,0.000
1714027063.593,-39.551,-37.109,-32.715,-34.668,0.000
1714027063.597,-37.598,-37.109,-36.133,-36.621,0.000
1714027063.601,-34.180,-30.273,-35.156,-38.086,0.000
1714027063.605,-31.738,-24.414,-20.508,-30.273,0.000
1714027063.609,-32.715,-28.320,-31.250,-36.621,0.000
1714027063.613,-36.133,-35.156,-45.898,-37.598,0.000
1714027063.617,-37.598,-33.691,-40.527,-31.738,0.000
1714027063.620,-35.645,-34.180,-47.363,-29.297,0.000
1714027063.624,-36.133,-35.156,-46.875,-34.668,0.000
1714027063.628,-36.133,-32.227,-39.062,-41.016,0.000
1714027063.632,-26.855,-26.367,-31.738,-37.598,0.000
1714027063.636,-18.555,-27.344,-22.949,-27.344,0.000
1714027063.640,-18.555,-28.809,-26.855,-28.809,0.000
1714027063.644,-20.020,-24.902,-31.738,-33.203,0.000
1714027063.648,-18.066,-21.973,-38.086,-25.391,0.000
1714027063.652,-21.484,-27.832,-40.527,-23.926,0.000
1714027063.656,-28.809,-27.344,-33.691,-28.809,0.000
1714027063.660,-27.344,-28.809,-20.508,-29.785,0.000
1714027063.663,-34.180,-32.715,-23.438,-30.273,0.000
1714027063.667,-35.645,-34.180,-31.738,-26.855,0.000
1714027063.671,-32.715,-37.109,-29.785,-29.785,0.000
1714027063.675,-39.551,-35.156,-30.762,-41.992,0.000
1714027063.679,-41.504,-37.109,-35.156,-36.621,0.000
1714027063.683,-48.340,-42.480,-31.738,-29.297,0.000
1714027063.687,-49.316,-39.551,-24.902,-28.320,0.000
1714027063.691,-41.992,-32.227,-21.973,-32.715,0.000
1714027063.695,-41.992,-32.715,-23.926,-33.691,0.000
1714027063.699,-41.992,-35.645,-30.273,-29.785,0.000
1714027063.702,-37.598,-38.086,-26.855,-26.855,0.000
1714027063.706,-37.598,-38.086,-28.320,-30.273,0.000
1714027063.710,-44.922,-33.691,-39.062,-34.180,0.000
1714027063.714,-41.016,-33.203,-34.180,-28.809,0.000
1714027063.718,-39.062,-35.156,-23.438,-24.902,0.000
1714027063.722,-40.527,-27.344,-31.738,-29.297,0.000
1714027063.726,-40.527,-34.180,-47.852,-32.227,0.000
1714027063.730,-44.922,-45.898,-42.480,-38.574,0.000
1714027063.734,-41.504,-33.203,-30.762,-43.457,0.000
1714027063.738,-29.297,-29.297,-29.785,-38.086,0.000
1714027063.742,-26.855,-27.832,-28.809,-40.039,0.000
1714027063.745,-31.250,-18.555,-27.344,-35.156,0.000
1714027063.749,-32.715,-25.391,-29.297,-28.320,0.000
1714027063.753,-29.785,-35.156,-33.203,-30.273,0.000
1714027063.757,-32.227,-27.832,-34.668,-33.691,0.000
1714027063.761,-40.527,-25.391,-33.691,-34.668,0.000
1714027063.765,-33.691,-27.832,-25.879,-26.855,0.000
1714027063.769,-26.855,-29.785,-26.855,-23.926,0.000
1714027063.773,-33.203,-33.203,-26.367,-30.762,0.000
1714027063.777,-30.273,-27.832,-15.625,-26.855,0.000
1714027063.781,-35.645,-31.250,-17.578,-28.809,0.000
1714027063.784,-37.109,-34.180,-20.996,-24.902,0.000
1714027063.788,-24.902,-26.855,-18.555,-13.672,0.000
1714027063.792,-29.297,-25.879,-24.414,-19.531,0.000
1714027063.796,-39.551,-32.227,-27.832,-17.578,0.000
1714027063.800,-43.457,-34.668,-26.367,-18.555,0.000
1714027063.804,-34.180,-33.203,-17.578,-23.438,0.000
1714027063.808,-31.738,-34.180,-12.695,-25.391,0.000
1714027063.812,-31.738,-30.273,-26.367,-20.996,0.000
1714027063.816,-23.926,-26.367,-23.926,-14.160,0.000
1714027063.820,-22.949,-29.785,-20.996,-18.066,0.000
1714027063.824,-25.391,-30.273,-31.738,-26.855,0.000
1714027063.827,-31.738,-33.203,-32.715,-35.645,0.000
1714027063.831,-31.738,-39.062,-25.879,-26.367,0.000
1714027063.835,-26.855,-32.227,-20.996,-19.531,0.000
1714027063.839,-26.855,-29.785,-25.391,-29.297,0.000
1714027063.843,-27.832,-29.297,-27.344,-36.133,0.000
1714027063.847,-30.762,-20.996,-24.902,-24.902,0.000
1714027063.851,-30.762,-26.855,-22.461,-17.090,0.000
1714027063.855,-26.855,-28.320,-25.391,-25.391,0.000
1714027063.859,-23.438,-21.973,-25.391,-25.391,0.000
1714027063.863,-15.625,-20.996,-20.020,-13.184,0.000
1714027063.867,-17.090,-21.484,-20.508,-15.137,0.000
1714027063.870,-26.367,-26.855,-27.344,-22.461,0.000
1714027063.874,-23.438,-29.297,-29.297,-21.484,0.000
1714027063.878,-20.020,-27.344,-29.297,-20.020,0.000
1714027063.882,-21.484,-26.367,-27.344,-23.438,0.000
1714027063.886,-16.602,-30.273,-26.855,-26.855,0.000
1714027063.890,-17.578,-32.715,-24.414,-25.879,0.000
1714027063.894,-19.531,-23.926,-25.879,-22.949,0.000
1714027063.898,-23.438,-20.996,-31.738,-23.438,0.000
1714027063.902,-22.461,-22.461,-30.273,-26.855,0.000
1714027063.906,-17.578,-21.484,-25.879,-25.391,0.000
1714027063.910,-23.926,-28.809,-29.297,-27.344,0.000
1714027063.913,-24.414,-35.156,-34.180,-28.809,0.000
1714027063.917,-20.020,-26.367,-29.297,-25.391,0.000
1714027063.921,-20.020,-24.414,-29.297,-23.438,0.000
1714027063.925,-29.297,-30.762,-35.645,-25.391,0.000
1714027063.929,-32.227,-21.484,-44.922,-24.414,0.000
1714027063.933,-26.855,-21.973,-40.527,-16.113,0.000
1714027063.937,-30.762,-28.320,-35.645,-21.484,0.000
1714027063.941,-36.133,-25.879,-38.086,-29.297,0.000
1714027063.945,-40.039,-27.832,-37.109,-34.180,0.000
1714027063.949,-34.668,-23.926,-30.273,-25.391,0.000
1714027063.953,-34.668,-25.879,-32.715,-21.973,0.000
1714027063.956,-32.227,-30.762,-42.480,-29.785,0.000
1714027063.960,-26.367,-26.855,-39.551,-30.273,0.000
1714027063.964,-31.250,-26.855,-34.668,-28.320,0.000
1714027063.968,-32.715,-31.250,-34.668,-25.879,0.000
1714027063.972,-32.227,-30.273,-34.668,-30.762,0.000
1714027063.976,-32.715,-26.367,-33.691,-33.691,0.000
1714027063.980,-29.785,-32.227,-28.809,-27.832,0.000
1714027063.984,-29.785,-31.250,-33.691,-26.367,0.000
1714027063.988,-38.086,-29.297,-41.992,-36.133,0.000
1714027063.992,-34.668,-36.133,-33.691,-33.203,0.000
1714027063.996,-27.832,-35.645,-28.809,-29.297,0.000
1714027063.999,-29.297,-28.809,-35.645,-31.250,0.000
1714027064.003,-30.762,-36.133,-32.227,-32.715,0.000
1714027064.007,-25.879,-42.969,-32.715,-35.156,0.000
1714027064.011,-25.391,-37.598,-32.227,-24.414,0.000
1714027064.015,-24.414,-31.738,-27.832,-16.113,0.000
1714027064.019,-18.555,-23.438,-26.855,-24.414,0.000
1714027064.023,-17.578,-28.809,-20.508,-26.367,0.000
1714027064.027,-21.484,-34.668,-17.578,-21.484,0.000
1714027064.031,-23.438,-30.273,-24.902,-19.531,0.000
1714027064.035,-16.113,-26.855,-34.668,-9.277,0.000
1714027064.038,-20.508,-29.785,-27.344,-18.066,0.000
1714027064.042,-38.574,-33.691,-26.367,-45.410,0.000
1714027064.046,-36.621,-31.250,-34.180,-43.457,0.000
1714027064.050,-23.438,-31.738,-28.809,-24.414,0.000
1714027064.054,-27.344,-30.762,-24.902,-27.832,0.000
1714027064.058,-37.109,-28.809,-32.227,-36.621,0.000
1714027064.062,-37.109,-28.320,-31.250,-33.203,0.000
1714027064.066,-32.715,-29.297,-26.367,-24.414,0.000
1714027064.070,-26.855,-29.297,-24.902,-25.391,0.000
1714027064.074,-22.949,-31.250,-22.949,-22.461,0.000
1714027064.078,-20.020,-30.273,-21.973,-16.113,0.000
1714027064.081,-21.973,-20.508,-21.484,-22.461,0.000
1714027064.085,-27.344,-20.020,-30.273,-29.785,0.000
1714027064.089,-30.762,-32.227,-39.551,-34.180,0.000
1714027064.093,-31.738,-39.062,-33.691,-33.203,0.000
1714027064.097,-30.762,-33.691,-27.832,-29.785,0.000
1714027064.101,-23.926,-27.344,-32.227,-18.555,0.000
1714027064.105,-21.973,-24.902,-27.344,-16.113,0.000
1714027064.109,-33.203,-31.250,-30.762,-31.738,0.000
1714027064.113,-33.203,-32.227,-36.133,-30.762,0.000
1714027064.117,-27.344,-27.832,-31.250,-24.414,0.000
1714027064.120,-38.574,-28.320,-22.461,-28.809,0.000
1714027064.124,-40.039,-22.461,-20.020,-33.691,0.000
1714027064.128,-36.133,-23.926,-25.391,-26.855,0.000
1714027064.132,-38.086,-30.762,-26.367,-20.996,0.000
1714027064.136,-38.574,-33.691,-24.902,-23.926,0.000
1714027064.140,-43.457,-37.109,-32.715,-40.527,0.000
1714027064.144,-39.551,-29.297,-38.574,-44.922,0.000
1714027064.148,-27.832,-20.996,-35.156,-25.879,0.000
1714027064.152,-34.180,-25.391,-32.715,-24.902,0.000
1714027064.156,-45.410,-34.668,-36.133,-36.621,0.000
1714027064.160,-45.410,-39.551,-39.062,-40.527,0.000
1714027064.163,-38.086,-37.598,-41.016,-31.250,0.000
1714027064.167,-33.203,-32.715,-37.109,-29.785,0.000
1714027064.171,-36.621,-32.715,-37.109,-37.598,0.000
1714027064.175,-39.062,-34.668,-41.504,-41.504,0.000
1714027064.179,-39.551,-33.691,-29.785,-41.504,0.000
1714027064.183,-44.434,-32.715,-29.785,-44.922,0.000
1714027064.187,-39.551,-29.297,-35.156,-43.457,0.000
1714027064.191,-33.691,-22.461,-35.156,-41.504,0.000
1714027064.195,-34.668,-20.996,-31.738,-36.621,0.000
1714027064.199,-37.109,-30.762,-28.320,-35.156,0.000
1714027064.202,-29.297,-25.879,-27.832,-36.621,0.000
1714027064.206,-30.762,-22.461,-36.133,-42.480,0.000
1714027064.210,-39.062,-28.809,-41.504,-40.039,0.000
1714027064.214,-38.574,-23.926,-40.527,-38.574,0.000
1714027064.218,-37.598,-21.484,-32.715,-41.992,0.000
1714027064.222,-41.992,-27.344,-23.438,-45.898,0.000
1714027064.226,-47.852,-28.809,-31.738,-47.852,0.000
1714027064.230,-53.223,-28.809,-31.250,-55.176,0.000
1714027064.234,-58.594,-29.785,-28.320,-59.570,0.000
1714027064.238,-65.918,-35.645,-35.645,-62.500,0.000
1714027064.242,-70.312,-36.621,-31.738,-64.941,0.000
1714027064.245,-68.359,-28.809,-23.438,-66.406,0.000
1714027064.249,-67.383,-29.785,-25.391,-65.430,0.000
1714027064.253,-66.895,-26.855,-28.320,-64.941,0.000
1714027064.257,-74.219,-19.531,-16.602,-76.172,0.000
1714027064.261,-83.008,-25.391,-8.789,-81.055,0.000
1714027064.265,-93.262,-33.203,-18.066,-89.355,0.000
1714027064.269,-93.750,-32.715,-17.090,-91.309,0.000
1714027064.273,-95.215,-29.785,-2.441,-93.262,0.000
1714027064.277,-104.004,-31.250,5.859,-100.098,0.000
1714027064.281,-110.352,-32.227,-4.395,-104.980,0.000
1714027064.285,-106.934,-28.320,-9.766,-104.492,0.000
1714027064.288,-99.121,-27.344,1.953,-101.074,0.000
1714027064.292,-103.516,-34.668,0.488,-107.910,0.000
1714027064.296,-104.492,-33.691,-4.883,-100.098,0.000
1714027064.300,-88.867,-24.902,6.836,-86.426,0.000
1714027064.304,-77.637,-21.973,13.672,-89.355,0.000
1714027064.308,-86.914,-21.484,3.418,-97.168,0.000
1714027064.312,-97.656,-28.320,-4.883,-106.445,0.000
1714027064.316,-93.750,-33.691,0.000,-100.586,0.000
1714027064.320,-88.867,-34.180,-2.930,-88.379,0.000
1714027064.324,-95.703,-31.250,-5.859,-95.703,0.000
1714027064.328,-98.145,-32.227,3.418,-101.562,0.000
1714027064.331,-85.938,-31.738,4.883,-92.285,0.000
1714027064.335,-75.684,-24.414,3.906,-86.914,0.000
1714027064.339,-82.031,-31.250,9.277,-91.797,0.000
1714027064.343,-92.773,-31.250,8.301,-93.750,0.000
1714027064.347,-88.867,-22.949,5.371,-89.844,0.000
1714027064.351,-80.078,-29.297,3.906,-88.379,0.000
1714027064.355,-84.473,-33.691,1.953,-93.262,0.000
1714027064.359,-87.891,-29.785,0.488,-93.262,0.000
1714027064.363,-83.496,-25.879,-6.836,-87.891,0.000
1714027064.367,-79.102,-26.367,0.977,-78.125,0.000
1714027064.371,-80.078,-30.762,15.137,-74.707,0.000
1714027064.374,-83.496,-30.273,6.348,-81.543,0.000
1714027064.378,-79.102,-28.320,-0.488,-77.637,0.000
1714027064.382,-73.730,-27.832,-8.301,-68.848,0.000
1714027064.386,-75.195,-32.227,-11.719,-62.988,0.000
1714027064.390,-71.289,-34.668,-4.395,-62.500,0.000
1714027064.394,-65.430,-23.926,0.000,-66.406,0.000
1714027064.398,-69.336,-22.461,-2.930,-71.289,0.000
1714027064.402,-62.500,-25.879,-7.324,-65.430,0.000
1714027064.406,-52.734,-24.902,-2.930,-49.316,0.000
1714027064.410,-59.570,-32.715,-3.906,-55.664,0.000
1714027064.413,-59.082,-38.086,-20.020,-61.035,0.000
1714027064.417,-47.363,-31.250,-20.508,-45.898,0.000
1714027064.421,-44.922,-31.738,-19.531,-45.410,0.000
1714027064.425,-47.363,-33.203,-32.715,-50.293,0.000
1714027064.429,-38.574,-31.738,-29.785,-43.945,0.000
1714027064.433,-37.109,-34.180,-20.996,-34.180,0.000
1714027064.437,-37.109,-29.785,-22.949,-30.762,0.000
1714027064.441,-19.531,-22.461,-28.809,-35.156,0.000
1714027064.445,-15.625,-21.484,-33.203,-36.621,0.000
1714027064.449,-30.762,-25.391,-38.086,-42.969,0.000
1714027064.453,-38.086,-24.902,-38.574,-54.688,0.000
1714027064.456,-44.434,-31.738,-39.062,-59.570,0.000
1714027064.460,-49.805,-36.133,-40.527,-57.617,0.000
1714027064.464,-48.340,-24.902,-33.203,-49.805,0.000
1714027064.468,-56.152,-21.973,-26.855,-44.434,0.000
1714027064.472,-68.848,-29.297,-24.902,-50.781,0.000
1714027064.476,-76.172,-35.645,-22.461,-61.035,0.000
1714027064.480,-75.684,-36.621,-28.320,-60.059,0.000
1714027064.484,-72.266,-34.180,-30.273,-61.523,0.000
1714027064.488,-74.219,-30.762,-28.320,-69.336,0.000
1714027064.492,-73.242,-24.414,-29.297,-70.801,0.000
1714027064.495,-70.801,-27.832,-24.902,-67.871,0.000
1714027064.499,-72.266,-25.879,-24.902,-69.336,0.000
1714027064.503,-68.359,-15.137,-20.508,-61.523,0.000
1714027064.507,-60.547,-14.160,-9.766,-57.617,0.000
1714027064.511,-58.105,-24.902,-13.184,-62.500,0.000
1714027064.515,-53.223,-24.414,-16.602,-52.734,0.000
1714027064.519,-40.039,-5.859,-16.113,-34.668,0.000
1714027064.523,-37.109,-3.418,-15.625,-26.367,0.000
1714027064.527,-37.598,-5.371,-17.090,-34.668,0.000
1714027064.531,-29.785,-6.348,-21.973,-28.809,0.000
1714027064.535,-21.973,-12.695,-25.879,-19.531,0.000
1714027064.538,-17.578,-15.625,-26.367,-25.391,0.000
1714027064.542,-14.648,-20.020,-33.691,-24.902,0.000
1714027064.546,-17.578,-30.273,-44.434,-20.020,0.000
1714027064.550,-9.277,-33.203,-45.898,-6.836,0.000
1714027064.554,-2.930,-33.203,-48.828,0.488,0.000
1714027064.558,1.953,-36.621,-49.805,-5.371,0.000
1714027064.562,3.418,-38.086,-52.246,-11.230,0.000
1714027064.566,5.371,-32.715,-49.805,2.441,0.000
1714027064.570,9.766,-28.320,-41.992,6.348,0.000
1714027064.574,2.930,-31.250,-46.387,-2.441,0.000
1714027064.578,0.977,-39.062,-60.059,-2.441,0.000
1714027064.581,4.395,-41.016,-63.965,11.719,0.000
1714027064.585,16.113,-27.832,-54.688,23.926,0.000
1714027064.589,18.555,-26.855,-49.805,15.137,0.000
1714027064.593,14.160,-37.109,-52.734,9.766,0.000
1714027064.597,19.531,-38.574,-53.711,15.137,0.000
1714027064.601,21.973,-34.668,-48.340,17.090,0.000
1714027064.605,21.973,-39.551,-43.945,16.602,0.000
1714027064.609,23.438,-41.016,-50.293,14.648,0.000
1714027064.613,23.926,-33.203,-53.711,13.672,0.000
1714027064.617,24.414,-34.668,-55.176,18.066,0.000
1714027064.621,22.949,-34.668,-58.105,19.043,0.000
1714027064.624,26.855,-36.621,-60.059,13.184,0.000
1714027064.628,30.762,-33.691,-53.711,23.438,0.000
1714027064.632,24.902,-32.227,-52.734,27.832,0.000
1714027064.636,25.879,-35.645,-56.641,26.367,0.000
1714027064.640,27.344,-33.691,-52.246,20.996,0.000
1714027064.644,27.832,-32.227,-47.852,24.414,0.000
1714027064.648,30.762,-26.367,-43.457,31.250,0.000
1714027064.652,29.785,-23.926,-51.270,24.414,0.000
1714027064.656,30.762,-26.855,-56.152,19.043,0.000
1714027064.660,37.109,-29.785,-51.758,22.461,0.000
1714027064.664,32.227,-29.297,-48.340,22.461,0.000
1714027064.667,25.391,-21.973,-45.410,22.949,0.000
1714027064.671,23.438,-28.320,-48.828,28.809,0.000
1714027064.675,22.949,-40.527,-45.898,21.484,0.000
1714027064.679,24.902,-36.133,-42.969,14.648,0.000
1714027064.683,23.438,-28.320,-54.688,16.602,0.000
1714027064.687,18.066,-33.203,-53.711,12.207,0.000
1714027064.691,15.137,-31.250,-46.875,15.625,0.000
1714027064.695,13.672,-22.949,-48.828,15.625,0.000
1714027064.699,12.695,-20.020,-49.316,16.113,0.000
1714027064.703,6.348,-21.484,-41.016,14.160,0.000
1714027064.707,2.441,-25.879,-42.969,2.930,0.000
1714027064.710,3.906,-31.738,-55.664,-1.953,0.000
1714027064.714,2.441,-34.180,-60.059,-3.906,0.000
1714027064.718,4.395,-34.668,-57.129,2.930,0.000
1714027064.722,4.883,-29.297,-47.363,7.812,0.000
1714027064.726,3.906,-27.344,-47.363,0.977,0.000
1714027064.730,1.953,-34.180,-54.199,-0.977,0.000
1714027064.734,7.812,-27.832,-46.875,7.812,0.000
1714027064.738,5.859,-23.926,-41.504,6.836,0.000
1714027064.742,-1.465,-30.762,-45.898,2.441,0.000
1714027064.746,-1.465,-30.273,-49.805,4.395,0.000
1714027064.750,-6.348,-28.809,-55.176,7.812,0.000
1714027064.753,-7.812,-27.832,-50.781,0.000,0.000
1714027064.757,-6.836,-21.484,-50.293,-4.395,0.000
1714027064.761,-4.395,-20.996,-46.875,9.277,0.000
1714027064.765,-3.906,-27.344,-41.016,16.602,0.000
1714027064.769,-7.324,-25.879,-44.922,5.371,0.000
1714027064.773,-3.418,-23.438,-47.363,2.930,0.000
1714027064.777,-4.395,-22.949,-52.734,6.836,0.000
1714027064.781,-8.789,-26.367,-48.828,5.859,0.000
1714027064.785,-5.859,-28.809,-36.133,1.465,0.000
1714027064.789,-6.836,-25.879,-37.598,-2.930,0.000
1714027064.792,-11.230,-23.926,-39.551,-6.348,0.000
1714027064.796,-12.207,-21.973,-43.945,-7.812,0.000
1714027064.800,-7.324,-26.367,-44.434,-1.953,0.000
1714027064.804,-1.953,-34.668,-39.551,-7.324,0.000
1714027064.808,-5.859,-28.809,-46.875,-12.207,0.000
1714027064.812,-8.301,-23.438,-49.316,-7.812,0.000
1714027064.816,-8.301,-27.344,-40.039,-5.859,0.000
1714027064.820,-7.812,-29.297,-39.551,-7.324,0.000
1714027064.824,-6.836,-24.414,-36.621,-7.812,0.000
1714027064.828,-8.301,-21.973,-32.227,-8.789,0.000
1714027064.832,-10.254,-24.902,-30.762,-11.719,0.000
1714027064.835,-15.137,-26.367,-33.691,-18.066,0.000
1714027064.839,-17.578,-23.438,-33.203,-21.973,0.000
1714027064.843,-14.648,-20.508,-31.250,-13.672,0.000
1714027064.847,-17.090,-27.832,-41.504,-13.672,0.000
1714027064.851,-18.066,-36.621,-44.434,-13.184,0.000
1714027064.855,-17.090,-28.809,-34.668,-14.648,0.000
1714027064.859,-21.484,-22.949,-24.414,-24.902,0.000
1714027064.863,-20.508,-22.949,-24.902,-20.508,0.000
1714027064.867,-17.090,-21.973,-33.203,-13.184,0.000
1714027064.871,-19.531,-26.855,-36.133,-15.625,0.000
1714027064.874,-19.043,-32.715,-39.062,-19.531,0.000
1714027064.878,-22.949,-30.762,-40.527,-25.879,0.000
1714027064.882,-27.344,-23.438,-36.133,-22.949,0.000
1714027064.886,-27.344,-25.391,-25.879,-17.090,0.000
1714027064.890,-23.926,-26.855,-20.508,-22.949,0.000
1714027064.894,-24.414,-25.879,-26.367,-24.902,0.000
1714027064.898,-23.926,-36.621,-32.715,-19.531,0.000
1714027064.902,-20.508,-38.574,-27.344,-21.484,0.000
1714027064.906,-23.438,-31.250,-27.344,-27.832,0.000
1714027064.910,-23.438,-25.391,-37.109,-26.855,0.000
1714027064.914,-22.949,-25.879,-39.551,-26.855,0.000
1714027064.917,-20.508,-33.203,-33.203,-23.438,0.000
1714027064.921,-17.578,-34.180,-31.738,-20.996,0.000
1714027064.925,-20.508,-31.250,-28.320,-22.461,0.000
1714027064.929,-20.996,-32.715,-20.508,-14.648,0.000
1714027064.933,-6.836,-33.203,-21.973,-0.977,0.000
1714027064.937,-1.953,-30.273,-22.461,-1.465,0.000
1714027064.941,-20.508,-32.227,-34.180,-22.461,0.000
1714027064.945,-28.809,-32.227,-34.180,-32.227,0.000
1714027064.949,-18.555,-22.461,-26.855,-25.391,0.000
1714027064.953,-13.184,-24.902,-32.227,-22.461,0.000
1714027064.956,-12.695,-35.645,-33.203,-15.137,0.000
1714027064.960,-15.137,-34.668,-25.879,-9.766,0.000
1714027064.964,-19.043,-33.691,-23.926,-12.695,0.000
1714027064.968,-14.648,-28.809,-22.461,-7.324,0.000
1714027064.972,-10.254,-20.996,-16.602,-5.859,0.000
1714027064.976,-18.066,-21.484,-17.090,-9.766,0.000
1714027064.980,-22.461,-27.832,-18.555,-12.207,0.000
1714027064.984,-16.113,-28.809,-21.484,-7.812,0.000
1714027064.988,-14.160,-22.461,-31.738,-7.324,0.000
1714027064.992,-18.066,-20.020,-27.832,-16.602,0.000
1714027064.996,-15.625,-20.020,-14.160,-20.508,0.000
1714027064.999,-13.184,-25.391,-14.160,-20.996,0.000
1714027065.003,-16.602,-28.320,-19.531,-16.113,0.000
1714027065.007,-22.949,-26.367,-21.484,-20.508,0.000
1714027065.011,-26.855,-29.297,-30.273,-17.578,0.000
1714027065.015,-25.879,-32.715,-26.367,-8.301,0.000
1714027065.019,-29.785,-35.156,-22.461,-14.648,0.000
1714027065.023,-25.391,-35.156,-28.320,-18.555,0.000
1714027065.027,-21.484,-29.297,-25.391,-22.949,0.000
1714027065.031,-24.902,-31.738,-29.785,-24.902,0.000
1714027065.035,-23.926,-36.133,-37.109,-23.926,0.000
1714027065.039,-22.949,-32.227,-31.738,-23.926,0.000
1714027065.042,-22.461,-31.738,-22.949,-26.855,0.000
1714027065.046,-19.531,-37.109,-32.715,-17.090,0.000
1714027065.050,-20.996,-37.598,-41.504,-15.625,0.000
1714027065.054,-17.090,-32.227,-33.691,-22.461,0.000
1714027065.058,-14.160,-27.832,-38.574,-27.344,0.000
1714027065.062,-20.996,-26.367,-48.828,-33.691,0.000
1714027065.066,-19.043,-27.832,-34.668,-25.879,0.000
1714027065.070,-10.254,-25.879,-19.531,-17.090,0.000
1714027065.074,-20.508,-29.785,-33.691,-27.832,0.000
1714027065.078,-27.344,-30.273,-44.434,-34.668,0.000
1714027065.082,-27.344,-24.902,-38.574,-26.855,0.000
1714027065.085,-28.320,-26.367,-30.762,-30.762,0.000
1714027065.089,-28.320,-31.250,-34.668,-36.133,0.000
1714027065.093,-35.156,-32.715,-40.527,-33.203,0.000
1714027065.097,-36.621,-28.809,-32.715,-36.621,0.000
1714027065.101,-33.203,-27.344,-21.973,-32.227,0.000
1714027065.105,-31.738,-34.180,-25.391,-34.180,0.000
1714027065.109,-36.133,-38.086,-39.062,-41.504,0.000
1714027065.113,-34.180,-30.273,-40.039,-35.156,0.000
1714027065.117,-25.879,-24.902,-38.574,-30.762,0.000
1714027065.121,-24.902,-24.902,-44.922,-34.180,0.000
1714027065.125,-32.227,-29.297,-39.551,-39.062,0.000
1714027065.128,-36.621,-39.551,-35.645,-35.156,0.000
1714027065.132,-25.391,-35.156,-32.227,-22.461,0.000
1714027065.136,-21.484,-31.250,-20.508,-14.160,0.000
1714027065.140,-26.855,-34.668,-24.414,-22.949,0.000
1714027065.144,-28.320,-35.156,-30.273,-34.180,0.000
1714027065.148,-23.438,-31.738,-32.227,-23.438,0.000
1714027065.152,-17.578,-28.320,-35.645,-16.602,0.000
1714027065.156,-22.949,-31.738,-37.598,-21.484,0.000
1714027065.160,-22.461,-31.250,-34.180,-24.902,0.000
1714027065.164,-16.602,-23.438,-20.508,-22.461,0.000
1714027065.167,-20.508,-20.020,-18.555,-19.531,0.000
1714027065.171,-25.391,-21.484,-33.203,-31.738,0.000
1714027065.175,-29.297,-28.809,-33.691,-37.109,0.000
1714027065.179,-34.180,-37.109,-30.762,-33.691,0.000
1714027065.183,-31.738,-27.832,-31.738,-24.414,0.000
1714027065.187,-24.414,-18.066,-28.320,-21.973,0.000
1714027065.191,-24.414,-20.020,-33.203,-31.250,0.000
1714027065.195,-22.461,-25.391,-32.227,-33.203,0.000
1714027065.199,-22.461,-31.738,-21.484,-26.855,0.000
1714027065.203,-32.227,-41.016,-17.578,-26.367,0.000
1714027065.207,-32.715,-41.992,-26.367,-27.344,0.000
1714027065.210,-29.785,-29.785,-32.227,-22.949,0.000
1714027065.214,-30.273,-24.414,-31.738,-23.438,0.000
1714027065.218,-30.273,-27.344,-29.297,-24.414,0.000
1714027065.222,-22.949,-25.391,-27.832,-23.438,0.000
1714027065.226,-20.508,-28.809,-26.855,-17.578,0.000
1714027065.230,-20.996,-31.250,-20.020,-13.184,0.000
1714027065.234,-14.648,-24.414,-13.672,-21.973,0.000
1714027065.238,-15.625,-26.855,-23.926,-36.133,0.000
1714027065.242,-12.695,-21.973,-27.344,-29.297,0.000
1714027065.246,-9.766,-22.461,-25.879,-27.344,0.000
1714027065.249,-15.137,-28.320,-29.297,-28.320,0.000
1714027065.253,-21.484,-31.738,-29.785,-22.461,0.000
1714027065.257,-23.438,-31.250,-23.438,-28.809,0.000
1714027065.261,-28.809,-36.133,-14.648,-32.715,0.000
1714027065.265,-36.133,-44.434,-28.809,-36.133,0.000
1714027065.269,-39.062,-38.574,-37.598,-36.133,0.000
1714027065.273,-43.457,-36.133,-34.180,-33.203,0.000
1714027065.277,-41.504,-35.156,-34.180,-32.715,0.000
1714027065.281,-37.109,-31.250,-24.902,-34.668,0.000
1714027065.285,-34.180,-30.762,-30.273,-35.645,0.000
1714027065.289,-32.715,-29.297,-39.551,-34.180,0.000
1714027065.292,-29.297,-26.367,-32.227,-35.156,0.000
1714027065.296,-30.762,-24.902,-16.602,-32.227,0.000
1714027065.300,-29.785,-20.020,-17.090,-28.809,0.000
1714027065.304,-32.715,-21.973,-30.762,-33.203,0.000
1714027065.308,-40.527,-29.297,-33.203,-37.109,0.000
1714027065.312,-37.109,-24.902,-32.227,-41.016,0.000
1714027065.316,-30.273,-25.391,-31.738,-31.250,0.000
1714027065.320,-31.738,-33.203,-29.297,-26.367,0.000
1714027065.324,-35.156,-24.902,-30.273,-33.203,0.000
1714027065.328,-28.809,-21.973,-26.855,-30.273,0.000
1714027065.332,-32.227,-28.809,-26.367,-22.461,0.000
1714027065.335,-37.598,-25.879,-30.273,-28.809,0.000
1714027065.339,-36.133,-23.926,-29.785,-37.598,0.000
1714027065.343,-32.227,-23.926,-30.273,-29.297,0.000
1714027065.347,-25.879,-24.414,-29.297,-23.926,0.000
1714027065.351,-27.832,-29.785,-19.531,-26.367,0.000
1714027065.355,-28.809,-30.273,-18.066,-24.414,0.000
1714027065.359,-23.438,-27.344,-18.066,-18.555,0.000
1714027065.363,-26.855,-23.438,-20.996,-21.973,0.000
1714027065.367,-32.227,-23.438,-22.949,-24.414,0.000
1714027065.371,-25.879,-32.227,-24.902,-24.902,0.000
1714027065.375,-24.902,-32.227,-33.203,-22.949,0.000
1714027065.378,-28.320,-23.926,-29.297,-19.531,0.000
1714027065.382,-26.855,-24.902,-21.973,-18.066,0.000
1714027065.386,-25.879,-27.344,-25.879,-18.555,0.000
1714027065.390,-24.414,-32.715,-27.344,-23.438,0.000
1714027065.394,-25.391,-34.180,-15.625,-22.949,0.000
1714027065.398,-26.855,-29.785,-17.578,-21.973,0.000
1714027065.402,-21.484,-34.668,-25.391,-25.879,0.000
1714027065.406,-22.461,-36.621,-29.785,-30.273,0.000
1714027065.410,-24.414,-30.273,-34.180,-28.320,0.000
1714027065.414,-23.926,-29.785,-27.832,-27.344,0.000
1714027065.418,-19.043,-31.250,-18.066,-22.949,0.000
1714027065.421,-15.625,-24.902,-14.648,-8.789,0.000
1714027065.425,-20.996,-20.020,-13.672,-9.277,0.000
1714027065.429,-23.926,-25.391,-11.719,-18.066,0.000
1714027065.433,-27.344,-29.297,-19.531,-25.391,0.000
1714027065.437,-27.832,-23.438,-25.391,-29.785,0.000
1714027065.441,-23.438,-22.949,-24.902,-29.785,0.000
1714027065.445,-21.973,-22.949,-22.949,-27.344,0.000
1714027065.449,-27.344,-23.438,-18.066,-22.949,0.000
1714027065.453,-26.367,-28.320,-23.926,-22.461,0.000
1714027065.457,-9.277,-30.762,-30.762,-16.113,0.000
1714027065.460,-14.648,-33.203,-34.180,-18.066,0.000
1714027065.464,-44.922,-37.109,-27.344,-36.621,0.000
1714027065.468,-45.898,-34.180,-16.602,-28.809,0.000
1714027065.472,-27.344,-28.320,-19.043,-21.484,0.000
1714027065.476,-20.020,-27.344,-24.902,-34.668,0.000
1714027065.480,-24.902,-26.367,-25.879,-33.691,0.000
1714027065.484,-37.598,-29.297,-21.484,-35.645,0.000
1714027065.488,-33.691,-32.227,-15.137,-32.227,0.000
1714027065.492,-34.668,-33.691,-18.066,-30.273,0.000
1714027065.496,-45.898,-36.133,-20.020,-42.480,0.000
1714027065.500,-40.527,-38.086,-16.113,-31.738,0.000
1714027065.503,-35.156,-39.551,-9.277,-25.391,0.000
1714027065.507,-42.480,-40.527,-6.836,-40.039,0.000
1714027065.511,-37.109,-41.992,-11.719,-28.809,0.000
1714027065.515,-33.203,-40.527,-4.395,-15.625,0.000
1714027065.519,-35.156,-40.039,2.930,-30.762,0.000
1714027065.523,-29.297,-41.504,-7.324,-32.715,0.000
1714027065.527,-28.809,-43.457,-14.648,-25.391,0.000
1714027065.531,-26.367,-47.363,-11.230,-15.625,0.000
1714027065.535,-21.484,-44.434,-7.324,-0.488,0.000
1714027065.539,-12.207,-42.480,-11.719,9.277,0.000
1714027065.543,-0.977,-40.039,-12.207,15.625,0.000
1714027065.546,-0.488,-39.062,-10.742,18.555,0.000
1714027065.550,-1.465,-44.922,-13.672,21.484,0.000
1714027065.554,4.883,-50.781,-9.766,24.902,0.000
1714027065.558,9.277,-52.246,-17.578,26.855,0.000
1714027065.562,17.578,-52.246,-21.973,35.645,0.000
1714027065.566,26.367,-51.270,-26.367,38.574,0.000
1714027065.570,25.391,-50.781,-23.926,37.598,0.000
1714027065.574,26.855,-50.781,-15.137,37.109,0.000
1714027065.578,30.762,-47.363,-24.414,41.016,0.000
1714027065.582,33.691,-43.945,-33.203,44.434,0.000
1714027065.585,37.598,-42.480,-32.715,47.363,0.000
1714027065.589,39.551,-37.109,-32.227,47.363,0.000
1714027065.593,43.945,-34.668,-32.227,43.945,0.000
1714027065.597,47.852,-34.180,-26.855,45.898,0.000
1714027065.601,39.062,-32.715,-29.785,41.016,0.000
1714027065.605,39.062,-30.762,-32.715,42.480,0.000
1714027065.609,40.527,-30.273,-28.320,40.527,0.000
1714027065.613,33.203,-33.691,-32.227,29.785,0.000
1714027065.617,32.227,-34.180,-37.598,33.691,0.000
1714027065.621,28.809,-33.691,-35.156,31.738,0.000
1714027065.625,25.391,-37.598,-32.715,19.531,0.000
1714027065.628,17.578,-41.016,-35.156,11.719,0.000
1714027065.632,12.695,-36.133,-35.645,15.137,0.000
1714027065.636,15.625,-33.691,-34.180,13.672,0.000
1714027065.640,11.719,-35.156,-33.203,3.418,0.000
1714027065.644,2.930,-31.738,-34.180,-0.488,0.000
1714027065.648,1.953,-29.785,-36.621,5.371,0.000
1714027065.652,5.859,-26.855,-32.227,8.789,0.000
1714027065.656,4.395,-26.367,-25.879,-0.488,0.000
1714027065.660,5.859,-29.785,-24.902,-1.953,0.000
1714027065.664,11.719,-26.855,-23.438,4.883,0.000
1714027065.667,9.766,-26.855,-14.648,10.254,0.000
1714027065.671,3.418,-29.297,-20.020,1.953,0.000
1714027065.675,0.000,-34.180,-36.133,-6.836,0.000
1714027065.679,-2.930,-36.133,-37.109,-4.883,0.000
1714027065.683,0.000,-33.691,-29.297,-3.418,0.000
1714027065.687,0.488,-33.691,-27.832,-0.977,0.000
1714027065.691,-1.465,-30.762,-23.926,6.836,0.000
1714027065.695,-2.930,-28.320,-21.484,3.906,0.000
1714027065.699,-0.977,-29.297,-22.461,3.906,0.000
1714027065.703,2.930,-29.785,-16.113,8.301,0.000
1714027065.707,-9.766,-33.203,-20.996,-4.395,0.000
1714027065.710,-20.020,-33.691,-28.320,-11.719,0.000
1714027065.714,-15.625,-32.715,-20.996,-9.277,0.000
1714027065.718,-9.766,-30.762,-22.949,-5.859,0.000
1714027065.722,-18.066,-26.855,-33.691,-9.766,0.000
1714027065.726,-19.043,-25.391,-29.297,-7.324,0.000
1714027065.730,-7.812,-21.973,-18.555,1.953,0.000
1714027065.734,0.977,-20.508,-19.043,12.695,0.000
1714027065.738,0.977,-18.066,-19.043,6.836,0.000
1714027065.742,-9.277,-17.578,-16.113,-7.324,0.000
1714027065.746,-10.742,-20.508,-17.090,-5.371,0.000
1714027065.750,-6.836,-17.578,-16.602,-3.418,0.000
1714027065.753,-15.137,-17.578,-12.695,-1.465,0.000
1714027065.757,-22.949,-23.438,-16.602,-7.324,0.000
1714027065.761,-21.973,-28.809,-31.250,-19.043,0.000
1714027065.765,-21.484,-29.785,-29.785,-20.996,0.000
1714027065.769,-21.973,-24.414,-27.832,-16.602,0.000
1714027065.773,-17.578,-18.066,-34.668,-17.090,0.000
1714027065.777,-17.578,-19.043,-40.039,-20.996,0.000
1714027065.781,-28.320,-27.344,-37.109,-21.973,0.000
1714027065.785,-30.762,-30.273,-27.832,-24.902,0.000
1714027065.789,-21.973,-30.762,-20.020,-18.555,0.000
1714027065.793,-18.066,-27.344,-20.020,-20.020,0.000
1714027065.796,-17.578,-27.344,-27.832,-20.996,0.000
1714027065.800,-21.484,-34.668,-31.738,-11.719,0.000
1714027065.804,-27.832,-39.062,-37.598,-16.602,0.000
1714027065.808,-32.715,-38.086,-35.156,-20.508,0.000
1714027065.812,-25.879,-28.320,-23.438,-9.277,0.000
1714027065.816,-24.902,-30.273,-22.949,-4.883,0.000
1714027065.820,-28.809,-34.180,-26.855,-9.766,0.000
1714027065.824,-25.879,-35.156,-34.668,-17.578,0.000
1714027065.828,-32.715,-36.133,-42.480,-35.156,0.000
1714027065.832,-38.574,-38.086,-33.691,-31.738,0.000
1714027065.836,-40.527,-38.574,-31.250,-22.949,0.000
1714027065.839,-43.457,-32.227,-36.621,-28.809,0.000
1714027065.843,-45.898,-34.180,-39.062,-33.691,0.000
1714027065.847,-46.875,-35.645,-40.039,-35.645,0.000
1714027065.851,-44.434,-30.762,-39.551,-31.738,0.000
1714027065.855,-42.480,-31.250,-41.504,-26.855,0.000
1714027065.859,-39.551,-30.762,-42.969,-32.227,0.000
1714027065.863,-35.645,-28.809,-44.922,-36.133,0.000
1714027065.867,-33.203,-29.785,-36.133,-29.785,0.000
1714027065.871,-34.180,-33.203,-35.645,-32.715,0.000
1714027065.875,-32.227,-34.668,-44.922,-27.832,0.000
1714027065.879,-18.066,-32.227,-41.504,-15.137,0.000
1714027065.882,-17.578,-29.297,-41.016,-17.578,0.000
1714027065.886,-31.250,-27.344,-41.992,-27.344,0.000
1714027065.890,-26.367,-23.438,-31.738,-24.902,0.000
1714027065.894,-19.531,-22.461,-31.738,-17.090,0.000
1714027065.898,-19.043,-23.926,-46.875,-12.207,0.000
1714027065.902,-13.184,-24.902,-48.828,-9.277,0.000
1714027065.906,-13.184,-23.438,-44.922,-15.137,0.000
1714027065.910,-16.602,-22.461,-44.922,-25.391,0.000
1714027065.914,-14.648,-19.531,-39.551,-18.555,0.000
1714027065.918,-16.113,-18.066,-38.574,-11.230,0.000
1714027065.921,-14.648,-19.043,-44.434,-10.254,0.000
1714027065.925,-11.230,-19.043,-42.480,-3.418,0.000
1714027065.929,-14.160,-24.902,-40.527,-5.371,0.000
1714027065.933,-9.766,-26.367,-37.598,0.977,0.000
1714027065.937,-6.348,-16.113,-28.809,1.465,0.000
1714027065.941,-9.277,-15.137,-29.785,-12.695,0.000
1714027065.945,-7.812,-22.461,-34.180,-14.648,0.000
1714027065.949,-13.184,-23.438,-36.133,-13.672,0.000
1714027065.953,-19.531,-23.438,-39.551,-10.254,0.000
1714027065.957,-20.996,-19.043,-40.527,-14.160,0.000
1714027065.961,-24.414,-22.949,-42.480,-24.414,0.000
1714027065.964,-25.879,-28.809,-43.457,-22.461,0.000
1714027065.968,-21.484,-28.809,-39.062,-18.555,0.000
1714027065.972,-21.484,-28.809,-33.691,-24.414,0.000
1714027065.976,-25.391,-27.344,-34.668,-24.414,0.000
1714027065.980,-28.320,-32.227,-45.410,-22.461,0.000
1714027065.984,-31.738,-34.180,-49.805,-26.367,0.000
1714027065.988,-28.320,-37.109,-45.410,-16.113,0.000
1714027065.992,-28.320,-38.086,-40.039,-20.508,0.000
1714027065.996,-33.203,-35.645,-37.598,-28.809,0.000
1714027066.000,-34.180,-34.668,-39.551,-24.414,0.000
1714027066.003,-27.344,-34.180,-41.992,-20.508,0.000
1714027066.007,-27.832,-33.691,-42.969,-22.461,0.000
1714027066.011,-31.738,-33.203,-42.969,-32.227,0.000
1714027066.015,-29.297,-35.645,-41.992,-27.344,0.000
1714027066.019,-29.785,-37.109,-39.062,-24.902,0.000
1714027066.023,-29.785,-34.668,-40.039,-23.926,0.000
1714027066.027,-23.926,-31.250,-41.992,-23.438,0.000
1714027066.031,-16.602,-26.855,-41.992,-23.926,0.000
1714027066.035,-18.066,-23.926,-43.457,-19.531,0.000
1714027066.039,-19.531,-25.879,-42.480,-19.043,0.000
1714027066.043,-19.043,-30.273,-40.039,-19.043,0.000
1714027066.046,-24.902,-32.715,-40.039,-20.508,0.000
1714027066.050,-24.414,-27.832,-38.086,-17.578,0.000
1714027066.054,-20.020,-25.391,-31.250,-21.973,0.000
1714027066.058,-20.508,-25.391,-28.320,-28.320,0.000
1714027066.062,-21.973,-31.738,-23.438,-30.273,0.000
1714027066.066,-24.902,-33.691,-22.949,-31.250,0.000
1714027066.070,-23.926,-24.414,-28.320,-26.855,0.000
1714027066.074,-23.926,-22.461,-30.273,-34.180,0.000
1714027066.078,-28.809,-32.227,-31.738,-39.551,0.000
1714027066.082,-28.809,-36.133,-36.133,-27.832,0.000
1714027066.085,-24.902,-32.227,-44.922,-27.344,0.000
1714027066.089,-19.531,-29.785,-38.086,-36.133,0.000
1714027066.093,-19.531,-28.320,-31.250,-31.738,0.000
1714027066.097,-19.043,-26.367,-36.621,-29.785,0.000
1714027066.101,-11.719,-25.879,-34.668,-20.020,0.000
1714027066.105,-14.648,-21.973,-33.691,-15.625,0.000
1714027066.109,-20.508,-20.996,-37.598,-23.926,0.000
1714027066.113,-28.320,-30.273,-42.480,-21.973,0.000
1714027066.117,-28.320,-33.691,-38.574,-15.625,0.000
1714027066.121,-23.926,-29.785,-36.621,-15.625,0.000
1714027066.125,-25.879,-25.391,-39.062,-20.508,0.000
1714027066.128,-25.879,-23.926,-36.133,-21.973,0.000
1714027066.132,-24.414,-26.367,-35.645,-22.949,0.000
1714027066.136,-30.762,-30.762,-35.156,-20.508,0.000
1714027066.140,-34.180,-29.785,-34.180,-22.949,0.000
1714027066.144,-35.156,-29.785,-33.691,-29.785,0.000
1714027066.148,-33.691,-35.156,-34.180,-26.367,0.000
1714027066.152,-25.879,-34.180,-36.621,-25.879,0.000
1714027066.156,-25.879,-28.809,-40.527,-30.273,0.000
1714027066.160,-29.785,-32.227,-41.992,-33.691,0.000
1714027066.164,-32.715,-33.203,-37.109,-32.227,0.000
1714027066.168,-31.738,-31.250,-38.086,-26.367,0.000
1714027066.171,-35.156,-37.109,-40.527,-30.762,0.000
1714027066.175,-40.039,-38.086,-40.527,-32.227,0.000
1714027066.179,-39.062,-34.180,-38.086,-35.156,0.000
1714027066.183,-37.109,-35.645,-37.109,-31.250,0.000
1714027066.187,-39.551,-35.645,-41.504,-28.320,0.000
1714027066.191,-34.668,-31.250,-41.016,-31.738,0.000
1714027066.195,-29.785,-29.785,-40.039,-31.250,0.000
1714027066.199,-33.203,-33.691,-42.480,-22.461,0.000
1714027066.203,-33.203,-35.645,-42.969,-22.949,0.000
1714027066.207,-33.691,-37.598,-46.387,-33.691,0.000
1714027066.211,-33.691,-40.527,-44.434,-35.645,0.000
1714027066.214,-30.762,-39.062,-39.551,-26.367,0.000
1714027066.218,-30.273,-40.039,-41.992,-20.508,0.000
1714027066.222,-33.203,-36.621,-41.504,-24.414,0.000
1714027066.226,-40.527,-35.645,-43.945,-33.691,0.000
1714027066.230,-43.457,-41.504,-47.852,-29.785,0.000
1714027066.234,-38.086,-38.086,-45.898,-26.367,0.000
1714027066.238,-32.227,-31.738,-40.527,-26.367,0.000
1714027066.242,-35.156,-33.691,-42.969,-27.832,0.000
1714027066.246,-41.016,-38.086,-48.828,-34.668,0.000
1714027066.250,-37.598,-39.062,-47.852,-30.273,0.000
1714027066.253,-30.762,-34.668,-41.504,-24.414,0.000
1714027066.257,-29.297,-31.250,-37.598,-29.297,0.000
1714027066.261,-31.250,-32.227,-42.969,-26.367,0.000
1714027066.265,-30.273,-33.203,-46.387,-21.973,0.000
1714027066.269,-21.973,-35.645,-37.109,-25.391,0.000
1714027066.273,-23.926,-35.645,-36.621,-29.297,0.000
1714027066.277,-34.668,-37.109,-43.457,-30.762,0.000
1714027066.281,-30.762,-39.551,-37.598,-27.344,0.000
1714027066.285,-30.273,-40.039,-33.691,-26.855,0.000
1714027066.289,-32.227,-38.086,-42.480,-26.367,0.000
1714027066.293,-24.902,-34.668,-43.457,-26.367,0.000
1714027066.296,-31.738,-34.180,-41.992,-28.320,0.000
1714027066.300,-37.109,-37.109,-43.945,-28.809,0.000
1714027066.304,-34.668,-37.109,-41.992,-30.762,0.000
1714027066.308,-34.668,-37.109,-40.039,-24.414,0.000
1714027066.312,-32.715,-39.551,-28.320,-14.160,0.000
1714027066.316,-29.297,-38.574,-28.809,-18.066,0.000
1714027066.320,-27.344,-42.480,-32.227,-20.996,0.000
1714027066.324,-26.855,-40.527,-30.273,-23.926,0.000
1714027066.328,-27.832,-35.645,-30.762,-30.762,0.000
1714027066.332,-27.832,-37.109,-30.273,-23.438,0.000
1714027066.336,-27.832,-39.062,-34.180,-17.578,0.000
1714027066.339,-33.203,-42.480,-40.527,-32.715,0.000
1714027066.343,-35.645,-41.992,-45.410,-42.969,0.000
1714027066.347,-33.203,-38.086,-46.387,-37.598,0.000
1714027066.351,-31.738,-33.691,-41.016,-27.344,0.000
1714027066.355,-33.203,-36.133,-39.551,-23.926,0.000
1714027066.359,-35.156,-35.645,-37.109,-33.203,0.000
1714027066.363,-37.109,-36.133,-38.574,-32.715,0.000
1714027066.367,-35.156,-38.574,-39.551,-22.949,0.000
1714027066.371,-32.227,-39.551,-40.527,-26.367,0.000
1714027066.375,-34.668,-39.062,-42.480,-40.039,0.000
1714027066.378,-37.109,-38.574,-45.410,-36.133,0.000
1714027066.382,-39.062,-38.086,-44.434,-21.484,0.000
1714027066.386,-41.504,-41.504,-39.551,-23.926,0.000
1714027066.390,-38.086,-41.504,-40.527,-27.344,0.000
1714027066.394,-35.645,-38.086,-37.598,-27.344,0.000
1714027066.398,-35.156,-37.109,-34.668,-23.926,0.000
1714027066.402,-37.598,-40.039,-28.809,-17.578,0.000
1714027066.406,-42.480,-42.969,-27.344,-22.949,0.000
1714027066.410,-36.133,-40.039,-31.738,-26.367,0.000
1714027066.414,-33.203,-41.504,-37.109,-24.414,0.000
1714027066.418,-27.344,-41.992,-35.156,-18.555,0.000
1714027066.421,-26.367,-38.086,-29.785,-21.484,0.000
1714027066.425,-36.621,-37.109,-29.785,-30.762,0.000
1714027066.429,-34.668,-34.668,-30.273,-30.762,0.000
1714027066.433,-29.785,-33.203,-32.715,-25.879,0.000
1714027066.437,-32.227,-37.598,-33.203,-25.879,0.000
1714027066.441,-34.180,-39.551,-43.457,-34.180,0.000
1714027066.445,-30.762,-41.992,-46.387,-31.738,0.000
1714027066.449,-31.738,-41.504,-28.809,-27.344,0.000
1714027066.453,-30.273,-39.551,-23.926,-30.273,0.000
1714027066.457,-29.297,-38.086,-26.855,-22.461,0.000
1714027066.460,-35.156,-35.156,-25.879,-22.461,0.000
1714027066.464,-34.668,-39.551,-19.043,-23.926,0.000
1714027066.468,-29.297,-34.180,-27.832,-17.578,0.000
1714027066.472,-28.809,-30.273,-35.645,-21.484,0.000
1714027066.476,-35.645,-30.273,-33.691,-35.156,0.000
1714027066.480,-36.621,-31.738,-36.133,-34.668,0.000
1714027066.484,-35.156,-33.203,-34.180,-28.809,0.000
1714027066.488,-33.691,-30.762,-33.691,-32.227,0.000
1714027066.492,-31.250,-31.738,-36.133,-36.621,0.000
1714027066.496,-34.180,-30.762,-35.645,-37.109,0.000
1714027066.500,-37.598,-29.785,-37.598,-32.227,0.000
1714027066.503,-34.180,-31.250,-32.227,-27.344,0.000
1714027066.507,-28.809,-30.273,-29.297,-29.297,0.000
1714027066.511,-31.250,-32.227,-34.180,-35.156,0.000
1714027066.515,-29.785,-30.762,-32.715,-35.156,0.000
1714027066.519,-24.414,-32.227,-29.785,-28.809,0.000
1714027066.523,-19.531,-30.762,-17.578,-26.855,0.000
1714027066.527,-18.555,-24.902,-14.160,-24.414,0.000
1714027066.531,-21.973,-30.273,-25.391,-22.461,0.000
1714027066.535,-23.438,-31.250,-30.762,-20.508,0.000
1714027066.539,-25.391,-27.832,-33.691,-22.461,0.000
1714027066.543,-26.367,-28.320,-26.855,-26.855,0.000
1714027066.546,-27.344,-31.738,-20.996,-20.996,0.000
1714027066.550,-21.484,-26.855,-28.809,-15.625,0.000
1714027066.554,-24.902,-27.344,-28.809,-33.203,0.000
1714027066.558,-26.367,-25.391,-20.508,-33.691,0.000
1714027066.562,-21.973,-23.438,-22.461,-21.484,0.000
1714027066.566,-34.668,-28.809,-23.926,-31.250,0.000
1714027066.570,-38.086,-36.133,-32.227,-36.621,0.000
1714027066.574,-48.828,-42.969,-35.645,-44.434,0.000
1714027066.578,-49.805,-38.086,-27.344,-41.016,0.000
1714027066.582,-47.363,-31.738,-22.461,-39.551,0.000
1714027066.586,-57.617,-39.062,-27.344,-51.270,0.000
1714027066.589,-64.453,-56.152,-40.527,-57.129,0.000
1714027066.593,-79.102,-56.641,-35.156,-67.383,0.000
1714027066.597,-94.238,-50.293,-21.484,-81.543,0.000
1714027066.601,-103.027,-55.176,-14.160,-84.473,0.000
1714027066.605,-110.352,-58.594,-20.508,-90.820,0.000
1714027066.609,-125.488,-63.477,-21.973,-111.816,0.000
1714027066.613,-130.371,-68.848,-9.277,-113.770,0.000
1714027066.617,-116.699,-66.406,-3.906,-98.145,0.000
1714027066.621,-99.121,-65.918,-3.418,-90.332,0.000
1714027066.625,-93.262,-64.941,-4.395,-84.473,0.000
1714027066.628,-98.145,-66.895,-0.977,-80.078,0.000
1714027066.632,-88.379,-69.336,6.348,-70.312,0.000
1714027066.636,-78.125,-66.406,0.000,-56.152,0.000
1714027066.640,-73.730,-59.570,-10.254,-55.664,0.000
1714027066.644,-46.875,-55.176,-8.301,-44.434,0.000
1714027066.648,-31.738,-45.898,-13.184,-27.832,0.000
1714027066.652,-31.250,-41.504,-21.973,-30.273,0.000
1714027066.656,-25.391,-44.922,-24.902,-24.902,0.000
1714027066.660,-18.066,-40.527,-30.762,-18.555,0.000
1714027066.664,-13.672,-41.504,-30.762,-10.254,0.000
1714027066.668,-6.836,-42.969,-28.809,-3.418,0.000
1714027066.671,-0.488,-38.086,-30.762,-8.301,0.000
1714027066.675,-3.418,-36.133,-33.691,-10.254,0.000
1714027066.679,-2.441,-42.969,-36.133,-2.930,0.000
1714027066.683,-0.977,-41.504,-41.016,9.766,0.000
1714027066.687,-6.348,-36.621,-37.598,6.348,0.000
1714027066.691,-1.465,-34.180,-40.039,-3.906,0.000
1714027066.695,4.395,-30.762,-48.828,1.465,0.000
1714027066.699,3.906,-29.297,-45.410,2.441,0.000
1714027066.703,5.859,-27.344,-36.133,1.465,0.000
1714027066.707,8.301,-24.902,-35.645,2.441,0.000
1714027066.710,5.859,-29.297,-43.457,-4.883,0.000
1714027066.714,5.371,-27.832,-42.969,1.953,0.000
1714027066.718,7.324,-31.738,-42.969,6.836,0.000
1714027066.722,0.977,-38.086,-47.852,0.000,0.000
1714027066.726,0.488,-28.809,-46.875,3.418,0.000
1714027066.730,2.441,-26.367,-41.504,4.883,0.000
1714027066.734,-0.977,-20.020,-36.133,2.441,0.000
1714027066.738,0.977,-19.531,-39.551,-0.977,0.000
1714027066.742,-4.883,-26.367,-43.945,-12.695,0.000
1714027066.746,-8.301,-25.879,-44.434,-7.324,0.000
1714027066.750,-8.301,-23.926,-47.363,-4.883,0.000
1714027066.753,-15.625,-33.691,-51.758,-19.531,0.000
1714027066.757,-19.043,-35.645,-56.152,-27.344,0.000
1714027066.761,-21.973,-33.691,-51.270,-24.414,0.000
1714027066.765,-20.020,-35.645,-41.992,-19.531,0.000
1714027066.769,-13.672,-33.203,-37.598,-13.184,0.000
1714027066.773,-18.066,-32.715,-37.598,-11.719,0.000
1714027066.777,-22.949,-34.180,-35.156,-20.508,0.000
1714027066.781,-21.484,-35.156,-39.551,-19.043,0.000
1714027066.785,-18.555,-32.715,-43.945,-9.766,0.000
1714027066.789,-17.090,-31.250,-33.203,-11.230,0.000
1714027066.793,-17.090,-30.273,-38.086,-11.719,0.000
1714027066.796,-23.438,-30.273,-42.480,-17.578,0.000
1714027066.800,-29.297,-35.156,-39.551,-20.020,0.000
1714027066.804,-28.320,-33.203,-41.016,-20.996,0.000
1714027066.808,-20.020,-26.855,-37.598,-27.832,0.000
1714027066.812,-22.461,-31.250,-38.086,-27.344,0.000
1714027066.816,-21.484,-36.133,-40.039,-10.254,0.000
1714027066.820,-16.602,-28.320,-35.645,-6.836,0.000
1714027066.824,-14.648,-22.461,-32.715,-19.043,0.000
1714027066.828,-16.602,-22.461,-36.133,-23.926,0.000
1714027066.832,-15.137,-21.484,-33.203,-17.090,0.000
1714027066.835,-19.531,-22.949,-29.785,-9.277,0.000
1714027066.839,-28.809,-22.461,-36.133,-13.672,0.000
1714027066.843,-24.414,-18.555,-35.156,-18.066,0.000
1714027066.847,-25.391,-24.414,-33.203,-18.555,0.000
1714027066.851,-21.973,-26.855,-34.180,-9.766,0.000
1714027066.855,-18.066,-24.902,-33.203,-6.836,0.000
1714027066.859,-24.414,-28.320,-40.039,-21.484,0.000
1714027066.863,-18.555,-26.367,-34.668,-20.020,0.000
1714027066.867,-10.742,-20.996,-29.785,-14.648,0.000
1714027066.871,-12.695,-21.973,-35.156,-16.113,0.000
1714027066.875,-15.137,-19.043,-36.133,-17.090,0.000
1714027066.878,-11.719,-19.531,-40.039,-13.672,0.000
1714027066.882,-14.648,-23.926,-39.551,-10.254,0.000
1714027066.886,-21.973,-28.809,-35.645,-11.719,0.000
1714027066.890,-19.043,-29.297,-35.645,-16.602,0.000
1714027066.894,-21.484,-25.879,-41.992,-29.785,0.000
1714027066.898,-25.879,-25.879,-47.363,-28.809,0.000
1714027066.902,-30.273,-32.227,-41.504,-29.785,0.000
1714027066.906,-28.809,-33.691,-39.551,-37.598,0.000
1714027066.910,-23.926,-31.250,-48.340,-41.016,0.000
1714027066.914,-22.949,-34.180,-44.922,-35.645,0.000
1714027066.918,-17.578,-30.762,-33.691,-28.809,0.000
1714027066.921,-17.090,-32.715,-37.598,-27.832,0.000
1714027066.925,-20.996,-32.715,-42.480,-23.926,0.000
1714027066.929,-28.320,-27.832,-34.180,-28.320,0.000
1714027066.933,-27.344,-30.762,-34.668,-19.531,0.000
1714027066.937,-21.973,-28.320,-34.180,-14.648,0.000
1714027066.941,-28.320,-22.949,-27.344,-19.531,0.000
1714027066.945,-34.180,-24.414,-27.832,-19.043,0.000
1714027066.949,-30.273,-24.414,-30.762,-16.113,0.000
1714027066.953,-26.367,-23.926,-30.762,-16.602,0.000
1714027066.957,-24.414,-24.414,-30.273,-25.879,0.000
1714027066.961,-29.297,-24.414,-33.691,-34.668,0.000
1714027066.964,-36.133,-25.391,-31.738,-33.203,0.000
1714027066.968,-36.621,-25.879,-29.785,-26.367,0.000
1714027066.972,-33.691,-26.367,-26.367,-24.414,0.000
1714027066.976,-31.738,-22.949,-25.391,-28.809,0.000
1714027066.980,-28.809,-23.438,-33.691,-29.785,0.000
1714027066.984,-27.832,-26.367,-33.691,-28.320,0.000
1714027066.988,-24.414,-22.461,-31.738,-31.738,0.000
1714027066.992,-19.531,-19.531,-30.762,-28.809,0.000
1714027066.996,-21.484,-19.531,-28.320,-25.391,0.000
1714027067.000,-24.902,-17.578,-30.762,-23.926,0.000
1714027067.003,-20.996,-19.043,-29.297,-18.555,0.000
1714027067.007,-21.484,-19.531,-28.809,-20.020,0.000
1714027067.011,-26.367,-17.578,-30.762,-21.484,0.000
1714027067.015,-23.438,-14.648,-26.367,-17.578,0.000
1714027067.019,-28.809,-15.137,-25.879,-25.879,0.000
1714027067.023,-29.785,-12.207,-30.273,-26.367,0.000
1714027067.027,-32.227,-13.184,-31.738,-24.414,0.000
1714027067.031,-38.574,-16.602,-33.203,-25.879,0.000
1714027067.035,-38.574,-26.367,-36.621,-22.461,0.000
1714027067.039,-28.320,-33.203,-35.645,-22.461,0.000
1714027067.043,-25.879,-22.949,-39.551,-33.691,0.000
1714027067.046,-32.227,-22.949,-40.039,-39.062,0.000
1714027067.050,-28.809,-22.949,-36.621,-32.227,0.000
1714027067.054,-23.926,-14.648,-39.551,-26.367,0.000
1714027067.058,-23.438,-16.113,-41.992,-21.973,0.000
1714027067.062,-29.297,-21.973,-38.574,-29.785,0.000
1714027067.066,-32.227,-24.902,-31.738,-32.715,0.000
1714027067.070,-32.227,-23.438,-31.738,-31.250,0.000
1714027067.074,-32.227,-20.996,-35.645,-33.203,0.000
1714027067.078,-33.203,-20.508,-41.016,-35.645,0.000
1714027067.082,-33.691,-22.461,-38.086,-35.645,0.000
1714027067.085,-25.391,-15.625,-20.508,-28.320,0.000
1714027067.089,-26.855,-17.578,-22.461,-35.156,0.000
1714027067.093,-35.156,-25.391,-34.668,-41.992,0.000
1714027067.097,-30.273,-26.367,-32.227,-29.297,0.000
1714027067.101,-25.879,-33.691,-33.691,-20.508,0.000
1714027067.105,-21.973,-31.738,-31.738,-24.414,0.000
1714027067.109,-20.996,-24.902,-26.367,-30.273,0.000
1714027067.113,-20.020,-28.320,-31.738,-28.809,0.000
1714027067.117,-12.207,-22.949,-26.855,-14.160,0.000
1714027067.121,-17.578,-20.020,-20.020,-15.625,0.000
1714027067.125,-23.438,-27.344,-28.809,-29.297,0.000
1714027067.128,-28.320,-27.832,-32.227,-34.668,0.000
1714027067.132,-30.273,-23.926,-27.832,-31.250,0.000
1714027067.136,-25.391,-20.020,-26.367,-26.367,0.000
1714027067.140,-21.973,-20.996,-20.020,-27.344,0.000
1714027067.144,-20.020,-21.973,-15.625,-22.461,0.000
1714027067.148,-20.020,-21.973,-22.949,-10.742,0.000
1714027067.152,-15.625,-20.996,-23.926,-13.184,0.000
1714027067.156,-18.555,-20.996,-16.113,-25.391,0.000
1714027067.160,-21.484,-21.484,-16.602,-30.762,0.000
1714027067.164,-17.578,-17.578,-16.602,-30.762,0.000
1714027067.167,-21.973,-20.020,-19.043,-35.645,0.000
1714027067.171,-28.320,-25.391,-19.043,-36.133,0.000
1714027067.175,-30.273,-24.902,-17.090,-32.715,0.000
1714027067.179,-30.762,-23.926,-18.066,-33.691,0.000
1714027067.183,-29.297,-24.414,-22.461,-29.297,0.000
1714027067.187,-24.902,-21.973,-20.508,-24.902,0.000
1714027067.191,-27.344,-24.902,-11.230,-20.020,0.000
1714027067.195,-30.762,-25.879,-23.438,-17.090,0.000
1714027067.199,-30.273,-22.949,-33.691,-22.949,0.000
1714027067.203,-23.438,-20.020,-27.832,-19.531,0.000
1714027067.207,-20.996,-20.020,-29.297,-16.602,0.000
1714027067.210,-33.691,-23.438,-28.320,-22.949,0.000
1714027067.214,-36.133,-21.973,-27.344,-22.461,0.000
1714027067.218,-26.367,-21.973,-29.297,-21.484,0.000
1714027067.222,-23.926,-20.020,-25.879,-27.832,0.000
1714027067.226,-25.391,-16.602,-28.809,-32.715,0.000
1714027067.230,-29.785,-13.184,-33.691,-33.691,0.000
1714027067.234,-27.832,-12.695,-28.809,-26.367,0.000
1714027067.238,-17.578,-16.113,-26.367,-19.531,0.000
1714027067.242,-22.461,-21.973,-26.367,-20.020,0.000
1714027067.246,-28.320,-25.879,-30.762,-27.832,0.000
1714027067.250,-22.949,-26.855,-26.855,-28.320,0.000
1714027067.253,-20.996,-27.832,-20.996,-19.043,0.000
1714027067.257,-28.320,-32.227,-25.391,-26.367,0.000
1714027067.261,-29.785,-29.785,-27.344,-28.809,0.000
1714027067.265,-23.438,-24.414,-30.273,-16.602,0.000
1714027067.269,-22.949,-25.391,-34.180,-15.625,0.000
1714027067.273,-24.902,-25.391,-36.621,-26.855,0.000
1714027067.277,-29.785,-22.461,-37.598,-30.762,0.000
1714027067.281,-35.156,-22.949,-35.156,-30.762,0.000
1714027067.285,-36.621,-27.344,-33.691,-37.109,0.000
1714027067.289,-35.645,-29.785,-34.180,-36.621,0.000
1714027067.293,-32.227,-29.297,-31.250,-28.320,0.000
1714027067.296,-25.879,-24.902,-29.297,-17.090,0.000
1714027067.300,-20.508,-22.949,-26.367,-15.625,0.000
1714027067.304,-25.879,-21.973,-19.043,-27.832,0.000
1714027067.308,-35.645,-20.996,-25.391,-30.762,0.000
1714027067.312,-36.621,-24.414,-41.016,-33.203,0.000
1714027067.316,-27.832,-25.879,-46.875,-26.855,0.000
1714027067.320,-25.391,-25.879,-43.945,-28.320,0.000
1714027067.324,-32.715,-21.973,-36.621,-41.504,0.000
1714027067.328,-40.039,-21.484,-33.203,-45.410,0.000
1714027067.332,-41.504,-27.344,-36.133,-39.062,0.000
1714027067.335,-35.156,-28.320,-35.156,-37.598,0.000
1714027067.339,-36.621,-33.203,-29.297,-42.480,0.000
1714027067.343,-41.016,-30.273,-25.879,-44.434,0.000
1714027067.347,-37.598,-24.414,-25.879,-40.039,0.000
1714027067.351,-32.227,-27.832,-25.391,-30.762,0.000
1714027067.355,-32.715,-27.344,-25.879,-31.250,0.000
1714027067.359,-31.250,-26.367,-27.832,-30.762,0.000
1714027067.363,-31.250,-27.832,-25.879,-31.738,0.000
1714027067.367,-31.250,-28.809,-26.855,-28.320,0.000
1714027067.371,-29.297,-31.250,-31.738,-21.484,0.000
1714027067.375,-29.785,-30.762,-31.738,-26.855,0.000
1714027067.378,-28.809,-31.250,-31.250,-28.809,0.000
1714027067.382,-31.250,-32.227,-31.738,-24.414,0.000
1714027067.386,-30.762,-34.180,-28.809,-22.461,0.000
1714027067.390,-29.785,-32.715,-28.320,-20.020,0.000
1714027067.394,-33.203,-34.668,-30.273,-21.973,0.000
1714027067.398,-34.180,-41.016,-30.273,-24.902,0.000
1714027067.402,-30.762,-35.156,-31.250,-24.902,0.000
1714027067.406,-28.809,-34.180,-34.180,-22.461,0.000
1714027067.410,-33.691,-36.621,-32.227,-27.832,0.000
1714027067.414,-33.691,-37.109,-32.715,-37.109,0.000
1714027067.418,-31.738,-37.109,-28.809,-28.809,0.000
1714027067.421,-34.180,-37.109,-19.043,-26.367,0.000
1714027067.425,-39.062,-41.016,-21.973,-32.715,0.000
1714027067.429,-42.480,-41.992,-31.738,-30.273,0.000
1714027067.433,-38.574,-38.574,-31.738,-20.020,0.000
1714027067.437,-28.320,-33.203,-29.297,-16.113,0.000
1714027067.441,-29.785,-33.203,-31.250,-30.273,0.000
1714027067.445,-38.086,-37.109,-31.738,-40.039,0.000
1714027067.449,-36.133,-39.551,-29.297,-38.574,0.000
1714027067.453,-34.668,-38.086,-27.344,-33.691,0.000
1714027067.457,-34.668,-36.621,-27.832,-37.598,0.000
1714027067.460,-38.574,-41.016,-28.809,-38.086,0.000
1714027067.464,-38.574,-45.410,-29.297,-30.762,0.000
1714027067.468,-35.645,-42.969,-34.668,-31.250,0.000
1714027067.472,-36.621,-40.527,-41.016,-37.109,0.000
1714027067.476,-38.574,-42.480,-47.852,-40.527,0.000
1714027067.480,-39.062,-42.969,-42.480,-34.668,0.000
1714027067.484,-32.227,-38.086,-31.250,-31.250,0.000
1714027067.488,-31.250,-39.551,-38.086,-34.668,0.000
1714027067.492,-31.250,-36.621,-38.086,-35.645,0.000
1714027067.496,-28.809,-28.320,-26.855,-33.203,0.000
1714027067.500,-33.691,-30.762,-32.227,-36.621,0.000
1714027067.503,-30.762,-35.645,-42.969,-33.691,0.000
1714027067.507,-27.344,-33.691,-44.922,-33.203,0.000
1714027067.511,-29.297,-30.762,-40.527,-34.668,0.000
1714027067.515,-26.855,-30.273,-41.016,-22.461,0.000
1714027067.519,-23.926,-29.785,-43.457,-16.113,0.000
1714027067.523,-23.438,-27.832,-41.504,-22.461,0.000
1714027067.527,-25.391,-25.391,-40.527,-28.809,0.000
1714027067.531,-28.320,-33.203,-33.203,-26.855,0.000
1714027067.535,-32.715,-37.598,-36.133,-31.738,0.000
1714027067.539,-36.133,-35.156,-37.109,-33.691,0.000
1714027067.542,-34.180,-33.203,-29.297,-32.227,0.000
1714027067.546,-33.691,-30.762,-30.762,-30.762,0.000
1714027067.550,-30.273,-31.738,-29.785,-21.484,0.000
1714027067.554,-33.203,-32.227,-29.785,-22.949,0.000
1714027067.558,-29.297,-32.715,-30.273,-28.809,0.000
1714027067.562,-24.414,-32.227,-32.715,-25.391,0.000
1714027067.566,-31.250,-29.785,-34.668,-17.090,0.000
1714027067.570,-30.273,-34.668,-27.832,-13.184,0.000
1714027067.574,-33.203,-37.598,-26.855,-19.043,0.000
1714027067.578,-38.574,-39.062,-33.203,-25.391,0.000
1714027067.582,-36.133,-41.016,-37.598,-23.438,0.000
1714027067.585,-31.738,-37.598,-37.598,-22.949,0.000
1714027067.589,-29.785,-37.109,-33.691,-28.320,0.000
1714027067.593,-26.367,-33.203,-31.738,-26.855,0.000
1714027067.597,-23.438,-34.180,-29.785,-21.484,0.000
1714027067.601,-21.484,-35.156,-28.320,-16.113,0.000
1714027067.605,-27.832,-33.691,-30.762,-23.438,0.000
1714027067.609,-29.297,-37.109,-34.180,-29.297,0.000
1714027067.613,-24.414,-37.598,-30.273,-22.461,0.000
1714027067.617,-32.227,-41.992,-30.762,-26.367,0.000
1714027067.621,-31.738,-41.016,-31.250,-23.926,0.000
1714027067.625,-30.762,-39.062,-30.762,-25.391,0.000
1714027067.628,-31.738,-38.574,-30.273,-25.879,0.000
1714027067.632,-28.320,-35.645,-25.391,-20.996,0.000
1714027067.636,-25.391,-34.668,-27.344,-22.949,0.000
1714027067.640,-27.344,-33.203,-32.715,-25.879,0.000
1714027067.644,-34.180,-33.691,-39.551,-31.738,0.000
1714027067.648,-32.715,-32.227,-36.621,-30.273,0.000
1714027067.652,-30.273,-30.273,-31.738,-25.391,0.000
1714027067.656,-29.297,-27.344,-31.738,-27.344,0.000
1714027067.660,-22.461,-21.484,-33.203,-28.320,0.000
1714027067.664,-22.461,-21.973,-33.203,-25.391,0.000
1714027067.667,-27.832,-26.367,-39.062,-25.879,0.000
1714027067.671,-22.949,-28.809,-43.457,-24.902,0.000
1714027067.675,-32.715,-29.785,-41.016,-35.645,0.000
1714027067.679,-36.621,-29.297,-41.992,-38.086,0.000
1714027067.683,-33.203,-31.738,-48.340,-29.297,0.000
1714027067.687,-34.668,-30.273,-48.340,-30.273,0.000
1714027067.691,-23.438,-26.855,-44.922,-31.250,0.000
1714027067.695,-20.508,-26.367,-43.457,-31.250,0.000
1714027067.699,-25.879,-31.738,-45.898,-23.926,0.000
1714027067.703,-23.926,-32.715,-54.688,-22.461,0.000
1714027067.707,-18.555,-28.809,-51.758,-28.809,0.000
1714027067.710,-19.043,-33.203,-42.969,-31.738,0.000
1714027067.714,-22.461,-40.039,-41.016,-34.180,0.000
1714027067.718,-17.578,-38.086,-39.551,-28.809,0.000
1714027067.722,-13.672,-33.203,-41.504,-33.691,0.000
1714027067.726,-10.742,-30.762,-42.480,-38.086,0.000
1714027067.730,-9.277,-34.180,-41.504,-31.250,0.000
1714027067.734,-12.695,-36.133,-41.504,-25.391,0.000
1714027067.738,-16.602,-32.715,-40.039,-24.414,0.000
1714027067.742,-23.438,-21.973,-30.762,-26.855,0.000
1714027067.746,-23.926,-20.020,-26.367,-24.414,0.000
1714027067.750,-27.344,-27.344,-31.738,-21.973,0.000
1714027067.753,-32.227,-27.832,-34.668,-22.461,0.000
1714027067.757,-29.297,-27.344,-34.180,-24.902,0.000
1714027067.761,-25.879,-27.344,-35.156,-16.602,0.000
1714027067.765,-24.414,-28.809,-28.320,-6.348,0.000
1714027067.769,-21.484,-26.855,-28.809,-16.113,0.000
1714027067.773,-26.367,-30.762,-44.434,-29.785,0.000
1714027067.777,-30.273,-35.645,-46.387,-30.762,0.000
1714027067.781,-32.227,-32.227,-40.527,-23.926,0.000
1714027067.785,-28.809,-29.297,-38.574,-25.879,0.000
1714027067.789,-20.508,-27.832,-39.551,-32.715,0.000
1714027067.793,-25.879,-29.297,-38.574,-31.250,0.000
1714027067.796,-31.738,-28.809,-36.621,-26.855,0.000
1714027067.800,-29.297,-34.668,-39.551,-25.391,0.000
1714027067.804,-30.273,-38.086,-43.457,-26.855,0.000
1714027067.808,-30.762,-33.203,-48.828,-23.438,0.000
1714027067.812,-34.668,-30.762,-49.805,-26.855,0.000
1714027067.816,-38.086,-33.691,-45.410,-31.738,0.000
1714027067.820,-32.227,-38.086,-43.945,-30.273,0.000
1714027067.824,-18.555,-34.668,-49.805,-28.809,0.000
1714027067.828,-16.113,-38.086,-45.410,-26.367,0.000
1714027067.832,-27.832,-42.969,-38.574,-28.809,0.000
1714027067.835,-20.020,-39.551,-36.133,-26.367,0.000
1714027067.839,-18.066,-39.551,-30.273,-25.879,0.000
1714027067.843,-24.902,-43.945,-26.367,-26.855,0.000
1714027067.847,-27.832,-45.898,-21.484,-23.438,0.000
1714027067.851,-39.062,-44.922,-27.832,-28.320,0.000
1714027067.855,-47.363,-46.875,-29.297,-36.621,0.000
1714027067.859,-43.457,-52.246,-21.484,-37.109,0.000
1714027067.863,-32.715,-49.805,-24.414,-30.273,0.000
1714027067.867,-27.344,-48.828,-30.762,-27.344,0.000
1714027067.871,-27.832,-46.387,-31.250,-25.879,0.000
1714027067.875,-25.879,-40.527,-31.250,-28.809,0.000
1714027067.878,-27.344,-41.504,-33.691,-36.133,0.000
1714027067.882,-28.809,-44.922,-25.879,-30.273,0.000
1714027067.886,-27.832,-45.898,-13.672,-25.879,0.000
1714027067.890,-31.250,-37.109,-18.555,-26.855,0.000
1714027067.894,-30.762,-35.156,-27.344,-29.297,0.000
1714027067.898,-26.367,-37.598,-22.461,-20.508,0.000
1714027067.902,-27.832,-33.691,-19.531,-15.137,0.000
1714027067.906,-29.297,-31.738,-19.531,-28.320,0.000
1714027067.910,-22.461,-28.809,-14.160,-30.273,0.000
1714027067.914,-16.113,-28.320,-11.719,-27.344,0.000
1714027067.917,-18.066,-33.691,-19.043,-26.855,0.000
1714027067.921,-24.414,-34.180,-26.367,-23.926,0.000
1714027067.925,-25.879,-35.156,-28.809,-30.762,0.000
1714027067.929,-24.414,-38.086,-25.879,-36.133,0.000
1714027067.933,-22.461,-34.180,-32.227,-30.273,0.000
1714027067.937,-23.438,-34.668,-37.598,-32.227,0.000
1714027067.941,-33.203,-44.434,-39.062,-38.086,0.000
1714027067.945,-34.180,-44.434,-38.574,-39.062,0.000
1714027067.949,-29.297,-40.039,-33.203,-34.180,0.000
1714027067.953,-28.809,-36.621,-35.156,-32.715,0.000
1714027067.956,-26.367,-31.738,-33.203,-33.691,0.000
1714027067.960,-27.832,-33.691,-26.367,-35.156,0.000
1714027067.964,-26.367,-34.180,-30.273,-29.785,0.000
1714027067.968,-25.391,-36.621,-34.180,-21.973,0.000
1714027067.972,-29.785,-41.504,-35.156,-24.414,0.000
1714027067.976,-31.250,-38.086,-30.762,-33.691,0.000
1714027067.980,-29.297,-39.062,-33.203,-33.203,0.000
1714027067.984,-27.832,-44.922,-47.852,-25.879,0.000
1714027067.988,-30.273,-39.062,-44.922,-32.715,0.000
1714027067.992,-32.227,-33.691,-34.180,-39.551,0.000
1714027067.996,-29.297,-32.715,-39.551,-37.598,0.000
1714027067.999,-27.832,-33.691,-34.668,-34.180,0.000
1714027068.003,-28.809,-37.109,-22.461,-26.855,0.000
1714027068.007,-25.879,-37.598,-30.273,-25.879,0.000
1714027068.011,-28.320,-40.527,-40.527,-31.250,0.000
1714027068.015,-27.344,-39.062,-38.086,-31.250,0.000
1714027068.019,-20.020,-44.434,-34.668,-23.926,0.000
1714027068.023,-20.508,-52.246,-32.715,-31.738,0.000
1714027068.027,-22.461,-41.504,-41.016,-38.574,0.000
1714027068.031,-26.367,-36.133,-41.504,-33.691,0.000
1714027068.035,-31.738,-41.992,-36.621,-33.691,0.000
1714027068.039,-31.738,-45.898,-35.645,-35.156,0.000
1714027068.042,-33.691,-44.434,-37.598,-37.109,0.000
1714027068.046,-25.391,-44.434,-40.527,-25.879,0.000
1714027068.050,-17.578,-43.457,-31.738,-18.066,0.000
1714027068.054,-23.438,-42.480,-26.855,-26.855,0.000
1714027068.058,-28.809,-46.387,-35.156,-32.227,0.000
1714027068.062,-30.762,-54.688,-40.039,-34.668,0.000
1714027068.066,-28.809,-58.594,-40.527,-27.344,0.000
1714027068.070,-25.391,-54.688,-40.527,-25.879,0.000
1714027068.074,-30.273,-53.711,-43.945,-31.738,0.000
1714027068.078,-36.621,-55.664,-43.457,-32.227,0.000
1714027068.082,-36.133,-55.664,-40.527,-34.180,0.000
1714027068.085,-34.180,-49.805,-39.062,-29.297,0.000
1714027068.089,-34.668,-47.363,-35.156,-31.250,0.000
1714027068.093,-41.504,-54.688,-39.062,-36.621,0.000
1714027068.097,-41.504,-54.688,-42.480,-32.715,0.000
1714027068.101,-40.039,-55.176,-41.016,-36.621,0.000
1714027068.105,-39.062,-53.223,-40.527,-38.574,0.000
1714027068.109,-39.062,-47.363,-41.016,-31.250,0.000
1714027068.113,-42.969,-48.828,-42.480,-32.227,0.000
1714027068.117,-35.645,-49.805,-44.434,-29.785,0.000
1714027068.121,-37.598,-48.340,-41.504,-24.414,0.000
1714027068.125,-40.039,-46.875,-42.969,-25.879,0.000
1714027068.129,-30.762,-47.852,-45.410,-30.273,0.000
1714027068.132,-22.949,-48.340,-42.969,-27.832,0.000
1714027068.136,-18.555,-48.340,-41.504,-17.090,0.000
1714027068.140,-24.414,-44.922,-40.039,-22.461,0.000
1714027068.144,-27.344,-42.969,-34.668,-29.785,0.000
1714027068.148,-22.461,-46.387,-32.227,-22.461,0.000
1714027068.152,-21.973,-43.945,-40.039,-20.508,0.000
1714027068.156,-21.484,-44.434,-41.992,-25.391,0.000
1714027068.160,-29.785,-49.805,-41.504,-33.691,0.000
1714027068.164,-31.250,-49.316,-43.457,-31.738,0.000
1714027068.168,-31.250,-48.340,-39.551,-24.414,0.000
1714027068.171,-33.691,-46.387,-39.551,-26.367,0.000
1714027068.175,-28.320,-42.969,-42.480,-25.391,0.000
1714027068.179,-30.273,-44.922,-41.992,-22.461,0.000
1714027068.183,-37.598,-48.828,-44.434,-25.391,0.000
1714027068.187,-35.645,-46.875,-43.457,-29.785,0.000
1714027068.191,-30.273,-50.781,-47.852,-35.645,0.000
1714027068.195,-35.645,-54.199,-49.805,-37.598,0.000
1714027068.199,-41.504,-50.781,-47.852,-31.250,0.000
1714027068.203,-34.668,-51.758,-48.340,-30.762,0.000
1714027068.207,-28.809,-53.711,-47.363,-36.133,0.000
1714027068.211,-31.738,-52.734,-50.781,-38.574,0.000
1714027068.214,-22.949,-46.875,-49.805,-30.273,0.000
1714027068.218,-16.113,-44.922,-44.922,-22.461,0.000
1714027068.222,-25.391,-47.852,-42.480,-34.180,0.000
1714027068.226,-25.391,-46.875,-46.875,-34.668,0.000
1714027068.230,-24.902,-51.758,-44.434,-24.902,0.000
1714027068.234,-37.109,-57.129,-40.527,-30.762,0.000
1714027068.238,-34.180,-54.688,-52.246,-34.668,0.000
1714027068.242,-31.738,-50.293,-54.688,-36.133,0.000
1714027068.246,-29.297,-42.480,-51.758,-30.273,0.000
1714027068.250,-27.344,-42.480,-46.387,-23.926,0.000
1714027068.254,-29.297,-49.316,-41.992,-28.809,0.000
1714027068.257,-27.344,-47.363,-40.527,-30.273,0.000
1714027068.261,-25.391,-44.434,-31.738,-24.414,0.000
1714027068.265,-26.855,-49.316,-29.297,-24.902,0.000
1714027068.269,-26.855,-49.805,-40.039,-24.414,0.000
1714027068.273,-28.809,-46.875,-44.922,-22.461,0.000
1714027068.277,-33.691,-46.875,-42.969,-27.344,0.000
1714027068.281,-30.762,-50.293,-41.016,-24.902,0.000
1714027068.285,-24.414,-49.316,-39.551,-18.066,0.000
1714027068.289,-20.996,-44.922,-35.156,-11.230,0.000
1714027068.293,-24.414,-48.340,-34.180,-19.531,0.000
1714027068.296,-27.344,-47.363,-41.992,-25.391,0.000
1714027068.300,-26.855,-47.363,-38.574,-19.043,0.000
1714027068.304,-25.879,-46.387,-34.180,-20.508,0.000
1714027068.308,-25.391,-43.457,-38.574,-28.320,0.000
1714027068.312,-24.414,-48.340,-41.992,-27.344,0.000
1714027068.316,-24.902,-53.223,-53.223,-20.508,0.000
1714027068.320,-25.879,-52.246,-51.270,-20.020,0.000
1714027068.324,-26.367,-46.387,-41.504,-29.297,0.000
1714027068.328,-31.250,-47.363,-45.898,-37.109,0.000
1714027068.332,-27.832,-51.270,-44.434,-31.738,0.000
1714027068.336,-21.973,-51.270,-39.062,-24.414,0.000
1714027068.339,-25.391,-48.828,-36.621,-33.203,0.000
1714027068.343,-26.367,-52.246,-35.156,-36.621,0.000
1714027068.347,-26.855,-60.547,-40.039,-30.762,0.000
1714027068.351,-23.926,-60.059,-42.969,-28.320,0.000
1714027068.355,-20.508,-55.176,-48.828,-37.109,0.000
1714027068.359,-24.902,-54.199,-49.805,-46.875,0.000
1714027068.363,-28.809,-57.617,-47.852,-35.645,0.000
1714027068.367,-23.926,-52.734,-46.875,-27.344,0.000
1714027068.371,-20.508,-47.363,-47.363,-34.180,0.000
1714027068.375,-26.367,-48.828,-50.781,-36.621,0.000
1714027068.379,-27.832,-46.875,-53.223,-30.762,0.000
1714027068.382,-22.461,-41.992,-47.852,-29.297,0.000
1714027068.386,-22.949,-41.504,-36.621,-30.273,0.000
1714027068.390,-25.879,-47.363,-43.457,-33.203,0.000
1714027068.394,-16.113,-52.734,-51.270,-20.020,0.000
1714027068.398,-1.953,-52.246,-52.734,-0.488,0.000
1714027068.402,-13.184,-45.410,-57.617,-17.578,0.000
1714027068.406,-27.344,-43.457,-63.965,-41.504,0.000
1714027068.410,-28.809,-44.434,-68.359,-49.805,0.000
1714027068.414,-22.949,-43.457,-73.730,-48.828,0.000
1714027068.418,-19.531,-48.828,-76.660,-44.922,0.000
1714027068.422,-22.461,-46.387,-71.289,-41.992,0.000
1714027068.425,-23.926,-37.598,-70.801,-39.062,0.000
1714027068.429,-23.438,-35.645,-75.684,-44.922,0.000
1714027068.433,-17.578,-40.039,-79.590,-38.086,0.000
1714027068.437,-20.508,-46.387,-74.707,-33.691,0.000
1714027068.441,-25.879,-53.223,-74.219,-38.574,0.000
1714027068.445,-28.809,-53.223,-77.148,-43.457,0.000
1714027068.449,-25.879,-51.270,-75.195,-37.598,0.000
1714027068.453,-23.438,-53.223,-75.195,-26.367,0.000
1714027068.457,-22.949,-55.664,-70.312,-31.250,0.000
1714027068.461,-17.090,-55.664,-67.383,-34.668,0.000
1714027068.465,-10.742,-56.152,-73.242,-27.344,0.000
1714027068.468,-6.836,-53.223,-78.613,-25.391,0.000
1714027068.472,-3.418,-45.410,-72.754,-25.879,0.000
1714027068.476,-8.301,-50.781,-68.848,-32.227,0.000
1714027068.480,-9.766,-57.617,-69.824,-33.203,0.000
1714027068.484,-3.418,-62.500,-65.430,-21.484,0.000
1714027068.488,2.441,-57.617,-59.570,-14.160,0.000
1714027068.492,-0.488,-53.223,-60.547,-18.555,0.000
1714027068.496,-9.766,-61.523,-59.570,-23.926,0.000
1714027068.500,-14.648,-60.547,-58.105,-21.484,0.000
1714027068.504,-19.531,-59.082,-67.383,-21.973,0.000
1714027068.507,-22.461,-58.594,-68.848,-34.668,0.000
1714027068.511,-21.973,-59.570,-68.359,-31.738,0.000
1714027068.515,-20.996,-62.012,-63.965,-22.949,0.000
1714027068.519,-24.902,-60.059,-58.594,-27.832,0.000
1714027068.523,-23.438,-58.105,-62.988,-25.391,0.000
1714027068.527,-20.020,-59.570,-63.477,-28.320,0.000
1714027068.531,-25.879,-58.594,-64.941,-29.297,0.000
1714027068.535,-27.344,-55.176,-63.965,-24.414,0.000
1714027068.539,-27.832,-55.176,-59.570,-25.879,0.000
1714027068.543,-30.762,-58.105,-59.570,-25.879,0.000
1714027068.547,-27.344,-55.664,-59.570,-24.414,0.000
1714027068.550,-30.273,-61.035,-62.988,-26.367,0.000
1714027068.554,-32.715,-71.777,-62.500,-26.367,0.000
1714027068.558,-25.391,-72.266,-56.152,-18.066,0.000
1714027068.562,-29.297,-66.406,-54.688,-22.949,0.000
1714027068.566,-24.902,-65.918,-58.594,-21.973,0.000
1714027068.570,-23.926,-73.730,-62.500,-21.973,0.000
1714027068.574,-29.297,-75.684,-62.012,-30.273,0.000
1714027068.578,-24.414,-69.336,-59.570,-25.391,0.000
1714027068.582,-20.020,-66.895,-61.523,-20.020,0.000
1714027068.586,-20.020,-68.359,-60.059,-22.949,0.000
1714027068.589,-17.578,-68.359,-59.082,-23.926,0.000
1714027068.593,-18.066,-71.289,-64.453,-23.926,0.000
1714027068.597,-20.508,-72.266,-62.988,-26.367,0.000
1714027068.601,-19.043,-71.289,-61.523,-19.531,0.000
1714027068.605,-19.531,-68.359,-63.965,-20.020,0.000
1714027068.609,-19.531,-63.477,-56.641,-28.320,0.000
1714027068.613,-23.438,-63.477,-51.758,-23.926,0.000
1714027068.617,-27.832,-69.336,-60.547,-18.066,0.000
1714027068.621,-29.297,-69.336,-67.383,-21.973,0.000
1714027068.625,-29.297,-68.359,-61.035,-29.297,0.000
1714027068.629,-31.250,-72.754,-59.570,-32.715,0.000
1714027068.632,-27.832,-70.312,-60.059,-27.832,0.000
1714027068.636,-20.508,-63.477,-52.246,-24.414,0.000
1714027068.640,-26.367,-65.430,-59.082,-30.273,0.000
1714027068.644,-26.367,-65.918,-64.453,-33.203,0.000
1714027068.648,-27.344,-62.988,-61.523,-29.297,0.000
1714027068.652,-26.855,-60.547,-55.176,-22.949,0.000
1714027068.656,-25.879,-62.500,-58.594,-33.203,0.000
1714027068.660,-26.367,-62.012,-62.012,-38.086,0.000
1714027068.664,-24.902,-60.547,-54.199,-29.785,0.000
1714027068.668,-30.762,-55.176,-50.293,-33.691,0.000
1714027068.671,-24.902,-52.734,-51.270,-40.527,0.000
1714027068.675,-22.461,-55.664,-61.035,-38.086,0.000
1714027068.679,-26.367,-55.664,-65.430,-32.715,0.000
1714027068.683,-24.902,-54.688,-54.688,-24.902,0.000
1714027068.687,-20.996,-50.293,-54.199,-29.297,0.000
1714027068.691,-20.996,-49.805,-65.918,-34.668,0.000
1714027068.695,-29.297,-49.316,-63.965,-34.668,0.000
1714027068.699,-29.297,-49.805,-56.152,-34.180,0.000
1714027068.703,-25.879,-56.641,-55.176,-32.227,0.000
1714027068.707,-27.832,-59.082,-59.082,-41.016,0.000
1714027068.711,-28.809,-55.664,-58.594,-42.480,0.000
1714027068.714,-22.949,-49.805,-48.828,-29.297,0.000
1714027068.718,-18.066,-49.316,-42.969,-25.879,0.000
1714027068.722,-20.996,-51.758,-53.223,-36.621,0.000
1714027068.726,-21.973,-51.758,-59.570,-39.551,0.000
1714027068.730,-22.461,-51.270,-58.594,-37.598,0.000
1714027068.734,-18.066,-51.270,-60.059,-30.762,0.000
1714027068.738,-10.742,-46.875,-63.965,-26.855,0.000
1714027068.742,-12.695,-43.945,-57.129,-29.785,0.000
1714027068.746,-18.555,-47.363,-50.293,-30.762,0.000
1714027068.750,-12.695,-41.016,-50.293,-26.367,0.000
1714027068.754,-13.184,-41.992,-44.922,-22.949,0.000
1714027068.757,-20.020,-49.805,-39.062,-30.273,0.000
1714027068.761,-21.484,-45.410,-44.434,-37.109,0.000
1714027068.765,-27.344,-42.969,-51.270,-38.574,0.000
1714027068.769,-29.297,-43.457,-44.922,-33.691,0.000
1714027068.773,-24.414,-40.039,-44.434,-32.715,0.000
1714027068.777,-26.367,-42.480,-53.711,-40.039,0.000
1714027068.781,-29.297,-45.410,-59.570,-43.457,0.000
1714027068.785,-27.832,-46.387,-59.570,-36.133,0.000
1714027068.789,-24.902,-44.434,-53.223,-31.738,0.000
1714027068.793,-27.832,-39.551,-48.828,-32.715,0.000
1714027068.797,-29.785,-40.527,-50.293,-22.461,0.000
1714027068.800,-29.297,-36.621,-45.898,-12.207,0.000
1714027068.804,-36.621,-30.273,-43.457,-16.602,0.000
1714027068.808,-43.457,-36.621,-45.410,-27.832,0.000
1714027068.812,-42.969,-44.434,-45.410,-38.574,0.000
1714027068.816,-35.156,-42.969,-49.316,-31.738,0.000
1714027068.820,-31.738,-41.504,-47.363,-24.414,0.000
1714027068.824,-30.273,-43.945,-44.434,-29.785,0.000
1714027068.828,-30.273,-44.434,-50.781,-32.227,0.000
1714027068.832,-30.762,-38.574,-50.293,-26.855,0.000
1714027068.836,-26.855,-34.668,-45.410,-22.949,0.000
1714027068.839,-26.367,-34.180,-44.434,-26.367,0.000
1714027068.843,-18.555,-34.668,-50.781,-20.020,0.000
1714027068.847,4.395,-34.180,-46.875,2.441,0.000
1714027068.851,-3.906,-35.645,-38.574,3.906,0.000
1714027068.855,-37.109,-41.016,-39.551,-26.367,0.000
1714027068.859,-35.156,-42.480,-39.551,-26.855,0.000
1714027068.863,-17.578,-38.086,-35.156,-6.836,0.000
1714027068.867,-21.973,-40.527,-30.273,-6.348,0.000
1714027068.871,-24.902,-46.875,-29.297,-9.766,0.000
1714027068.875,-15.137,-45.898,-27.344,-7.324,0.000
1714027068.879,-9.766,-41.992,-28.320,-3.906,0.000
1714027068.882,-7.324,-45.410,-33.203,-2.441,0.000
1714027068.886,-10.742,-47.852,-38.086,-2.441,0.000
1714027068.890,-21.973,-46.875,-38.574,-5.371,0.000
1714027068.894,-24.414,-43.945,-35.156,-11.719,0.000
1714027068.898,-20.508,-42.480,-34.668,-15.137,0.000
1714027068.902,-23.438,-41.992,-35.645,-15.137,0.000
1714027068.906,-27.344,-35.645,-35.156,-19.043,0.000
1714027068.910,-29.785,-35.156,-31.250,-30.273,0.000
1714027068.914,-28.809,-38.086,-29.785,-26.855,0.000
1714027068.918,-26.855,-39.062,-32.715,-15.625,0.000
1714027068.922,-23.926,-35.156,-38.086,-20.996,0.000
1714027068.925,-20.996,-30.762,-36.621,-29.785,0.000
1714027068.929,-23.926,-35.645,-31.738,-28.320,0.000
1714027068.933,-23.438,-35.156,-29.785,-19.043,0.000
1714027068.937,-18.066,-29.297,-20.020,-16.602,0.000
1714027068.941,-22.949,-27.832,-22.949,-25.391,0.000
1714027068.945,-26.367,-28.809,-31.738,-26.367,0.000
1714027068.949,-22.949,-34.668,-30.762,-25.879,0.000
1714027068.953,-20.020,-34.668,-32.715,-23.438,0.000
1714027068.957,-23.438,-33.203,-37.598,-26.367,0.000
1714027068.961,-22.949,-31.250,-33.691,-25.879,0.000
1714027068.964,-19.043,-30.762,-30.273,-17.090,0.000
1714027068.968,-20.508,-31.738,-28.809,-17.090,0.000
1714027068.972,-20.996,-31.738,-25.879,-20.508,0.000
1714027068.976,-20.996,-32.227,-29.297,-24.414,0.000
1714027068.980,-26.855,-32.715,-28.320,-19.531,0.000
1714027068.984,-24.414,-33.203,-23.926,-17.578,0.000
1714027068.988,-17.578,-33.203,-27.832,-20.996,0.000
1714027068.992,-26.855,-32.715,-36.133,-31.250,0.000
1714027068.996,-32.715,-35.156,-32.715,-29.297,0.000
1714027069.000,-28.320,-34.180,-26.367,-22.461,0.000
1714027069.004,-29.297,-28.809,-26.855,-26.367,0.000
1714027069.007,-29.785,-26.855,-23.438,-32.715,0.000
1714027069.011,-28.320,-27.344,-23.438,-35.645,0.000
1714027069.015,-27.344,-32.227,-26.367,-30.762,0.000
1714027069.019,-23.926,-25.391,-25.879,-30.273,0.000
1714027069.023,-16.602,-19.531,-24.902,-24.902,0.000
1714027069.027,-21.973,-27.832,-21.973,-23.438,0.000
1714027069.031,-25.879,-29.297,-16.602,-22.461,0.000
1714027069.035,-17.090,-19.531,-19.531,-16.602,0.000
1714027069.039,-20.996,-19.531,-22.949,-24.902,0.000
1714027069.043,-29.785,-19.043,-19.531,-33.691,0.000
1714027069.046,-28.320,-18.066,-20.508,-29.297,0.000
1714027069.050,-26.367,-21.484,-19.531,-19.531,0.000
1714027069.054,-21.973,-20.996,-22.461,-20.996,0.000
1714027069.058,-12.695,-16.602,-14.648,-20.020,0.000
1714027069.062,-10.254,-20.020,-4.883,-16.602,0.000
1714027069.066,-19.531,-26.855,-14.160,-13.672,0.000
1714027069.070,-22.461,-22.949,-27.832,-16.602,0.000
1714027069.074,-15.625,-20.508,-31.250,-27.832,0.000
1714027069.078,-17.090,-24.414,-20.996,-32.227,0.000
1714027069.082,-19.043,-31.250,-18.066,-25.391,0.000
1714027069.086,-13.184,-31.250,-17.090,-16.113,0.000
1714027069.089,-11.230,-26.367,-12.207,-18.066,0.000
1714027069.093,-12.207,-26.367,-10.742,-19.043,0.000
1714027069.097,-9.766,-30.762,-11.230,-14.160,0.000
1714027069.101,-19.531,-38.574,-16.113,-18.555,0.000
1714027069.105,-24.902,-37.598,-20.996,-25.391,0.000
1714027069.109,-18.555,-34.668,-22.461,-21.973,0.000
1714027069.113,-28.809,-38.086,-22.949,-20.508,0.000
1714027069.117,-28.809,-37.598,-21.973,-20.508,0.000
1714027069.121,-20.508,-40.039,-24.414,-28.809,0.000
1714027069.125,-13.672,-36.133,-27.832,-21.973,0.000
1714027069.129,0.000,-29.297,-21.484,-3.418,0.000
1714027069.132,-12.695,-34.668,-14.648,-9.766,0.000
1714027069.136,-33.203,-37.598,-7.812,-23.926,0.000
1714027069.140,-30.273,-33.691,-5.859,-23.438,0.000
1714027069.144,-26.367,-36.621,-9.277,-20.020,0.000
1714027069.148,-29.785,-42.480,-13.672,-13.184,0.000
1714027069.152,-32.715,-40.527,-21.973,-16.602,0.000
1714027069.156,-35.645,-38.086,-22.461,-31.250,0.000
1714027069.160,-28.809,-41.504,-21.973,-28.809,0.000
1714027069.164,-21.484,-36.133,-18.066,-17.578,0.000
1714027069.168,-20.508,-28.809,-6.836,-12.207,0.000
1714027069.172,-16.113,-31.250,-6.348,-7.324,0.000
1714027069.175,-15.625,-32.227,-11.719,-10.742,0.000
1714027069.179,-18.066,-28.320,-13.672,-15.137,0.000
1714027069.183,-20.508,-30.762,-19.043,-13.672,0.000
1714027069.187,-20.020,-27.344,-25.879,-16.113,0.000
1714027069.191,-23.438,-20.996,-28.809,-19.043,0.000
1714027069.195,-31.250,-24.414,-19.531,-21.484,0.000
1714027069.199,-29.297,-29.785,-19.531,-19.531,0.000
1714027069.203,-29.785,-31.250,-21.484,-22.949,0.000
1714027069.207,-32.715,-31.250,-20.020,-27.344,0.000
1714027069.211,-32.715,-33.203,-23.926,-26.855,0.000
1714027069.215,-29.785,-34.180,-23.438,-23.926,0.000
1714027069.218,-22.461,-35.645,-9.766,-17.090,0.000
1714027069.222,-20.996,-32.227,-7.324,-22.949,0.000
1714027069.226,-23.926,-30.273,-19.043,-26.855,0.000
1714027069.230,-18.066,-35.645,-18.555,-21.484,0.000
1714027069.234,-13.672,-41.992,-21.973,-20.508,0.000
1714027069.238,-10.742,-41.504,-26.367,-20.020,0.000
1714027069.242,-7.812,-40.039,-23.438,-28.809,0.000
1714027069.246,-6.348,-38.574,-22.949,-25.879,0.000
1714027069.250,-12.207,-35.156,-17.578,-13.672,0.000
1714027069.254,-17.090,-30.273,-15.137,-17.090,0.000
1714027069.257,-14.648,-26.367,-15.625,-25.391,0.000
1714027069.261,-21.484,-31.738,-16.602,-23.438,0.000
1714027069.265,-29.785,-36.133,-19.043,-18.555,0.000
1714027069.269,-29.785,-37.109,-17.578,-22.461,0.000
1714027069.273,-20.996,-31.738,-20.508,-26.367,0.000
1714027069.277,-20.996,-30.273,-19.531,-29.785,0.000
1714027069.281,-21.973,-33.203,-14.648,-26.367,0.000
1714027069.285,-18.555,-28.320,-9.766,-24.414,0.000
1714027069.289,-20.508,-24.902,-8.789,-27.344,0.000
1714027069.293,-18.066,-24.414,-7.812,-22.949,0.000
1714027069.297,-20.996,-29.297,-4.883,-20.020,0.000
1714027069.300,-21.484,-32.715,-14.160,-19.531,0.000
1714027069.304,-22.461,-35.156,-19.043,-27.344,0.000
1714027069.308,-25.879,-38.086,-20.508,-27.344,0.000
1714027069.312,-26.367,-33.203,-16.113,-22.461,0.000
1714027069.316,-26.367,-31.250,-13.184,-28.809,0.000
1714027069.320,-20.996,-33.203,-18.555,-31.250,0.000
1714027069.324,-17.090,-30.273,-22.461,-30.273,0.000
1714027069.328,-24.902,-34.668,-25.391,-28.809,0.000
1714027069.332,-34.180,-41.016,-30.273,-28.320,0.000
1714027069.336,-39.551,-43.945,-39.551,-34.180,0.000
