timestamps,TP9,AF7,AF8,TP10,Right AUX
1714025425.915,-31.250,-30.273,-32.227,-27.344,0.000
1714025425.919,-33.691,-32.227,-29.785,-28.320,0.000
1714025425.923,-29.785,-29.785,-31.250,-24.902,0.000
1714025425.927,-14.160,-24.414,-32.715,-11.230,0.000
1714025425.931,-12.207,-24.414,-31.738,-15.625,0.000
1714025425.935,-25.391,-25.391,-32.227,-34.180,0.000
1714025425.939,-33.203,-24.902,-33.203,-39.062,0.000
1714025425.943,-37.109,-28.809,-34.668,-37.109,0.000
1714025425.946,-35.156,-25.879,-32.227,-32.715,0.000
1714025425.950,-25.879,-23.438,-31.250,-26.855,0.000
1714025425.954,-29.297,-28.809,-34.180,-38.086,0.000
1714025425.958,-33.203,-28.809,-24.902,-42.480,0.000
1714025425.960,-30.762,-25.879,-19.043,-34.668,0.000
1714025425.964,-27.832,-27.832,-29.785,-38.574,0.000
1714025425.968,-23.926,-26.367,-29.785,-36.621,0.000
1714025425.972,-21.484,-20.996,-22.949,-29.297,0.000
1714025425.976,-27.832,-22.949,-19.043,-25.391,0.000
1714025425.980,-27.344,-27.832,-22.461,-26.855,0.000
1714025425.983,-27.832,-27.344,-25.879,-34.668,0.000
1714025425.987,-29.785,-21.484,-20.020,-33.691,0.000
1714025425.991,-26.367,-21.484,-18.555,-26.855,0.000
1714025425.995,-26.855,-25.391,-21.484,-26.855,0.000
1714025425.999,-30.762,-25.879,-25.879,-26.367,0.000
1714025426.003,-30.762,-24.902,-23.438,-33.203,0.000
1714025426.005,-31.250,-24.414,-22.461,-42.480,0.000
1714025426.009,-31.250,-24.414,-24.414,-38.574,0.000
1714025426.012,-30.273,-24.414,-25.391,-32.715,0.000
1714025426.016,-34.180,-22.461,-27.344,-32.715,0.000
1714025426.020,-33.691,-23.926,-26.855,-34.180,0.000
1714025426.024,-27.832,-21.484,-26.855,-27.832,0.000
1714025426.028,-22.949,-19.531,-23.926,-23.926,0.000
1714025426.032,-21.484,-20.508,-20.508,-22.461,0.000
1714025426.036,-24.902,-20.508,-22.461,-26.367,0.000
1714025426.040,-23.438,-19.531,-23.926,-20.508,0.000
1714025426.044,-23.438,-14.160,-16.602,-11.230,0.000
1714025426.048,-27.832,-15.625,-14.648,-16.602,0.000
1714025426.054,-27.344,-18.066,-20.020,-15.137,0.000
1714025426.057,-25.879,-20.020,-20.020,-12.207,0.000
1714025426.061,-28.320,-26.855,-18.066,-18.066,0.000
1714025426.065,-30.273,-30.273,-23.926,-18.066,0.000
1714025426.069,-28.320,-26.855,-29.297,-23.438,0.000
1714025426.073,-27.832,-23.926,-26.855,-29.785,0.000
1714025426.077,-27.344,-23.926,-23.438,-20.996,0.000
1714025426.081,-26.855,-23.926,-24.902,-18.555,0.000
1714025426.085,-22.461,-23.438,-23.438,-17.578,0.000
1714025426.089,-18.066,-21.973,-26.367,-7.324,0.000
1714025426.093,-24.902,-21.973,-27.344,-9.277,0.000
1714025426.096,-28.320,-22.461,-21.973,-19.531,0.000
1714025426.101,-28.809,-25.879,-27.344,-21.484,0.000
1714025426.105,-34.180,-27.344,-29.785,-22.461,0.000
1714025426.109,-33.691,-26.855,-28.320,-23.438,0.000
1714025426.113,-31.250,-28.320,-31.738,-23.926,0.000
1714025426.117,-25.391,-26.855,-34.668,-24.902,0.000
1714025426.121,-23.438,-25.879,-36.133,-29.297,0.000
1714025426.125,-25.879,-23.438,-30.273,-24.414,0.000
1714025426.129,-27.832,-20.508,-23.926,-20.020,0.000
1714025426.133,-22.949,-23.438,-24.902,-18.555,0.000
1714025426.137,-22.949,-24.414,-24.414,-21.973,0.000
1714025426.140,-27.832,-20.508,-20.508,-25.391,0.000
1714025426.144,-26.855,-18.066,-21.484,-24.902,0.000
1714025426.148,-21.973,-15.625,-21.484,-23.926,0.000
1714025426.152,-18.066,-18.066,-20.020,-25.879,0.000
1714025426.156,-18.066,-19.043,-21.484,-23.926,0.000
1714025426.160,-14.648,-16.602,-18.555,-16.602,0.000
1714025426.164,-9.766,-14.648,-18.555,-12.207,0.000
1714025426.168,-11.230,-18.555,-26.367,-20.508,0.000
1714025426.172,-18.066,-24.414,-22.461,-30.273,0.000
1714025426.176,-16.113,-23.926,-23.926,-20.996,0.000
1714025426.180,-17.090,-20.508,-24.414,-16.113,0.000
1714025426.184,-15.137,-14.160,-20.996,-24.902,0.000
1714025426.187,-19.531,-16.602,-25.391,-28.809,0.000
1714025426.191,-30.762,-24.414,-26.367,-27.832,0.000
1714025426.195,-28.809,-23.926,-24.902,-29.785,0.000
1714025426.199,-38.086,-31.738,-28.809,-38.574,0.000
1714025426.203,-36.133,-31.250,-26.855,-30.762,0.000
1714025426.207,-10.742,-26.855,-26.855,-7.812,0.000
1714025426.210,-14.160,-26.367,-32.227,-19.531,0.000
1714025426.214,-27.344,-14.648,-28.809,-38.574,0.000
1714025426.218,-39.551,-15.137,-31.250,-54.199,0.000
1714025426.222,-61.035,-18.066,-31.738,-69.824,0.000
1714025426.226,-64.941,-18.066,-34.180,-65.430,0.000
1714025426.230,-75.195,-17.578,-35.156,-81.055,0.000
1714025426.234,-85.938,-14.648,-26.367,-94.727,0.000
1714025426.238,-109.375,-13.672,-28.809,-118.164,0.000
1714025426.241,-123.535,-12.207,-36.133,-133.789,0.000
1714025426.245,-125.000,-7.324,-35.156,-137.207,0.000
1714025426.249,-136.719,-9.277,-29.785,-150.391,0.000
1714025426.252,-146.973,-16.113,-26.855,-161.621,0.000
1714025426.256,-158.203,-12.695,-22.949,-175.293,0.000
1714025426.260,-161.621,-6.836,-21.973,-182.617,0.000
1714025426.264,-156.250,-2.930,-27.832,-179.199,0.000
1714025426.268,-155.273,-3.418,-28.320,-175.781,0.000
1714025426.272,-150.391,-4.395,-29.297,-173.828,0.000
1714025426.276,-143.066,2.441,-35.156,-178.223,0.000
1714025426.280,-138.184,1.953,-37.109,-179.688,0.000
1714025426.284,-126.953,1.465,-39.062,-168.945,0.000
1714025426.287,-114.258,4.883,-33.691,-155.762,0.000
1714025426.291,-107.422,-2.930,-35.156,-146.973,0.000
1714025426.295,-97.168,-1.465,-48.828,-145.020,0.000
1714025426.298,-82.031,12.207,-52.246,-130.859,0.000
1714025426.302,-79.590,15.625,-49.805,-121.094,0.000
1714025426.306,-71.289,9.277,-55.664,-108.887,0.000
1714025426.310,-51.270,7.812,-60.547,-87.402,0.000
1714025426.314,-55.664,4.395,-61.035,-94.727,0.000
1714025426.318,-58.594,0.000,-67.383,-98.633,0.000
1714025426.322,-43.457,1.953,-67.383,-71.289,0.000
1714025426.326,-34.180,4.395,-61.035,-59.082,0.000
1714025426.330,-32.227,3.418,-61.035,-60.547,0.000
1714025426.332,-25.391,2.930,-59.082,-55.176,0.000
1714025426.336,-12.695,6.348,-56.152,-45.898,0.000
1714025426.340,-12.207,0.977,-60.059,-39.062,0.000
1714025426.344,-14.648,-4.883,-60.059,-33.691,0.000
1714025426.348,-10.254,-8.301,-59.570,-28.320,0.000
1714025426.352,-6.836,-12.207,-63.965,-22.461,0.000
1714025426.356,-8.301,-11.719,-62.500,-13.184,0.000
1714025426.360,-8.789,-7.812,-58.594,-13.672,0.000
1714025426.363,-6.836,-5.371,-56.152,-23.438,0.000
1714025426.367,-6.348,-12.207,-56.641,-21.973,0.000
1714025426.371,-5.859,-16.113,-60.059,-13.184,0.000
1714025426.375,-0.977,-18.555,-62.012,-12.207,0.000
1714025426.378,2.441,-17.578,-58.594,-16.602,0.000
1714025426.382,-1.465,-15.625,-54.688,-22.461,0.000
1714025426.386,-2.441,-16.602,-57.129,-19.531,0.000
1714025426.389,5.371,-17.090,-59.570,-9.766,0.000
1714025426.393,13.672,-18.555,-60.547,-10.742,0.000
1714025426.397,16.113,-20.508,-64.453,-19.531,0.000
1714025426.401,19.043,-21.484,-61.035,-7.324,0.000
1714025426.405,24.902,-15.137,-49.805,8.789,0.000
1714025426.409,24.414,-12.695,-44.434,4.883,0.000
1714025426.413,23.438,-18.555,-47.363,5.371,0.000
1714025426.417,18.555,-20.996,-44.922,6.836,0.000
1714025426.421,6.348,-19.531,-42.480,3.418,0.000
1714025426.427,1.465,-20.508,-43.945,6.836,0.000
1714025426.431,-2.441,-22.949,-44.922,2.930,0.000
1714025426.435,-5.859,-18.555,-41.016,-6.836,0.000
1714025426.438,-2.441,-13.672,-38.086,-5.859,0.000
1714025426.442,-6.348,-13.672,-45.898,-5.371,0.000
1714025426.446,-7.812,-15.137,-45.410,-6.348,0.000
1714025426.450,-4.395,-13.672,-40.527,-11.230,0.000
1714025426.454,-10.254,-14.160,-40.527,-11.719,0.000
1714025426.458,-11.230,-18.066,-35.645,-8.789,0.000
1714025426.462,-8.789,-18.555,-36.621,-8.789,0.000
1714025426.466,-15.137,-18.066,-38.574,-14.160,0.000
1714025426.470,-18.066,-23.926,-43.457,-17.090,0.000
1714025426.475,-17.090,-25.879,-41.016,-18.555,0.000
1714025426.479,-18.555,-24.414,-31.250,-17.090,0.000
1714025426.483,-17.090,-20.996,-26.855,-14.160,0.000
1714025426.487,-18.555,-19.043,-33.203,-19.531,0.000
1714025426.491,-22.949,-19.531,-36.621,-20.996,0.000
1714025426.495,-21.973,-20.508,-29.297,-17.578,0.000
1714025426.498,-19.531,-18.555,-27.832,-18.555,0.000
1714025426.502,-20.020,-17.578,-32.715,-20.996,0.000
1714025426.506,-19.043,-20.996,-37.598,-17.578,0.000
1714025426.510,-21.484,-26.367,-38.574,-12.695,0.000
1714025426.514,-19.043,-21.484,-30.762,-11.719,0.000
1714025426.518,-15.137,-19.043,-25.391,-11.230,0.000
1714025426.522,-19.043,-23.926,-29.785,-13.672,0.000
1714025426.526,-19.531,-22.949,-35.645,-10.254,0.000
1714025426.530,-16.113,-23.926,-32.715,-12.207,0.000
1714025426.534,-17.578,-20.020,-28.809,-19.043,0.000
1714025426.538,-19.043,-18.555,-28.809,-14.160,0.000
1714025426.542,-17.090,-24.902,-30.273,-9.766,0.000
1714025426.546,-16.113,-25.879,-31.738,-15.137,0.000
1714025426.550,-18.066,-26.367,-34.668,-19.531,0.000
1714025426.553,-19.043,-26.367,-34.180,-8.301,0.000
1714025426.557,-20.020,-22.949,-26.367,-10.742,0.000
1714025426.561,-20.996,-18.066,-25.879,-22.949,0.000
1714025426.565,-19.043,-18.066,-31.250,-21.973,0.000
1714025426.569,-19.531,-21.973,-30.273,-21.973,0.000
1714025426.573,-27.344,-21.484,-28.320,-30.273,0.000
1714025426.577,-26.855,-20.996,-25.879,-25.879,0.000
1714025426.581,-21.973,-20.508,-32.227,-24.414,0.000
1714025426.585,-25.879,-20.020,-31.738,-29.785,0.000
1714025426.588,-30.273,-20.996,-26.367,-28.809,0.000
1714025426.592,-26.855,-21.484,-27.344,-29.297,0.000
1714025426.596,-25.879,-23.926,-30.273,-29.785,0.000
1714025426.600,-24.902,-21.973,-35.156,-27.832,0.000
1714025426.604,-21.484,-23.926,-31.250,-24.414,0.000
1714025426.608,-24.902,-26.367,-31.738,-23.438,0.000
1714025426.612,-22.949,-21.484,-33.691,-20.508,0.000
1714025426.615,-21.484,-19.531,-23.438,-19.043,0.000
1714025426.619,-22.949,-18.555,-18.555,-22.461,0.000
1714025426.623,-19.531,-19.043,-23.438,-15.137,0.000
1714025426.627,-17.090,-19.043,-28.809,-10.742,0.000
1714025426.631,-16.602,-18.555,-24.902,-13.672,0.000
1714025426.635,-17.578,-21.484,-24.902,-18.066,0.000
1714025426.639,-16.113,-25.879,-27.344,-19.531,0.000
1714025426.643,-16.113,-26.855,-27.344,-9.277,0.000
1714025426.646,-16.602,-20.996,-27.832,-5.371,0.000
1714025426.650,-17.090,-18.066,-25.391,-15.625,0.000
1714025426.654,-20.996,-21.973,-24.902,-21.484,0.000
1714025426.658,-21.973,-21.484,-20.508,-17.090,0.000
1714025426.661,-19.043,-16.602,-18.066,-12.695,0.000
1714025426.665,-21.973,-20.020,-25.391,-13.184,0.000
1714025426.669,-26.855,-24.414,-24.902,-20.508,0.000
1714025426.673,-18.555,-24.902,-21.973,-12.695,0.000
1714025426.677,-15.625,-24.414,-20.996,-10.742,0.000
1714025426.681,-23.926,-32.227,-28.320,-21.973,0.000
1714025426.685,-27.832,-32.227,-37.598,-27.344,0.000
1714025426.688,-33.691,-29.785,-39.551,-28.809,0.000
1714025426.692,-30.762,-26.367,-34.180,-26.855,0.000
1714025426.696,-25.879,-22.461,-32.227,-25.391,0.000
1714025426.700,-31.250,-30.762,-37.109,-32.715,0.000
1714025426.704,-32.227,-33.203,-39.551,-32.227,0.000
1714025426.707,-25.391,-27.832,-38.086,-23.926,0.000
1714025426.711,-25.391,-26.855,-35.645,-25.879,0.000
1714025426.715,-31.250,-26.855,-35.156,-32.227,0.000
1714025426.719,-30.762,-21.973,-34.668,-28.320,0.000
1714025426.722,-25.879,-20.508,-28.809,-19.043,0.000
1714025426.726,-23.438,-23.926,-23.926,-13.672,0.000
1714025426.730,-28.320,-28.809,-29.297,-11.230,0.000
1714025426.734,-34.180,-32.227,-29.297,-20.996,0.000
1714025426.738,-32.715,-31.738,-27.344,-24.902,0.000
1714025426.742,-29.785,-32.227,-32.227,-21.973,0.000
1714025426.746,-27.344,-26.855,-33.691,-26.855,0.000
1714025426.750,-28.320,-24.902,-30.273,-27.832,0.000
1714025426.756,-27.832,-27.832,-25.879,-20.020,0.000
1714025426.760,-23.926,-25.879,-25.879,-13.184,0.000
1714025426.764,-24.902,-27.832,-27.344,-17.578,0.000
1714025426.768,-33.203,-28.320,-31.738,-30.762,0.000
1714025426.772,-30.762,-22.949,-31.738,-29.785,0.000
1714025426.776,-23.926,-23.926,-29.785,-21.973,0.000
1714025426.780,-24.902,-22.949,-29.297,-27.832,0.000
1714025426.783,-34.180,-20.996,-32.227,-39.062,0.000
1714025426.787,-31.250,-22.949,-33.691,-32.227,0.000
1714025426.791,-23.926,-24.414,-25.391,-21.973,0.000
1714025426.795,-27.344,-22.949,-21.973,-24.414,0.000
1714025426.799,-25.391,-20.996,-22.949,-30.273,0.000
1714025426.804,-20.508,-25.391,-27.344,-31.738,0.000
1714025426.808,-25.879,-28.809,-28.809,-26.855,0.000
1714025426.812,-27.344,-25.391,-20.020,-21.973,0.000
1714025426.816,-24.902,-24.902,-20.020,-23.926,0.000
1714025426.820,-31.738,-28.809,-26.855,-30.273,0.000
1714025426.824,-30.273,-30.273,-27.832,-29.297,0.000
1714025426.828,-22.461,-31.738,-23.438,-20.996,0.000
1714025426.832,-21.484,-29.785,-25.879,-20.996,0.000
1714025426.836,-23.926,-27.344,-29.297,-32.715,0.000
1714025426.839,-29.297,-29.297,-36.621,-35.156,0.000
1714025426.843,-29.297,-26.367,-30.273,-29.297,0.000
1714025426.847,-26.367,-23.438,-24.902,-33.691,0.000
1714025426.852,-21.973,-20.996,-31.738,-42.480,0.000
1714025426.856,-21.484,-20.508,-31.738,-37.598,0.000
1714025426.860,-24.902,-24.902,-32.227,-31.250,0.000
1714025426.864,-25.879,-27.832,-33.691,-32.227,0.000
1714025426.868,-27.832,-31.738,-36.133,-32.227,0.000
1714025426.871,-30.762,-33.203,-38.086,-34.668,0.000
1714025426.875,-29.297,-28.320,-35.645,-33.203,0.000
1714025426.879,-23.926,-28.809,-33.691,-25.879,0.000
1714025426.883,-26.367,-29.785,-36.133,-21.484,0.000
1714025426.887,-33.691,-28.320,-33.203,-25.879,0.000
1714025426.891,-20.020,-21.484,-27.832,-23.438,0.000
1714025426.895,-0.977,-25.879,-21.973,0.000,0.000
1714025426.899,-25.879,-36.133,-17.090,-17.578,0.000
1714025426.903,-44.434,-31.738,-17.090,-41.016,0.000
1714025426.907,-34.180,-31.250,-18.066,-32.715,0.000
1714025426.911,-38.086,-30.762,-13.184,-29.297,0.000
1714025426.914,-43.945,-27.832,-10.742,-32.715,0.000
1714025426.918,-37.109,-30.273,-11.719,-33.691,0.000
1714025426.922,-41.504,-38.086,-10.254,-35.645,0.000
1714025426.926,-48.828,-34.668,-8.789,-31.738,0.000
1714025426.930,-41.016,-27.344,-10.742,-23.438,0.000
1714025426.934,-40.527,-25.879,-14.160,-26.367,0.000
1714025426.938,-36.621,-21.484,-19.043,-29.785,0.000
1714025426.942,-34.668,-24.414,-23.926,-28.809,0.000
1714025426.945,-38.086,-28.320,-20.020,-21.484,0.000
1714025426.949,-39.551,-28.809,-21.973,-28.809,0.000
1714025426.953,-34.668,-25.391,-22.949,-36.133,0.000
1714025426.957,-30.762,-22.949,-17.090,-31.250,0.000
1714025426.961,-29.297,-20.996,-14.160,-20.508,0.000
1714025426.965,-26.855,-24.414,-17.578,-18.555,0.000
1714025426.969,-25.879,-28.320,-20.508,-28.320,0.000
1714025426.973,-25.391,-27.344,-23.926,-24.902,0.000
1714025426.977,-25.879,-24.902,-22.461,-20.020,0.000
1714025426.980,-24.902,-20.508,-11.719,-21.484,0.000
1714025426.984,-25.879,-20.020,-13.184,-23.926,0.000
1714025426.988,-35.156,-26.367,-24.414,-29.297,0.000
1714025426.991,-35.156,-27.344,-24.414,-24.902,0.000
1714025426.995,-29.297,-22.461,-22.949,-22.949,0.000
1714025426.999,-33.691,-24.902,-25.879,-30.273,0.000
1714025427.003,-37.598,-37.598,-29.785,-31.738,0.000
1714025427.007,-35.156,-35.156,-27.832,-24.902,0.000
1714025427.011,-32.715,-27.832,-27.344,-20.020,0.000
1714025427.015,-26.855,-27.344,-27.832,-19.531,0.000
1714025427.019,-22.461,-22.949,-27.832,-18.066,0.000
1714025427.023,-26.855,-20.020,-20.508,-20.020,0.000
1714025427.027,-25.879,-24.414,-18.066,-24.414,0.000
1714025427.030,-21.973,-27.344,-22.949,-25.391,0.000
1714025427.034,-24.414,-28.809,-23.438,-24.414,0.000
1714025427.037,-28.320,-28.809,-23.438,-25.391,0.000
1714025427.041,-22.949,-23.438,-17.090,-21.484,0.000
1714025427.045,-20.996,-20.996,-18.066,-23.438,0.000
1714025427.049,-26.855,-22.949,-23.438,-29.785,0.000
1714025427.053,-26.367,-25.391,-21.973,-31.738,0.000
1714025427.057,-21.484,-24.414,-18.066,-30.273,0.000
1714025427.061,-16.602,-22.461,-20.508,-21.973,0.000
1714025427.065,-18.066,-25.391,-25.879,-20.508,0.000
1714025427.068,-25.879,-25.391,-25.391,-30.762,0.000
1714025427.072,-28.809,-28.320,-20.508,-30.273,0.000
1714025427.076,-26.855,-29.785,-20.020,-21.973,0.000
1714025427.080,-28.809,-26.367,-19.531,-26.855,0.000
1714025427.083,-36.133,-26.855,-23.926,-33.203,0.000
1714025427.087,-36.621,-28.809,-29.297,-34.180,0.000
1714025427.090,-28.320,-32.715,-30.762,-31.738,0.000
1714025427.094,-26.367,-32.715,-23.438,-28.809,0.000
1714025427.098,-28.809,-32.227,-18.555,-30.762,0.000
1714025427.102,-26.367,-35.156,-23.438,-27.344,0.000
1714025427.106,-20.020,-33.203,-28.320,-13.184,0.000
1714025427.110,-22.949,-28.809,-25.879,-15.625,0.000
1714025427.114,-24.902,-22.461,-26.367,-20.508,0.000
1714025427.118,-23.438,-26.855,-32.715,-19.043,0.000
1714025427.122,-21.484,-34.668,-29.297,-18.066,0.000
1714025427.126,-18.555,-29.785,-22.461,-15.137,0.000
1714025427.128,-10.742,-26.367,-19.531,-11.719,0.000
1714025427.132,-9.277,-21.484,-22.461,-18.555,0.000
1714025427.136,-11.230,-20.020,-26.367,-24.902,0.000
1714025427.140,-7.812,-20.996,-30.273,-20.508,0.000
1714025427.143,-6.348,-23.438,-32.715,-19.531,0.000
1714025427.147,-10.742,-27.344,-30.273,-25.391,0.000
1714025427.151,-14.160,-25.879,-20.996,-24.414,0.000
1714025427.155,-19.531,-23.926,-19.043,-18.066,0.000
1714025427.159,-19.043,-20.508,-20.020,-16.113,0.000
1714025427.163,-20.508,-20.020,-18.066,-17.578,0.000
1714025427.167,-24.414,-22.949,-18.066,-21.973,0.000
1714025427.171,-22.461,-24.414,-21.484,-24.902,0.000
1714025427.177,-25.879,-26.855,-30.273,-27.344,0.000
1714025427.181,-29.785,-29.785,-30.273,-27.832,0.000
1714025427.185,-28.809,-21.484,-19.043,-25.391,0.000
1714025427.189,-28.809,-19.531,-21.484,-29.297,0.000
1714025427.193,-33.691,-28.320,-28.320,-35.645,0.000
1714025427.197,-34.668,-30.273,-27.832,-36.133,0.000
1714025427.200,-33.203,-26.367,-28.809,-32.715,0.000
1714025427.204,-32.227,-22.461,-26.367,-27.344,0.000
1714025427.208,-30.273,-22.949,-24.414,-20.508,0.000
1714025427.212,-21.484,-25.391,-27.344,-11.719,0.000
1714025427.216,-27.832,-27.344,-26.855,-22.461,0.000
1714025427.220,-35.645,-23.926,-28.320,-31.250,0.000
1714025427.225,-33.691,-24.414,-33.691,-25.879,0.000
1714025427.229,-31.738,-29.297,-32.227,-20.996,0.000
1714025427.233,-31.250,-26.855,-22.461,-25.879,0.000
1714025427.237,-36.133,-28.320,-20.996,-33.691,0.000
1714025427.241,-36.621,-26.855,-24.414,-31.738,0.000
1714025427.245,-28.809,-27.344,-22.461,-22.461,0.000
1714025427.249,-24.902,-30.762,-17.578,-15.625,0.000
1714025427.253,-29.785,-27.344,-21.484,-25.391,0.000
1714025427.256,-30.273,-27.832,-22.949,-26.855,0.000
1714025427.260,-21.973,-26.367,-18.066,-17.090,0.000
1714025427.264,-24.902,-24.414,-17.578,-26.855,0.000
1714025427.268,-28.320,-28.809,-20.020,-24.902,0.000
1714025427.272,-15.625,-29.297,-23.438,-14.160,0.000
1714025427.276,-20.020,-24.414,-24.902,-18.555,0.000
1714025427.280,-33.203,-19.531,-21.484,-25.879,0.000
1714025427.284,-30.762,-21.973,-19.531,-29.297,0.000
1714025427.288,-33.203,-26.855,-26.367,-31.738,0.000
1714025427.292,-33.203,-27.832,-31.738,-35.156,0.000
1714025427.296,-33.691,-26.855,-28.320,-37.109,0.000
1714025427.300,-37.598,-23.926,-26.367,-34.180,0.000
1714025427.304,-27.832,-25.879,-24.902,-19.531,0.000
1714025427.308,-22.949,-28.320,-21.484,-20.996,0.000
1714025427.311,-26.855,-28.320,-24.414,-34.180,0.000
1714025427.315,-23.438,-28.809,-23.438,-32.227,0.000
1714025427.319,-22.461,-21.973,-17.578,-29.785,0.000
1714025427.323,-25.879,-19.043,-17.578,-28.809,0.000
1714025427.327,-21.973,-17.578,-17.578,-22.949,0.000
1714025427.331,-19.531,-18.555,-19.043,-20.996,0.000
1714025427.335,-26.367,-24.414,-25.391,-23.438,0.000
1714025427.339,-26.367,-27.832,-27.344,-26.367,0.000
1714025427.343,-18.555,-31.738,-22.949,-22.949,0.000
1714025427.347,-24.902,-29.785,-18.555,-20.020,0.000
1714025427.351,-32.227,-26.367,-18.066,-22.949,0.000
1714025427.354,-25.879,-20.996,-21.973,-28.809,0.000
1714025427.358,-22.461,-21.484,-22.949,-24.414,0.000
1714025427.362,-30.273,-26.855,-22.461,-25.391,0.000
1714025427.366,-27.832,-24.902,-18.555,-31.738,0.000
1714025427.370,-21.973,-22.461,-19.531,-30.762,0.000
1714025427.373,-26.855,-23.438,-22.461,-28.809,0.000
1714025427.377,-30.273,-24.414,-18.555,-25.879,0.000
1714025427.381,-29.785,-30.762,-17.578,-28.809,0.000
1714025427.385,-28.809,-33.203,-18.555,-25.391,0.000
1714025427.389,-29.297,-28.809,-14.648,-21.973,0.000
1714025427.393,-30.273,-27.832,-16.113,-18.555,0.000
1714025427.397,-32.227,-26.367,-17.578,-18.066,0.000
1714025427.401,-32.715,-25.879,-21.484,-25.879,0.000
1714025427.405,-31.738,-27.832,-24.902,-32.715,0.000
1714025427.409,-35.156,-28.809,-26.855,-36.621,0.000
1714025427.412,-39.551,-29.297,-29.297,-38.574,0.000
1714025427.416,-40.527,-32.227,-28.809,-36.621,0.000
1714025427.419,-43.457,-31.250,-28.809,-38.574,0.000
1714025427.423,-41.504,-29.297,-29.785,-33.691,0.000
1714025427.427,-37.109,-32.227,-27.832,-33.691,0.000
1714025427.431,-41.992,-31.738,-31.250,-46.387,0.000
1714025427.435,-39.062,-25.391,-31.250,-38.574,0.000
1714025427.439,-36.133,-23.438,-28.809,-23.438,0.000
1714025427.443,-34.668,-21.484,-25.391,-30.762,0.000
1714025427.447,-29.785,-21.484,-26.855,-34.668,0.000
1714025427.451,-30.762,-21.973,-33.203,-34.668,0.000
1714025427.455,-32.227,-25.879,-32.715,-31.738,0.000
1714025427.457,-33.203,-33.691,-33.203,-32.227,0.000
1714025427.461,-29.297,-28.320,-29.785,-35.156,0.000
1714025427.465,-28.809,-23.926,-27.344,-33.691,0.000
1714025427.469,-33.203,-21.973,-21.484,-30.762,0.000
1714025427.473,-34.180,-25.391,-21.973,-26.367,0.000
1714025427.477,-28.809,-37.109,-27.344,-22.461,0.000
1714025427.481,-27.344,-29.785,-22.461,-21.484,0.000
1714025427.485,-30.273,-22.461,-18.555,-26.367,0.000
1714025427.489,-27.344,-28.809,-20.020,-26.367,0.000
1714025427.492,-33.203,-32.227,-18.555,-28.320,0.000
1714025427.496,-41.016,-31.250,-20.020,-32.715,0.000
1714025427.500,-37.109,-33.203,-26.855,-35.156,0.000
1714025427.503,-32.715,-31.250,-27.344,-29.785,0.000
1714025427.507,-33.203,-29.785,-26.367,-23.926,0.000
1714025427.511,-29.785,-29.297,-31.738,-32.227,0.000
1714025427.514,-27.832,-26.367,-27.832,-35.645,0.000
1714025427.518,-27.344,-28.320,-25.879,-33.691,0.000
1714025427.522,-22.949,-28.809,-27.344,-22.461,0.000
1714025427.526,-23.438,-27.832,-24.414,-16.602,0.000
1714025427.530,-29.785,-22.949,-22.949,-26.367,0.000
1714025427.534,-39.062,-23.438,-24.414,-28.809,0.000
1714025427.538,-34.180,-26.855,-28.809,-20.020,0.000
1714025427.542,-31.738,-25.879,-27.832,-22.949,0.000
1714025427.546,-35.156,-29.297,-23.438,-34.180,0.000
1714025427.552,-34.180,-32.715,-23.926,-32.715,0.000
1714025427.556,-33.691,-31.250,-24.414,-19.531,0.000
1714025427.560,-32.715,-29.297,-23.438,-18.555,0.000
1714025427.564,-32.227,-32.227,-20.996,-19.531,0.000
1714025427.568,-28.809,-27.832,-19.531,-15.625,0.000
1714025427.571,-25.879,-21.484,-28.320,-17.090,0.000
1714025427.575,-24.414,-24.414,-30.762,-18.555,0.000
1714025427.579,-23.926,-24.902,-25.879,-24.414,0.000
1714025427.583,-22.461,-22.461,-29.297,-26.855,0.000
1714025427.587,-23.926,-20.020,-30.762,-19.043,0.000
1714025427.591,-25.391,-22.461,-23.926,-23.438,0.000
1714025427.595,-21.973,-21.973,-23.926,-25.879,0.000
1714025427.600,-25.879,-24.414,-25.391,-26.855,0.000
1714025427.604,-28.320,-26.367,-25.879,-27.832,0.000
1714025427.608,-25.879,-21.973,-22.461,-21.973,0.000
1714025427.612,-23.438,-22.949,-18.555,-18.555,0.000
1714025427.616,-26.855,-28.809,-26.855,-21.484,0.000
1714025427.620,-33.203,-31.738,-29.785,-24.902,0.000
1714025427.624,-29.297,-28.809,-24.902,-17.090,0.000
1714025427.628,-22.949,-21.973,-19.043,-15.625,0.000
1714025427.631,-23.926,-23.438,-20.020,-17.090,0.000
1714025427.635,-28.809,-31.250,-22.949,-18.555,0.000
1714025427.639,-31.250,-30.273,-22.949,-25.879,0.000
1714025427.643,-27.344,-29.785,-28.320,-19.531,0.000
1714025427.648,-22.949,-29.297,-24.902,-14.160,0.000
1714025427.651,-27.344,-29.297,-20.020,-22.461,0.000
1714025427.655,-25.391,-33.203,-21.484,-23.926,0.000
1714025427.659,-27.344,-34.180,-20.996,-16.602,0.000
1714025427.663,-33.203,-33.691,-20.996,-17.578,0.000
1714025427.667,-29.785,-35.645,-25.879,-22.461,0.000
1714025427.671,-33.203,-34.180,-28.809,-22.461,0.000
1714025427.675,-36.133,-31.738,-30.273,-23.926,0.000
1714025427.679,-28.809,-37.109,-30.762,-18.066,0.000
1714025427.683,-24.902,-34.180,-28.320,-25.391,0.000
1714025427.687,-30.273,-27.344,-25.879,-34.180,0.000
1714025427.691,-26.367,-25.391,-22.461,-26.367,0.000
1714025427.694,-25.391,-23.926,-22.949,-28.320,0.000
1714025427.698,-28.809,-28.809,-29.297,-33.203,0.000
1714025427.702,-29.297,-30.762,-34.180,-34.180,0.000
1714025427.706,-27.832,-28.320,-31.250,-28.809,0.000
1714025427.710,-15.625,-30.273,-26.367,-9.766,0.000
1714025427.714,7.324,-29.785,-27.344,4.883,0.000
1714025427.718,-6.348,-25.391,-30.762,-23.438,0.000
1714025427.722,-33.203,-21.484,-32.227,-45.410,0.000
1714025427.725,-34.180,-21.484,-34.180,-34.180,0.000
1714025427.729,-29.297,-18.555,-31.738,-37.598,0.000
1714025427.733,-26.855,-12.207,-28.320,-36.621,0.000
1714025427.737,-22.461,-12.695,-37.109,-30.762,0.000
1714025427.741,-23.926,-22.461,-39.551,-33.691,0.000
1714025427.744,-27.344,-20.996,-37.109,-36.133,0.000
1714025427.748,-28.320,-21.484,-38.574,-32.227,0.000
1714025427.752,-34.180,-29.785,-39.062,-38.574,0.000
1714025427.756,-33.691,-26.855,-37.109,-39.551,0.000
1714025427.760,-26.855,-21.973,-32.715,-32.715,0.000
1714025427.764,-25.879,-27.344,-31.250,-33.691,0.000
1714025427.768,-25.879,-28.809,-35.645,-34.180,0.000
1714025427.772,-27.344,-24.414,-32.715,-31.738,0.000
1714025427.776,-29.297,-24.414,-29.297,-25.879,0.000
1714025427.780,-29.785,-29.785,-32.715,-24.414,0.000
1714025427.784,-33.203,-35.156,-36.621,-40.527,0.000
1714025427.787,-39.551,-35.645,-35.645,-50.293,0.000
1714025427.790,-36.621,-30.762,-29.297,-35.645,0.000
1714025427.794,-28.320,-24.902,-27.344,-30.273,0.000
1714025427.798,-30.273,-26.855,-32.227,-34.668,0.000
1714025427.802,-34.180,-25.879,-34.180,-37.598,0.000
1714025427.806,-28.809,-24.902,-35.156,-35.156,0.000
1714025427.810,-22.949,-28.809,-31.250,-25.879,0.000
1714025427.814,-27.832,-28.320,-29.297,-27.344,0.000
1714025427.818,-27.832,-21.484,-27.832,-32.715,0.000
1714025427.822,-26.855,-20.508,-27.832,-36.621,0.000
1714025427.826,-27.344,-21.973,-27.344,-29.297,0.000
1714025427.830,-26.367,-22.461,-31.250,-25.391,0.000
1714025427.832,-23.438,-20.996,-34.668,-33.691,0.000
1714025427.836,-19.043,-18.555,-31.250,-31.250,0.000
1714025427.840,-16.113,-20.996,-30.273,-23.438,0.000
1714025427.844,-14.160,-24.414,-29.297,-21.484,0.000
1714025427.848,-17.578,-24.414,-25.391,-25.391,0.000
1714025427.852,-18.066,-26.367,-25.879,-20.020,0.000
1714025427.856,-11.719,-25.879,-28.809,-6.836,0.000
1714025427.860,-13.672,-21.484,-30.762,-15.137,0.000
1714025427.864,-18.555,-18.555,-29.785,-28.320,0.000
1714025427.868,-24.414,-23.926,-32.227,-28.809,0.000
1714025427.871,-27.832,-27.832,-31.738,-26.855,0.000
1714025427.875,-29.785,-28.320,-27.832,-22.461,0.000
1714025427.878,-32.227,-23.926,-24.902,-24.414,0.000
1714025427.882,-34.180,-21.484,-26.855,-28.809,0.000
1714025427.886,-36.133,-26.367,-29.785,-28.320,0.000
1714025427.890,-34.668,-28.320,-32.227,-23.438,0.000
1714025427.893,-35.645,-29.297,-31.738,-26.855,0.000
1714025427.897,-38.086,-28.809,-36.133,-27.344,0.000
1714025427.901,-32.715,-23.926,-33.691,-19.043,0.000
1714025427.905,-31.250,-16.113,-22.461,-19.531,0.000
1714025427.909,-31.250,-14.648,-23.438,-19.531,0.000
1714025427.913,-33.691,-27.832,-27.344,-25.879,0.000
1714025427.917,-37.109,-28.809,-23.438,-25.879,0.000
1714025427.921,-32.715,-22.461,-21.484,-18.555,0.000
1714025427.927,-29.785,-26.367,-21.484,-15.137,0.000
1714025427.931,-26.855,-28.320,-24.414,-14.648,0.000
1714025427.935,-26.855,-24.414,-23.926,-24.414,0.000
1714025427.939,-28.320,-26.855,-21.484,-25.391,0.000
1714025427.943,-34.668,-33.691,-21.973,-19.043,0.000
1714025427.947,-41.016,-35.645,-21.484,-21.973,0.000
1714025427.951,-39.551,-33.691,-25.391,-26.855,0.000
1714025427.954,-35.156,-34.668,-28.809,-33.691,0.000
1714025427.958,-31.250,-34.180,-24.414,-27.344,0.000
1714025427.962,-31.250,-29.785,-22.461,-16.602,0.000
1714025427.966,-30.762,-22.949,-19.531,-27.832,0.000
1714025427.970,-24.902,-25.879,-22.461,-28.809,0.000
1714025427.975,0.000,-31.250,-23.926,-13.672,0.000
1714025427.979,0.000,-28.809,-23.926,-12.207,0.000
1714025427.983,0.000,-22.461,-25.879,-28.320,0.000
1714025427.987,0.000,-19.043,-26.367,-31.738,0.000
1714025427.991,0.000,-20.508,-26.855,-16.113,0.000
1714025427.995,0.000,-19.043,-24.902,-10.254,0.000
1714025427.999,0.000,-16.113,-24.414,-16.113,0.000
1714025428.003,0.000,-17.578,-26.855,-27.832,0.000
1714025428.007,0.000,-17.578,-29.297,-28.809,0.000
1714025428.010,0.000,-15.625,-26.367,-21.973,0.000
1714025428.014,0.000,-15.625,-23.438,-26.855,0.000
1714025428.018,0.000,-18.555,-24.902,-28.320,0.000
1714025428.022,-23.926,-19.531,-28.809,-26.367,0.000
1714025428.026,-23.926,-14.648,-32.227,-21.973,0.000
1714025428.030,-24.414,-11.719,-31.738,-18.555,0.000
1714025428.034,-25.391,-12.207,-33.691,-25.879,0.000
1714025428.038,-27.344,-14.160,-34.180,-28.809,0.000
1714025428.042,-24.414,-14.648,-27.344,-18.555,0.000
1714025428.046,-18.555,-12.207,-24.902,-17.090,0.000
1714025428.050,-26.855,-20.020,-32.227,-24.902,0.000
1714025428.054,-29.297,-24.414,-39.551,-22.949,0.000
1714025428.058,-23.438,-19.531,-36.133,-22.949,0.000
1714025428.062,-23.438,-15.625,-33.203,-20.508,0.000
1714025428.065,-18.066,-16.113,-31.738,-15.625,0.000
1714025428.073,-21.973,-25.391,-26.855,-25.879,0.000
1714025428.077,-20.996,-17.090,-12.695,-23.438,0.000
1714025428.081,-17.578,-15.625,-7.812,-15.137,0.000
1714025428.085,-31.250,-23.926,-19.531,-31.738,0.000
1714025428.089,-49.805,-26.367,-30.273,-53.711,0.000
1714025428.093,-60.547,-31.738,-28.809,-60.547,0.000
1714025428.097,-66.406,-26.367,-20.508,-70.312,0.000
1714025428.100,-67.871,-22.949,-17.578,-76.172,0.000
1714025428.104,-82.031,-33.203,-19.043,-83.496,0.000
1714025428.108,-112.305,-37.598,-17.578,-110.840,0.000
1714025428.112,-115.723,-36.621,-9.277,-116.699,0.000
1714025428.116,-111.328,-32.715,-6.836,-106.934,0.000
1714025428.118,-128.418,-32.227,-2.441,-127.930,0.000
1714025428.122,-138.672,-31.250,1.953,-141.113,0.000
1714025428.126,-137.207,-27.832,1.953,-129.883,0.000
1714025428.130,-137.207,-24.902,7.324,-133.789,0.000
1714025428.134,-147.949,-28.320,15.137,-147.461,0.000
1714025428.138,-146.484,-25.391,15.625,-141.113,0.000
1714025428.142,-128.418,-18.555,12.207,-123.047,0.000
1714025428.146,-125.977,-21.484,12.695,-120.117,0.000
1714025428.149,-117.676,-23.438,13.184,-116.699,0.000
1714025428.153,-109.375,-26.855,10.742,-112.793,0.000
1714025428.157,-119.141,-34.668,2.930,-111.328,0.000
1714025428.161,-110.840,-37.598,-0.977,-89.844,0.000
1714025428.163,-92.773,-39.551,1.953,-82.031,0.000
1714025428.167,-85.938,-41.016,-4.883,-87.402,0.000
1714025428.171,-81.543,-37.109,-14.648,-84.961,0.000
1714025428.175,-70.312,-32.715,-15.137,-66.895,0.000
1714025428.179,-61.035,-30.762,-14.648,-55.664,0.000
1714025428.183,-60.059,-36.133,-14.648,-56.152,0.000
1714025428.187,-48.828,-38.574,-19.531,-44.922,0.000
1714025428.191,-37.598,-38.574,-20.508,-27.344,0.000
1714025428.195,-35.156,-36.621,-18.555,-24.902,0.000
1714025428.199,-27.832,-33.691,-20.508,-29.785,0.000
1714025428.203,-25.879,-33.203,-23.438,-28.320,0.000
1714025428.206,-29.785,-30.762,-25.391,-29.785,0.000
1714025428.209,-26.855,-28.809,-21.484,-34.668,0.000
1714025428.213,-22.461,-25.391,-14.648,-29.297,0.000
1714025428.217,-25.391,-26.367,-9.766,-16.602,0.000
1714025428.220,-30.273,-24.902,-20.996,-17.578,0.000
1714025428.224,-38.086,-28.320,-31.738,-41.504,0.000
1714025428.228,-46.875,-33.691,-30.762,-57.617,0.000
1714025428.232,-47.852,-24.902,-24.414,-55.176,0.000
1714025428.236,-61.523,-27.344,-15.137,-66.406,0.000
1714025428.240,-80.078,-34.668,-3.418,-79.102,0.000
1714025428.244,-82.031,-26.855,11.230,-79.102,0.000
1714025428.248,-88.867,-18.555,7.324,-91.309,0.000
1714025428.252,-109.375,-26.367,2.930,-104.004,0.000
1714025428.254,-113.770,-29.785,4.395,-104.980,0.000
1714025428.258,-115.723,-27.344,4.883,-111.816,0.000
1714025428.262,-125.000,-29.297,9.277,-123.047,0.000
1714025428.266,-122.559,-28.320,9.766,-126.953,0.000
1714025428.269,-119.141,-24.902,8.789,-128.906,0.000
1714025428.273,-115.723,-22.461,13.184,-115.723,0.000
1714025428.277,-105.957,-18.066,14.160,-100.098,0.000
1714025428.281,-94.238,-15.137,10.742,-96.191,0.000
1714025428.285,-83.008,-20.508,4.883,-88.379,0.000
1714025428.289,-73.242,-23.438,-0.977,-76.172,0.000
1714025428.293,-66.406,-18.555,-3.906,-69.336,0.000
1714025428.297,-52.734,-15.625,-1.953,-65.430,0.000
1714025428.303,-48.828,-20.020,-9.766,-64.453,0.000
1714025428.307,-50.293,-25.391,-28.809,-59.570,0.000
1714025428.311,-43.457,-25.879,-32.715,-49.316,0.000
1714025428.315,-36.621,-26.367,-24.902,-43.945,0.000
1714025428.318,-24.902,-23.926,-22.949,-29.297,0.000
1714025428.322,-12.695,-23.926,-25.391,-13.184,0.000
1714025428.326,-5.859,-24.902,-34.668,-5.859,0.000
1714025428.330,-4.883,-25.879,-37.109,-2.441,0.000
1714025428.334,-12.207,-34.668,-38.574,-8.789,0.000
1714025428.338,-8.301,-36.133,-44.434,-2.930,0.000
1714025428.342,-3.906,-29.785,-44.434,-1.953,0.000
1714025428.346,-5.371,-29.297,-41.504,-12.695,0.000
1714025428.351,-2.441,-34.668,-41.504,-5.859,0.000
1714025428.355,3.906,-30.762,-42.969,6.836,0.000
1714025428.359,10.254,-24.414,-47.852,9.277,0.000
1714025428.363,12.695,-25.391,-49.316,10.742,0.000
1714025428.367,13.184,-24.902,-47.852,5.859,0.000
1714025428.371,11.719,-29.297,-49.805,3.418,0.000
1714025428.374,14.160,-32.715,-49.316,10.254,0.000
1714025428.378,15.625,-31.738,-51.270,11.719,0.000
1714025428.382,26.367,-28.320,-55.664,11.230,0.000
1714025428.386,29.297,-26.855,-56.641,13.184,0.000
1714025428.390,28.809,-22.949,-50.293,18.555,0.000
1714025428.394,32.227,-21.973,-42.969,24.902,0.000
1714025428.398,25.879,-27.344,-48.828,21.484,0.000
1714025428.402,19.043,-28.320,-57.617,20.508,0.000
1714025428.406,19.043,-24.902,-48.340,17.578,0.000
1714025428.410,25.391,-23.926,-44.434,15.625,0.000
1714025428.414,29.297,-29.297,-47.852,17.578,0.000
1714025428.418,31.250,-24.902,-46.875,15.137,0.000
1714025428.422,30.273,-22.949,-45.898,13.672,0.000
1714025428.425,24.414,-26.367,-44.434,17.578,0.000
1714025428.429,24.414,-24.414,-46.387,25.879,0.000
1714025428.433,22.461,-24.902,-40.039,20.508,0.000
1714025428.437,19.531,-28.809,-37.598,10.742,0.000
1714025428.441,20.020,-32.227,-40.039,14.648,0.000
1714025428.445,26.367,-27.344,-35.156,21.973,0.000
1714025428.449,25.879,-24.902,-37.598,14.160,0.000
1714025428.453,22.949,-24.414,-39.551,14.648,0.000
1714025428.456,19.043,-25.391,-39.062,15.625,0.000
1714025428.460,13.672,-26.367,-39.062,7.812,0.000
1714025428.464,8.789,-24.902,-42.969,1.953,0.000
1714025428.468,8.301,-27.832,-46.387,-3.906,0.000
1714025428.472,7.324,-29.297,-41.016,-1.465,0.000
1714025428.476,3.418,-29.785,-35.645,7.324,0.000
1714025428.480,7.324,-25.391,-34.180,10.742,0.000
1714025428.484,13.184,-20.020,-35.156,11.230,0.000
1714025428.488,6.836,-22.461,-38.574,7.812,0.000
1714025428.491,6.348,-24.902,-41.504,12.695,0.000
1714025428.495,6.836,-22.461,-42.480,16.113,0.000
1714025428.499,5.859,-20.996,-40.039,4.395,0.000
1714025428.502,2.441,-27.344,-35.156,-6.836,0.000
1714025428.506,0.000,-26.855,-36.133,-1.953,0.000
1714025428.510,4.883,-22.949,-37.598,7.324,0.000
1714025428.514,5.859,-26.367,-34.668,4.395,0.000
1714025428.518,2.441,-26.855,-36.133,6.836,0.000
1714025428.522,-1.953,-23.438,-37.109,4.395,0.000
1714025428.526,1.465,-22.949,-34.180,1.953,0.000
1714025428.530,0.977,-24.414,-35.156,-6.836,0.000
1714025428.534,-2.441,-23.926,-30.762,-9.766,0.000
1714025428.537,-4.395,-20.996,-26.855,-7.812,0.000
1714025428.541,-4.395,-24.414,-30.762,-5.859,0.000
1714025428.545,-6.348,-25.391,-27.832,-0.488,0.000
1714025428.548,-7.812,-19.531,-22.461,0.977,0.000
1714025428.552,-4.883,-22.461,-26.367,1.465,0.000
1714025428.556,-3.418,-25.391,-31.738,0.977,0.000
1714025428.560,-9.277,-23.926,-34.668,1.465,0.000
1714025428.564,-8.789,-25.391,-31.738,8.789,0.000
1714025428.568,-1.953,-23.438,-26.855,3.418,0.000
1714025428.572,-4.395,-26.855,-34.180,-3.906,0.000
1714025428.576,-6.348,-28.320,-32.715,-0.488,0.000
1714025428.580,-8.301,-26.855,-25.391,-3.906,0.000
1714025428.582,-10.254,-29.297,-31.738,-7.324,0.000
1714025428.586,-14.648,-30.762,-36.133,-5.859,0.000
1714025428.590,-18.066,-26.367,-29.785,-7.812,0.000
1714025428.594,-14.160,-23.926,-25.391,-4.883,0.000
1714025428.598,-13.184,-21.973,-28.809,-2.441,0.000
1714025428.602,-18.555,-20.508,-31.250,-4.883,0.000
1714025428.606,-17.578,-22.461,-30.273,-0.977,0.000
1714025428.610,-15.137,-19.043,-27.344,-4.883,0.000
1714025428.614,-20.996,-14.648,-27.344,-11.719,0.000
1714025428.618,-20.508,-18.066,-30.273,-14.648,0.000
1714025428.621,-23.926,-25.879,-33.691,-19.043,0.000
1714025428.625,-28.320,-26.367,-36.621,-14.160,0.000
1714025428.628,-21.973,-30.762,-37.598,-18.555,0.000
1714025428.632,-28.809,-35.645,-40.039,-24.414,0.000
1714025428.636,-37.109,-29.297,-36.621,-26.367,0.000
1714025428.640,-31.250,-29.297,-37.109,-27.832,0.000
1714025428.644,-27.832,-33.691,-38.574,-31.738,0.000
1714025428.648,-24.414,-33.691,-38.086,-34.668,0.000
1714025428.651,-19.043,-35.156,-38.574,-24.902,0.000
1714025428.655,-12.207,-36.621,-31.250,-18.066,0.000
1714025428.659,-10.742,-31.738,-32.227,-24.414,0.000
1714025428.663,-19.531,-26.367,-40.039,-27.832,0.000
1714025428.667,-28.809,-22.461,-40.527,-34.668,0.000
1714025428.671,-33.203,-23.926,-33.691,-33.203,0.000
1714025428.677,-33.691,-26.367,-31.738,-26.367,0.000
1714025428.681,-37.109,-26.855,-32.715,-26.855,0.000
1714025428.685,-34.668,-24.414,-24.414,-24.414,0.000
1714025428.689,-32.227,-21.973,-25.391,-20.020,0.000
1714025428.693,-32.715,-27.344,-30.762,-18.555,0.000
1714025428.697,-33.203,-31.250,-28.809,-22.461,0.000
1714025428.701,-35.645,-25.391,-26.855,-26.855,0.000
1714025428.705,-34.668,-24.902,-28.320,-23.438,0.000
1714025428.708,-26.855,-24.414,-33.691,-13.672,0.000
1714025428.712,-19.531,-21.484,-30.273,-9.277,0.000
1714025428.716,-19.531,-19.531,-25.391,-18.066,0.000
1714025428.720,-16.113,-19.531,-30.273,-18.555,0.000
1714025428.725,-15.137,-21.484,-32.227,-14.160,0.000
1714025428.729,-14.648,-20.508,-27.344,-13.672,0.000
1714025428.733,-15.137,-22.949,-26.367,-16.602,0.000
1714025428.737,-21.973,-24.902,-30.762,-27.344,0.000
1714025428.741,-20.508,-20.508,-27.344,-25.879,0.000
1714025428.745,-22.461,-20.020,-24.414,-20.996,0.000
1714025428.749,-27.344,-19.043,-27.832,-24.414,0.000
1714025428.753,-26.855,-12.695,-34.668,-30.273,0.000
1714025428.757,-21.484,-18.555,-31.250,-20.020,0.000
1714025428.760,-16.602,-21.484,-28.809,-11.719,0.000
1714025428.764,-18.555,-15.625,-36.133,-21.484,0.000
1714025428.768,-28.320,-20.508,-36.133,-29.297,0.000
1714025428.772,-31.250,-25.879,-33.203,-28.320,0.000
1714025428.776,-28.809,-22.949,-33.203,-29.297,0.000
1714025428.780,-33.691,-20.996,-34.180,-35.645,0.000
1714025428.784,-31.738,-23.926,-35.156,-36.133,0.000
1714025428.788,-27.832,-25.391,-39.551,-28.809,0.000
1714025428.792,-26.367,-23.926,-39.062,-23.926,0.000
1714025428.796,-22.949,-24.902,-35.645,-25.879,0.000
1714025428.800,-22.949,-24.902,-31.250,-29.297,0.000
1714025428.804,-21.484,-29.785,-29.297,-21.484,0.000
1714025428.808,-17.578,-27.344,-22.949,-17.090,0.000
1714025428.812,-20.020,-24.902,-21.973,-25.391,0.000
1714025428.815,-30.273,-28.809,-30.273,-27.344,0.000
1714025428.819,-32.227,-24.414,-29.297,-31.250,0.000
1714025428.823,-25.879,-20.996,-25.391,-35.156,0.000
1714025428.827,-15.137,-20.020,-21.484,-22.949,0.000
1714025428.831,-9.277,-22.949,-20.508,-14.648,0.000
1714025428.835,-24.902,-26.855,-20.020,-22.949,0.000
1714025428.839,-36.133,-24.414,-16.602,-34.180,0.000
1714025428.843,-36.133,-20.996,-18.555,-31.738,0.000
1714025428.847,-33.691,-21.973,-20.020,-27.344,0.000
1714025428.851,-37.109,-27.832,-20.996,-27.344,0.000
1714025428.854,-38.574,-31.738,-22.949,-28.809,0.000
1714025428.858,-33.203,-34.668,-25.879,-28.320,0.000
1714025428.862,-38.574,-32.227,-27.832,-28.809,0.000
1714025428.866,-40.039,-25.879,-26.855,-36.133,0.000
1714025428.870,-36.621,-27.832,-23.926,-37.598,0.000
1714025428.873,-36.133,-30.762,-22.949,-33.691,0.000
1714025428.877,-34.668,-26.367,-22.949,-29.785,0.000
1714025428.881,-34.180,-21.973,-26.855,-27.344,0.000
1714025428.885,-36.133,-27.344,-29.785,-33.203,0.000
1714025428.889,-35.156,-30.762,-25.879,-36.621,0.000
1714025428.893,-25.879,-22.949,-20.996,-21.973,0.000
1714025428.897,-19.531,-18.555,-17.578,-20.020,0.000
1714025428.901,-24.902,-21.484,-16.113,-31.250,0.000
1714025428.905,-23.438,-20.020,-18.066,-24.414,0.000
1714025428.909,-22.949,-20.508,-21.973,-23.926,0.000
1714025428.912,-21.973,-22.949,-22.949,-25.391,0.000
1714025428.915,-20.020,-20.508,-22.461,-28.809,0.000
1714025428.919,-14.160,-16.602,-20.996,-28.809,0.000
1714025428.923,-9.766,-19.043,-20.020,-18.555,0.000
1714025428.927,-18.555,-24.414,-20.508,-21.973,0.000
1714025428.931,-23.438,-21.973,-19.531,-30.273,0.000
1714025428.935,-22.461,-19.043,-17.578,-27.344,0.000
1714025428.939,-29.785,-20.020,-22.949,-22.461,0.000
1714025428.943,-21.973,-16.602,-22.949,-17.578,0.000
1714025428.947,-22.949,-22.461,-24.414,-24.902,0.000
1714025428.951,-26.855,-25.391,-24.414,-32.227,0.000
1714025428.955,-21.484,-18.066,-20.996,-27.344,0.000
1714025428.957,-26.855,-20.020,-22.949,-17.578,0.000
1714025428.961,-25.391,-21.973,-19.043,-15.137,0.000
1714025428.965,-27.344,-24.902,-19.043,-26.367,0.000
1714025428.969,-33.203,-32.227,-22.461,-30.762,0.000
1714025428.973,-28.320,-25.879,-22.461,-28.320,0.000
1714025428.977,-27.832,-20.996,-23.926,-33.203,0.000
1714025428.981,-26.367,-24.902,-21.973,-25.391,0.000
1714025428.985,-23.438,-30.273,-22.949,-23.438,0.000
1714025428.988,-25.879,-27.832,-21.484,-32.715,0.000
1714025428.992,-23.438,-22.949,-20.020,-30.762,0.000
1714025428.996,-26.855,-23.926,-20.996,-27.344,0.000
1714025429.000,-31.250,-23.926,-21.484,-26.367,0.000
1714025429.003,-28.809,-29.297,-27.344,-21.484,0.000
1714025429.007,-29.297,-28.320,-29.297,-20.508,0.000
1714025429.010,-26.367,-18.066,-22.949,-20.996,0.000
1714025429.014,-21.973,-24.902,-22.461,-23.438,0.000
1714025429.018,-23.926,-28.809,-22.949,-27.832,0.000
1714025429.022,-24.902,-22.461,-20.508,-24.414,0.000
1714025429.026,-25.879,-24.902,-30.273,-21.973,0.000
1714025429.030,-30.762,-28.320,-34.180,-31.250,0.000
1714025429.034,-33.203,-25.879,-29.785,-33.203,0.000
1714025429.038,-28.809,-29.297,-27.344,-23.926,0.000
1714025429.042,-20.996,-31.250,-21.484,-16.113,0.000
1714025429.046,-17.578,-25.879,-26.367,-21.973,0.000
1714025429.052,-20.020,-29.785,-32.715,-28.320,0.000
1714025429.056,-21.484,-32.715,-31.250,-28.320,0.000
1714025429.060,-23.438,-32.715,-30.273,-26.367,0.000
1714025429.064,-22.461,-34.180,-26.367,-20.996,0.000
1714025429.067,-27.344,-33.691,-28.320,-24.902,0.000
1714025429.071,-34.668,-34.668,-33.203,-30.762,0.000
1714025429.075,-33.203,-34.668,-29.785,-27.832,0.000
1714025429.079,-32.715,-34.180,-24.414,-31.250,0.000
1714025429.083,-32.227,-32.715,-24.902,-38.086,0.000
1714025429.087,-26.855,-31.250,-30.762,-26.855,0.000
1714025429.091,-28.809,-30.273,-31.738,-24.902,0.000
1714025429.095,-25.879,-34.180,-29.297,-26.855,0.000
1714025429.100,-18.555,-35.645,-26.367,-25.879,0.000
1714025429.104,-27.344,-32.715,-28.809,-30.273,0.000
1714025429.108,-29.785,-31.738,-29.297,-26.367,0.000
1714025429.112,-25.391,-31.250,-30.762,-25.391,0.000
1714025429.116,-25.879,-29.785,-32.715,-30.273,0.000
1714025429.120,-30.273,-31.250,-22.949,-33.691,0.000
1714025429.124,-36.621,-32.715,-18.066,-37.109,0.000
1714025429.127,-38.574,-35.645,-22.949,-33.691,0.000
1714025429.131,-38.086,-34.180,-25.879,-26.855,0.000
1714025429.135,-34.668,-28.320,-27.832,-26.367,0.000
1714025429.139,-30.273,-24.414,-28.320,-25.391,0.000
1714025429.143,-27.344,-25.879,-26.367,-21.484,0.000
1714025429.147,-24.414,-25.879,-24.414,-23.438,0.000
1714025429.151,-24.902,-23.926,-24.902,-27.832,0.000
1714025429.155,-29.785,-26.855,-30.762,-31.738,0.000
1714025429.159,-36.133,-29.297,-30.762,-28.809,0.000
1714025429.163,-36.133,-33.203,-30.273,-29.297,0.000
1714025429.167,-34.668,-37.598,-28.809,-30.762,0.000
1714025429.171,-32.227,-36.621,-27.344,-26.855,0.000
1714025429.175,-29.785,-32.227,-25.879,-22.949,0.000
1714025429.179,-27.344,-34.668,-27.832,-18.066,0.000
1714025429.183,-27.832,-33.203,-28.809,-26.855,0.000
1714025429.186,-36.621,-32.715,-29.297,-36.133,0.000
1714025429.190,-36.621,-35.645,-36.133,-33.691,0.000
1714025429.194,-27.832,-34.668,-37.598,-26.855,0.000
1714025429.198,-30.273,-37.598,-33.691,-25.879,0.000
1714025429.202,-29.785,-37.598,-32.715,-30.273,0.000
1714025429.206,-30.762,-33.691,-31.738,-24.902,0.000
1714025429.210,-33.203,-25.391,-27.832,-18.555,0.000
1714025429.214,-27.832,-20.996,-25.391,-20.508,0.000
1714025429.218,-24.902,-24.902,-26.367,-27.344,0.000
1714025429.222,-27.832,-25.879,-26.855,-26.855,0.000
1714025429.225,-28.809,-25.391,-26.855,-24.902,0.000
1714025429.229,-26.855,-20.996,-20.508,-30.273,0.000
1714025429.233,-23.926,-20.508,-25.391,-32.715,0.000
1714025429.237,-23.438,-29.297,-32.227,-40.039,0.000
1714025429.240,-27.344,-35.156,-34.180,-43.457,0.000
1714025429.244,-28.809,-31.738,-36.133,-40.527,0.000
1714025429.248,-27.832,-33.691,-36.621,-41.992,0.000
1714025429.252,-22.949,-30.762,-30.762,-34.668,0.000
1714025429.256,-21.973,-26.855,-29.785,-26.855,0.000
1714025429.260,-27.832,-32.227,-34.180,-32.715,0.000
1714025429.264,-25.391,-32.715,-32.715,-31.250,0.000
1714025429.268,-24.902,-25.879,-35.156,-30.762,0.000
1714025429.272,-31.250,-21.484,-29.297,-35.645,0.000
1714025429.276,-32.227,-18.066,-23.438,-34.180,0.000
1714025429.279,-35.156,-22.461,-29.785,-38.086,0.000
1714025429.283,-32.227,-22.461,-30.273,-38.086,0.000
1714025429.286,-30.273,-17.090,-26.855,-38.574,0.000
1714025429.290,-27.344,-19.531,-25.879,-37.598,0.000
1714025429.294,-22.461,-20.996,-28.320,-30.273,0.000
1714025429.298,-21.973,-19.531,-22.461,-31.250,0.000
1714025429.302,-23.926,-20.996,-15.625,-32.227,0.000
1714025429.306,-26.367,-20.996,-13.672,-19.531,0.000
1714025429.310,-20.508,-17.090,-11.719,-4.883,0.000
1714025429.314,-19.043,-16.113,-12.695,-3.906,0.000
1714025429.318,-24.902,-20.508,-18.066,-20.996,0.000
1714025429.322,-19.531,-17.578,-22.949,-20.020,0.000
1714025429.325,-24.414,-15.137,-23.438,-8.789,0.000
1714025429.329,-31.738,-22.949,-21.973,-10.254,0.000
1714025429.332,-29.785,-27.832,-24.414,-21.973,0.000
1714025429.336,-27.832,-28.320,-24.902,-24.902,0.000
1714025429.340,-26.367,-26.367,-26.855,-27.344,0.000
1714025429.344,-31.250,-27.832,-28.809,-37.109,0.000
1714025429.348,-33.691,-28.320,-27.344,-38.574,0.000
1714025429.352,-27.344,-21.973,-23.926,-33.203,0.000
1714025429.356,-20.508,-27.832,-29.785,-25.391,0.000
1714025429.360,-19.531,-29.785,-28.320,-24.902,0.000
1714025429.364,-20.020,-25.391,-27.344,-33.691,0.000
1714025429.367,-26.855,-27.344,-34.668,-41.016,0.000
1714025429.371,-30.762,-28.320,-32.227,-39.551,0.000
1714025429.375,-29.297,-30.762,-27.344,-29.297,0.000
1714025429.378,-33.691,-35.645,-26.855,-30.273,0.000
1714025429.382,-37.598,-32.715,-30.273,-34.668,0.000
1714025429.386,-39.551,-30.273,-29.297,-38.574,0.000
1714025429.389,-38.574,-31.250,-26.855,-38.086,0.000
1714025429.393,-33.691,-32.227,-28.809,-38.574,0.000
1714025429.397,-37.598,-29.785,-27.344,-40.527,0.000
1714025429.401,-44.922,-29.297,-26.367,-30.273,0.000
1714025429.405,-47.852,-28.809,-29.297,-30.762,0.000
1714025429.409,-43.945,-30.762,-27.832,-39.551,0.000
1714025429.413,-41.992,-28.809,-22.949,-32.715,0.000
1714025429.417,-41.992,-17.578,-25.879,-23.438,0.000
1714025429.421,-35.156,-18.066,-25.879,-23.438,0.000
1714025429.427,-30.762,-22.461,-20.020,-22.461,0.000
1714025429.431,-28.809,-21.973,-18.555,-19.531,0.000
1714025429.435,-25.391,-21.973,-20.996,-22.461,0.000
1714025429.438,-29.297,-23.926,-21.484,-29.785,0.000
1714025429.442,-37.598,-30.273,-23.926,-35.156,0.000
1714025429.446,-38.574,-33.691,-30.273,-37.598,0.000
1714025429.450,-37.598,-32.227,-30.762,-37.598,0.000
1714025429.454,-37.598,-27.832,-25.391,-28.320,0.000
1714025429.458,-34.180,-21.973,-20.020,-18.555,0.000
1714025429.462,-31.738,-30.273,-23.438,-16.113,0.000
1714025429.466,-30.762,-31.738,-20.508,-22.949,0.000
1714025429.470,-31.738,-25.879,-18.066,-28.809,0.000
1714025429.475,-34.180,-27.344,-19.043,-20.996,0.000
1714025429.479,-32.227,-28.320,-18.555,-15.625,0.000
1714025429.483,-35.645,-27.344,-24.902,-22.461,0.000
1714025429.487,-38.086,-30.762,-28.809,-25.879,0.000
1714025429.491,-32.227,-30.762,-30.273,-21.973,0.000
1714025429.495,-24.902,-22.949,-30.273,-21.484,0.000
1714025429.498,-21.484,-18.555,-33.691,-28.320,0.000
1714025429.502,-19.043,-17.578,-33.203,-34.668,0.000
1714025429.506,-15.137,-17.578,-27.832,-31.738,0.000
1714025429.510,-17.090,-19.531,-25.879,-21.973,0.000
1714025429.514,-18.066,-17.578,-25.879,-28.809,0.000
1714025429.518,-19.043,-17.578,-26.367,-40.039,0.000
1714025429.522,-26.855,-22.461,-31.250,-41.992,0.000
1714025429.526,-35.156,-22.461,-26.367,-34.668,0.000
1714025429.530,-37.598,-29.297,-27.832,-30.762,0.000
1714025429.534,-36.621,-31.738,-30.273,-29.785,0.000
1714025429.538,-38.086,-27.832,-26.855,-26.367,0.000
1714025429.542,-41.504,-27.832,-27.832,-20.996,0.000
1714025429.546,-39.062,-30.273,-26.367,-20.996,0.000
1714025429.550,-35.645,-29.297,-25.879,-28.809,0.000
1714025429.553,-40.527,-29.785,-28.809,-26.367,0.000
1714025429.557,-42.480,-27.344,-29.785,-23.926,0.000
1714025429.561,-38.574,-23.926,-26.855,-22.949,0.000
1714025429.565,-34.180,-24.414,-24.414,-24.902,0.000
1714025429.569,-30.273,-25.391,-20.996,-25.879,0.000
1714025429.573,-27.344,-25.391,-19.531,-26.367,0.000
1714025429.577,-26.367,-27.832,-23.438,-20.996,0.000
1714025429.581,-33.691,-30.762,-25.391,-28.809,0.000
1714025429.585,-36.133,-29.785,-22.949,-36.133,0.000
1714025429.589,-39.551,-34.180,-28.809,-35.645,0.000
1714025429.592,-45.410,-31.250,-35.156,-37.598,0.000
1714025429.596,-37.598,-21.484,-29.785,-29.785,0.000
1714025429.600,-34.668,-20.508,-29.297,-24.414,0.000
1714025429.604,-39.062,-22.949,-39.551,-35.156,0.000
1714025429.608,-35.645,-22.949,-37.109,-36.133,0.000
1714025429.612,-30.273,-22.461,-30.762,-23.438,0.000
1714025429.615,-30.273,-22.949,-29.297,-23.926,0.000
1714025429.619,-28.809,-24.414,-30.762,-27.832,0.000
1714025429.623,-25.391,-28.320,-30.273,-22.461,0.000
1714025429.627,-24.902,-34.180,-25.391,-22.949,0.000
1714025429.631,-27.344,-28.320,-23.438,-23.438,0.000
1714025429.635,-29.785,-26.855,-27.344,-25.391,0.000
1714025429.639,-35.156,-33.203,-24.902,-27.832,0.000
1714025429.643,-37.598,-33.203,-25.879,-20.020,0.000
1714025429.646,-36.133,-36.133,-27.344,-25.391,0.000
1714025429.650,-33.203,-35.156,-20.996,-32.715,0.000
1714025429.654,-27.832,-26.367,-21.484,-25.391,0.000
1714025429.658,-22.461,-24.414,-24.414,-17.578,0.000
1714025429.661,-20.020,-31.738,-20.508,-19.531,0.000
1714025429.665,-30.273,-29.297,-20.996,-24.902,0.000
1714025429.669,-33.691,-28.320,-26.855,-27.832,0.000
1714025429.673,-30.273,-30.762,-29.785,-24.414,0.000
1714025429.677,-22.949,-23.926,-27.832,-12.207,0.000
1714025429.681,-20.508,-20.508,-29.297,-19.043,0.000
1714025429.685,-30.762,-25.391,-36.133,-28.809,0.000
1714025429.689,-30.273,-26.855,-34.668,-20.020,0.000
1714025429.692,-24.414,-25.391,-31.738,-20.508,0.000
1714025429.696,-22.461,-19.531,-28.320,-22.949,0.000
1714025429.700,-25.879,-19.043,-24.414,-25.879,0.000
1714025429.704,-29.297,-24.902,-23.926,-30.273,0.000
1714025429.707,-30.273,-26.367,-23.438,-29.297,0.000
1714025429.711,-20.020,-23.438,-22.949,-25.391,0.000
1714025429.715,-15.625,-26.367,-20.020,-21.484,0.000
1714025429.719,-21.484,-27.832,-13.672,-21.484,0.000
1714025429.723,-22.461,-25.391,-15.137,-21.973,0.000
1714025429.726,-20.508,-24.902,-20.020,-17.578,0.000
1714025429.730,-20.996,-21.484,-13.672,-16.602,0.000
1714025429.734,-22.461,-18.555,-8.789,-19.531,0.000
1714025429.738,-20.996,-16.113,-14.160,-15.625,0.000
1714025429.742,-19.043,-18.555,-19.531,-15.137,0.000
1714025429.746,-19.043,-20.996,-21.973,-17.578,0.000
1714025429.750,-20.020,-16.602,-22.949,-20.508,0.000
1714025429.753,-28.320,-22.461,-23.438,-25.391,0.000
1714025429.756,-24.902,-30.273,-26.855,-18.555,0.000
1714025429.760,-20.020,-24.902,-28.809,-16.113,0.000
1714025429.764,-25.391,-24.902,-25.391,-24.902,0.000
1714025429.768,-26.855,-27.344,-22.461,-27.832,0.000
1714025429.772,-24.414,-24.902,-25.391,-24.414,0.000
1714025429.776,-21.973,-20.508,-26.855,-24.902,0.000
1714025429.780,-24.902,-22.461,-24.902,-37.109,0.000
1714025429.784,-27.832,-25.391,-23.438,-39.062,0.000
1714025429.788,-30.762,-28.320,-24.902,-34.668,0.000
1714025429.792,-31.738,-26.367,-25.879,-34.180,0.000
1714025429.796,-32.715,-21.484,-24.902,-39.551,0.000
1714025429.802,-34.668,-21.973,-27.344,-38.086,0.000
1714025429.806,-33.203,-25.879,-26.855,-26.855,0.000
1714025429.810,-38.086,-24.414,-28.320,-25.391,0.000
1714025429.814,-39.062,-24.902,-30.273,-32.715,0.000
1714025429.817,-39.062,-29.785,-32.227,-34.668,0.000
1714025429.821,-40.039,-29.785,-29.785,-27.344,0.000
1714025429.825,-40.039,-25.391,-23.438,-32.227,0.000
1714025429.829,-41.016,-25.391,-21.973,-41.504,0.000
1714025429.833,-38.574,-28.320,-22.461,-34.180,0.000
1714025429.837,-41.504,-26.367,-27.832,-28.809,0.000
1714025429.841,-41.016,-23.926,-28.320,-32.227,0.000
1714025429.845,-31.738,-21.973,-33.691,-34.668,0.000
1714025429.850,-31.250,-18.066,-40.527,-38.086,0.000
1714025429.854,-33.203,-23.438,-30.762,-39.062,0.000
1714025429.858,-30.762,-30.273,-26.855,-31.738,0.000
1714025429.862,-24.414,-26.367,-31.738,-22.461,0.000
1714025429.866,-27.832,-29.297,-31.250,-22.461,0.000
1714025429.870,-31.738,-28.809,-26.855,-28.809,0.000
1714025429.874,-24.414,-24.902,-28.320,-24.902,0.000
1714025429.877,-24.902,-28.320,-32.715,-26.855,0.000
1714025429.881,-27.344,-28.809,-40.527,-32.227,0.000
1714025429.885,-23.926,-28.809,-40.039,-29.785,0.000
1714025429.889,-22.461,-29.785,-30.762,-35.645,0.000
1714025429.893,-24.902,-29.297,-27.344,-30.762,0.000
1714025429.897,-22.461,-30.273,-30.273,-26.855,0.000
1714025429.901,-17.578,-31.250,-25.879,-31.738,0.000
1714025429.905,-17.090,-30.273,-27.344,-29.297,0.000
1714025429.909,-23.438,-31.250,-31.250,-24.902,0.000
1714025429.913,-25.879,-32.715,-29.785,-21.484,0.000
1714025429.917,-22.949,-29.785,-32.227,-21.973,0.000
1714025429.921,-26.367,-25.879,-29.785,-25.391,0.000
1714025429.925,-23.438,-29.785,-23.438,-25.879,0.000
1714025429.929,-19.531,-33.691,-26.367,-18.066,0.000
1714025429.933,-23.438,-31.250,-19.531,-20.996,0.000
1714025429.936,-30.762,-33.203,-15.137,-32.227,0.000
1714025429.940,-33.691,-31.738,-23.926,-28.809,0.000
1714025429.944,-29.297,-30.762,-26.855,-24.414,0.000
1714025429.948,-24.902,-33.203,-30.273,-31.738,0.000
1714025429.952,-29.297,-34.180,-35.645,-37.109,0.000
1714025429.956,-28.320,-30.762,-30.273,-33.691,0.000
1714025429.960,-18.066,-23.438,-18.066,-29.785,0.000
1714025429.964,-20.508,-24.414,-16.602,-33.203,0.000
1714025429.968,-28.809,-26.367,-24.414,-43.945,0.000
1714025429.972,-23.926,-26.855,-25.879,-42.969,0.000
1714025429.975,-24.902,-33.203,-28.809,-39.062,0.000
1714025429.979,-25.879,-30.273,-25.879,-40.039,0.000
1714025429.983,-24.414,-21.973,-22.461,-39.551,0.000
1714025429.987,-29.785,-30.762,-27.344,-40.527,0.000
1714025429.991,-26.367,-35.156,-23.438,-34.668,0.000
1714025429.995,-24.902,-33.691,-20.508,-29.785,0.000
1714025429.998,-34.668,-34.180,-28.809,-35.645,0.000
1714025430.002,-33.203,-32.227,-32.715,-38.574,0.000
1714025430.006,-30.273,-33.203,-28.809,-35.156,0.000
1714025430.010,-39.551,-31.250,-28.809,-34.668,0.000
1714025430.014,-37.598,-29.297,-29.785,-37.109,0.000
1714025430.018,-37.109,-27.832,-30.762,-33.203,0.000
1714025430.022,-36.133,-25.879,-24.414,-28.320,0.000
1714025430.026,-29.297,-30.762,-19.531,-23.926,0.000
1714025430.030,-24.414,-32.715,-23.926,-23.926,0.000
1714025430.034,-26.367,-27.832,-26.367,-31.250,0.000
1714025430.037,-25.391,-26.855,-21.973,-33.691,0.000
1714025430.041,-21.973,-22.461,-21.484,-28.320,0.000
1714025430.044,-12.207,-19.043,-22.949,-19.043,0.000
1714025430.048,-16.113,-23.926,-20.508,-23.438,0.000
1714025430.052,-34.668,-28.809,-23.926,-36.133,0.000
1714025430.056,-35.645,-29.785,-24.414,-33.691,0.000
1714025430.060,-29.785,-28.809,-23.438,-25.879,0.000
1714025430.064,-26.367,-27.344,-25.879,-24.902,0.000
1714025430.068,-27.832,-23.438,-24.902,-32.715,0.000
1714025430.072,-32.227,-23.926,-20.996,-33.203,0.000
1714025430.076,-36.133,-20.996,-25.879,-30.273,0.000
1714025430.080,-36.621,-21.484,-30.762,-27.832,0.000
1714025430.082,-34.180,-24.414,-29.297,-25.391,0.000
1714025430.086,-31.738,-26.855,-30.762,-26.855,0.000
1714025430.090,-23.438,-25.879,-26.367,-22.461,0.000
1714025430.094,-20.996,-23.438,-20.020,-20.996,0.000
1714025430.098,-27.344,-25.391,-20.508,-25.391,0.000
1714025430.102,-27.832,-27.832,-26.367,-24.414,0.000
1714025430.106,-25.879,-26.367,-31.738,-21.484,0.000
1714025430.110,-28.809,-20.020,-30.273,-20.996,0.000
1714025430.114,-30.273,-17.090,-26.367,-27.832,0.000
1714025430.117,-31.250,-25.879,-27.832,-30.762,0.000
1714025430.121,-35.645,-30.762,-28.809,-27.832,0.000
1714025430.125,-36.133,-26.367,-26.367,-22.949,0.000
1714025430.128,-26.855,-21.973,-20.508,-18.555,0.000
1714025430.132,-26.367,-25.391,-20.508,-21.973,0.000
1714025430.136,-32.715,-27.344,-25.879,-24.902,0.000
1714025430.139,-27.344,-24.414,-22.949,-18.066,0.000
1714025430.143,-23.926,-28.809,-23.438,-17.578,0.000
1714025430.147,-23.438,-29.297,-30.762,-18.066,0.000
1714025430.151,-21.973,-21.484,-27.832,-13.184,0.000
1714025430.155,-14.648,-17.578,-25.391,-16.602,0.000
1714025430.159,-11.719,-23.438,-27.344,-20.996,0.000
1714025430.163,-17.090,-24.414,-29.785,-16.602,0.000
1714025430.167,-23.926,-20.996,-30.273,-18.555,0.000
1714025430.171,-26.367,-24.414,-26.855,-18.066,0.000
1714025430.177,-28.320,-27.344,-28.809,-19.043,0.000
1714025430.181,-28.320,-22.949,-31.250,-27.344,0.000
1714025430.185,-25.391,-26.855,-33.203,-30.273,0.000
1714025430.189,-28.320,-30.762,-35.645,-27.832,0.000
1714025430.193,-29.297,-29.297,-35.156,-27.832,0.000
1714025430.197,-31.250,-28.320,-33.691,-33.203,0.000
1714025430.200,-33.691,-29.785,-29.785,-33.203,0.000
1714025430.204,-30.762,-32.227,-25.879,-35.645,0.000
1714025430.208,-25.879,-29.785,-30.762,-35.156,0.000
1714025430.212,-25.391,-26.855,-31.738,-27.832,0.000
1714025430.216,-26.367,-22.949,-22.461,-34.668,0.000
1714025430.220,-21.484,-23.926,-21.484,-36.621,0.000
1714025430.225,-22.461,-21.484,-24.414,-33.203,0.000
1714025430.229,-27.832,-19.531,-22.461,-31.738,0.000
1714025430.233,-23.926,-21.484,-28.320,-34.668,0.000
1714025430.237,-26.367,-22.949,-35.156,-40.039,0.000
1714025430.241,-35.645,-26.855,-31.250,-34.668,0.000
1714025430.245,-31.738,-27.832,-31.250,-32.227,0.000
1714025430.249,-29.297,-27.832,-29.785,-36.133,0.000
1714025430.253,-34.180,-29.785,-29.297,-36.621,0.000
1714025430.256,-35.156,-29.785,-30.273,-27.832,0.000
1714025430.260,-34.180,-28.320,-23.438,-23.438,0.000
1714025430.264,-32.227,-26.367,-20.508,-32.227,0.000
1714025430.268,-31.250,-25.391,-24.902,-35.645,0.000
1714025430.272,-34.668,-28.320,-28.809,-34.180,0.000
1714025430.276,-26.855,-27.832,-24.414,-27.832,0.000
1714025430.280,-20.508,-28.320,-20.996,-31.738,0.000
1714025430.284,-20.508,-29.785,-24.902,-40.039,0.000
1714025430.288,-15.137,-28.809,-31.250,-39.551,0.000
1714025430.292,-14.648,-29.785,-38.086,-37.109,0.000
1714025430.296,-14.648,-25.879,-36.133,-35.645,0.000
1714025430.300,-12.207,-24.414,-32.715,-34.180,0.000
1714025430.304,-19.043,-31.250,-32.227,-22.949,0.000
1714025430.308,-16.602,-26.855,-24.414,-19.531,0.000
1714025430.312,-12.207,-20.996,-21.973,-22.461,0.000
1714025430.315,-19.043,-25.391,-26.367,-20.508,0.000
1714025430.319,0.000,-27.832,-26.367,-30.762,0.000
1714025430.323,0.000,-33.203,-29.297,-35.156,0.000
1714025430.327,0.000,-37.109,-30.273,-23.926,0.000
1714025430.331,0.000,-36.133,-31.250,-22.461,0.000
1714025430.335,0.000,-36.133,-36.133,-34.668,0.000
1714025430.339,0.000,-34.668,-28.320,-36.133,0.000
1714025430.343,0.000,-35.156,-25.391,-30.762,0.000
1714025430.347,0.000,-38.574,-26.855,-26.367,0.000
1714025430.350,0.000,-39.551,-29.785,-27.832,0.000
1714025430.354,0.000,-27.344,-26.855,-34.180,0.000
1714025430.358,0.000,-26.855,-23.438,-28.809,0.000
1714025430.362,0.000,-32.715,-24.902,-24.902,0.000
1714025430.365,-24.902,-26.367,-23.438,-32.715,0.000
1714025430.369,-24.902,-21.484,-26.855,-32.227,0.000
1714025430.373,-30.762,-25.391,-33.203,-24.902,0.000
1714025430.377,-23.438,-26.855,-35.156,-17.578,0.000
1714025430.381,-15.137,-28.320,-34.668,-19.531,0.000
1714025430.385,-20.508,-32.227,-34.668,-27.832,0.000
1714025430.389,-19.043,-31.738,-31.250,-25.879,0.000
1714025430.393,-12.207,-28.809,-31.250,-14.648,0.000
1714025430.397,-18.066,-29.297,-34.668,-24.902,0.000
1714025430.401,-29.297,-36.133,-27.832,-32.715,0.000
1714025430.404,-16.113,-33.691,-26.367,-14.648,0.000
1714025430.408,-6.348,-31.738,-29.297,-10.254,0.000
1714025430.411,-18.555,-27.344,-29.297,-21.973,0.000
1714025430.415,-18.066,-20.508,-29.785,-20.020,0.000
1714025430.419,-14.648,-23.926,-33.203,-21.484,0.000
1714025430.423,-17.578,-26.855,-34.180,-28.809,0.000
1714025430.427,-19.043,-29.785,-34.668,-24.902,0.000
1714025430.431,-24.414,-29.785,-34.668,-26.367,0.000
1714025430.435,-29.785,-29.297,-29.785,-29.785,0.000
1714025430.439,-24.414,-28.320,-31.738,-25.879,0.000
1714025430.443,-20.508,-21.484,-27.832,-26.855,0.000
1714025430.447,-18.066,-24.902,-22.461,-26.855,0.000
1714025430.451,-16.113,-30.273,-26.367,-25.391,0.000
1714025430.454,-21.484,-27.832,-34.668,-35.645,0.000
1714025430.457,-20.508,-30.762,-35.645,-37.598,0.000
1714025430.461,-17.578,-30.273,-34.668,-33.691,0.000
1714025430.465,-22.461,-27.344,-34.180,-36.621,0.000
1714025430.469,-30.273,-30.273,-27.832,-40.039,0.000
1714025430.473,-31.738,-36.133,-28.320,-40.039,0.000
1714025430.477,-29.297,-34.180,-29.785,-37.598,0.000
1714025430.481,-32.227,-35.645,-28.320,-41.016,0.000
1714025430.485,-24.414,-38.574,-27.832,-34.668,0.000
1714025430.488,-23.438,-28.809,-23.926,-28.320,0.000
1714025430.492,-32.227,-24.902,-18.555,-26.855,0.000
1714025430.496,-34.668,-29.785,-20.020,-28.320,0.000
1714025430.500,-27.832,-25.391,-19.043,-36.133,0.000
1714025430.503,-18.066,-24.902,-17.578,-34.180,0.000
1714025430.507,-17.090,-27.344,-18.066,-28.809,0.000
1714025430.511,-19.043,-29.785,-20.996,-28.320,0.000
1714025430.514,-21.973,-28.320,-30.273,-34.180,0.000
1714025430.518,-25.879,-26.367,-29.297,-31.738,0.000
1714025430.522,-22.461,-25.879,-20.508,-17.090,0.000
1714025430.526,-20.508,-26.367,-19.531,-12.207,0.000
1714025430.530,-17.578,-23.438,-20.508,-22.949,0.000
1714025430.534,-18.066,-18.066,-13.672,-23.438,0.000
1714025430.538,-15.625,-21.973,-14.648,-13.672,0.000
1714025430.542,-16.113,-20.020,-20.508,-13.184,0.000
1714025430.546,-16.602,-19.043,-21.484,-16.602,0.000
1714025430.552,-19.531,-23.438,-24.902,-24.902,0.000
1714025430.556,-25.391,-25.391,-29.785,-23.438,0.000
1714025430.560,-27.832,-28.809,-28.809,-22.461,0.000
1714025430.564,-28.809,-33.691,-26.367,-28.320,0.000
1714025430.567,-28.809,-35.156,-28.320,-25.391,0.000
1714025430.571,-30.762,-33.691,-34.180,-25.391,0.000
1714025430.575,-38.086,-28.809,-37.109,-25.391,0.000
1714025430.579,-43.945,-29.297,-34.668,-23.926,0.000
1714025430.583,-40.039,-26.855,-31.250,-20.996,0.000
1714025430.587,-32.715,-22.949,-29.785,-17.090,0.000
1714025430.591,-34.668,-24.414,-23.926,-23.926,0.000
1714025430.595,-33.691,-21.484,-16.602,-24.902,0.000
1714025430.600,-30.762,-26.367,-16.113,-21.973,0.000
1714025430.604,-30.762,-27.832,-19.043,-20.508,0.000
1714025430.608,-35.645,-22.949,-23.926,-23.926,0.000
1714025430.612,-35.156,-22.461,-27.832,-24.414,0.000
1714025430.616,-32.715,-27.344,-29.297,-26.367,0.000
1714025430.620,-36.621,-29.297,-29.785,-37.109,0.000
1714025430.623,-37.109,-24.902,-28.320,-29.785,0.000
1714025430.627,-34.180,-28.809,-27.344,-27.832,0.000
1714025430.631,-29.785,-32.227,-26.855,-32.715,0.000
1714025430.635,-32.227,-33.203,-26.367,-30.762,0.000
1714025430.639,-40.527,-31.738,-25.879,-39.551,0.000
1714025430.643,-40.039,-27.344,-27.344,-39.062,0.000
1714025430.647,-37.598,-28.320,-30.762,-31.738,0.000
1714025430.651,-46.875,-25.879,-30.762,-42.480,0.000
1714025430.655,-43.945,-32.227,-29.785,-41.504,0.000
1714025430.659,-29.785,-34.180,-25.391,-30.762,0.000
1714025430.663,-29.297,-25.879,-22.949,-29.297,0.000
1714025430.667,-37.109,-27.344,-25.879,-35.156,0.000
1714025430.671,-32.715,-26.367,-18.555,-32.715,0.000
1714025430.675,-26.367,-22.949,-18.066,-23.926,0.000
1714025430.679,-26.855,-26.855,-26.367,-23.926,0.000
1714025430.683,-25.391,-27.344,-19.043,-26.367,0.000
1714025430.686,-31.738,-29.785,-18.555,-30.762,0.000
1714025430.690,-37.598,-29.297,-12.695,-27.832,0.000
1714025430.694,-29.785,-19.531,-2.441,-20.020,0.000
1714025430.698,-26.855,-15.625,-5.371,-22.949,0.000
1714025430.702,-30.762,-21.973,-3.906,-27.344,0.000
1714025430.706,-42.969,-25.879,-8.789,-31.250,0.000
1714025430.710,-54.688,-32.227,-23.438,-45.898,0.000
1714025430.714,-65.918,-38.086,-22.949,-66.895,0.000
1714025430.718,-79.590,-29.785,-11.230,-81.543,0.000
1714025430.722,-90.820,-19.043,-0.977,-88.379,0.000
1714025430.725,-105.469,-33.203,4.395,-88.379,0.000
1714025430.729,-133.789,-44.434,-1.953,-117.188,0.000
1714025430.733,-145.020,-36.621,0.000,-143.066,0.000
1714025430.737,-154.297,-32.715,6.348,-158.691,0.000
1714025430.741,-175.781,-32.715,8.301,-187.500,0.000
1714025430.745,-185.547,-29.785,20.020,-194.824,0.000
1714025430.748,-187.012,-28.809,29.785,-192.383,0.000
1714025430.752,-181.641,-28.809,29.297,-189.453,0.000
1714025430.756,-179.199,-28.809,32.715,-185.547,0.000
1714025430.760,-170.410,-20.996,40.527,-171.387,0.000
1714025430.764,-157.715,-19.531,48.340,-161.621,0.000
1714025430.768,-149.902,-30.273,48.828,-145.508,0.000
1714025430.772,-138.672,-29.785,44.434,-139.648,0.000
1714025430.776,-121.582,-29.297,40.039,-139.160,0.000
1714025430.780,-111.816,-29.785,36.621,-117.188,0.000
1714025430.784,-108.398,-24.414,23.926,-118.652,0.000
1714025430.787,-97.656,-28.320,12.207,-114.746,0.000
1714025430.790,-84.473,-33.691,9.277,-89.844,0.000
1714025430.794,-78.125,-34.668,4.883,-77.637,0.000
1714025430.798,-69.824,-41.992,0.977,-76.172,0.000
1714025430.802,-56.641,-39.551,-5.371,-63.477,0.000
1714025430.806,-48.828,-34.668,-12.695,-49.316,0.000
1714025430.810,-34.180,-35.156,-17.090,-35.156,0.000
1714025430.814,-23.926,-36.133,-19.043,-27.344,0.000
1714025430.818,-22.949,-29.785,-21.973,-37.598,0.000
1714025430.822,-20.996,-26.855,-29.297,-33.203,0.000
1714025430.826,-12.207,-27.344,-36.621,-21.484,0.000
1714025430.830,-10.254,-30.273,-30.273,-16.113,0.000
1714025430.832,-4.883,-31.250,-27.344,-11.719,0.000
1714025430.836,2.441,-25.879,-32.227,-4.395,0.000
1714025430.840,6.348,-31.250,-36.133,-3.418,0.000
1714025430.844,1.953,-34.668,-39.062,-11.719,0.000
1714025430.848,9.277,-27.832,-38.086,-8.301,0.000
1714025430.852,14.648,-30.273,-40.039,-4.395,0.000
1714025430.856,17.090,-38.574,-43.457,2.441,0.000
1714025430.860,17.090,-30.273,-41.016,8.789,0.000
1714025430.863,5.371,-17.578,-46.387,-4.883,0.000
1714025430.867,1.953,-22.461,-50.293,-13.184,0.000
1714025430.871,4.395,-32.227,-39.062,4.883,0.000
1714025430.875,-1.465,-37.109,-33.691,30.273,0.000
1714025430.878,-6.836,-35.156,-41.016,10.254,0.000
1714025430.882,1.465,-29.297,-46.875,-14.648,0.000
1714025430.885,10.254,-24.902,-45.410,-6.836,0.000
1714025430.889,9.277,-21.973,-45.410,9.277,0.000
1714025430.893,4.395,-26.855,-47.363,8.301,0.000
1714025430.897,3.418,-27.344,-43.945,-2.930,0.000
1714025430.901,11.719,-24.414,-43.945,5.859,0.000
1714025430.905,0.000,-18.066,-50.293,-4.395,0.000
1714025430.909,0.488,-16.602,-49.316,-6.348,0.000
1714025430.913,23.438,-19.531,-43.457,8.789,0.000
1714025430.917,16.113,-19.531,-42.480,14.160,0.000
1714025430.921,-2.930,-22.461,-39.062,8.789,0.000
1714025430.927,-7.812,-24.414,-38.574,-3.906,0.000
1714025430.931,-2.930,-30.273,-45.898,-2.930,0.000
1714025430.935,6.836,-27.832,-48.828,1.465,0.000
1714025430.939,-0.488,-26.367,-43.945,0.000,0.000
1714025430.942,-17.578,-30.762,-45.410,-0.977,0.000
1714025430.946,-7.812,-33.203,-49.316,3.906,0.000
1714025430.950,-3.418,-30.762,-44.922,-6.836,0.000
1714025430.954,-16.602,-25.879,-46.387,-15.137,0.000
1714025430.958,-8.789,-20.508,-46.387,-5.859,0.000
1714025430.962,13.672,-19.531,-43.945,1.465,0.000
1714025430.966,7.324,-19.531,-38.574,0.488,0.000
1714025430.970,-5.371,-16.602,-35.156,0.488,0.000
1714025430.975,-3.906,-22.949,-41.016,1.953,0.000
1714025430.979,2.441,-21.973,-41.992,8.301,0.000
1714025430.983,1.465,-17.090,-37.598,3.906,0.000
1714025430.987,-6.348,-18.555,-40.039,-13.184,0.000
1714025430.991,-12.695,-17.578,-42.480,-21.484,0.000
1714025430.995,-6.836,-20.996,-37.109,-4.883,0.000
1714025430.998,3.418,-19.531,-34.668,3.906,0.000
1714025431.002,-0.977,-19.531,-39.551,-11.230,0.000
1714025431.006,-5.371,-24.414,-44.434,-5.859,0.000
1714025431.010,2.441,-19.531,-42.969,11.230,0.000
1714025431.014,11.719,-12.207,-34.668,-3.418,0.000
1714025431.018,10.254,-17.578,-37.598,-21.484,0.000
1714025431.022,-6.348,-22.461,-46.387,-28.320,0.000
1714025431.026,0.977,-17.578,-42.969,-20.996,0.000
1714025431.030,11.230,-18.066,-40.527,-8.789,0.000
1714025431.034,3.906,-16.113,-43.457,-11.230,0.000
1714025431.038,4.395,-16.113,-45.410,-18.066,0.000
1714025431.042,-5.371,-24.902,-38.574,-16.113,0.000
1714025431.046,-23.438,-25.391,-35.156,-28.809,0.000
1714025431.050,-25.391,-24.902,-40.039,-45.410,0.000
1714025431.054,-18.555,-21.484,-38.086,-37.598,0.000
1714025431.058,-17.578,-17.578,-32.715,-22.461,0.000
1714025431.062,-23.926,-24.414,-33.691,-20.020,0.000
1714025431.065,-23.438,-31.738,-31.738,-26.367,0.000
1714025431.069,-24.414,-25.391,-28.320,-35.156,0.000
1714025431.073,-27.832,-21.484,-32.227,-29.785,0.000
1714025431.077,-26.855,-22.461,-35.156,-27.344,0.000
1714025431.081,-25.879,-20.020,-36.621,-31.738,0.000
1714025431.085,-30.762,-22.461,-39.551,-33.691,0.000
1714025431.089,-41.504,-26.855,-41.504,-39.551,0.000
1714025431.093,-42.480,-23.926,-38.574,-41.504,0.000
1714025431.097,-37.598,-24.414,-35.645,-34.180,0.000
1714025431.100,-34.668,-27.832,-36.621,-40.527,0.000
1714025431.104,-35.645,-22.949,-36.133,-40.039,0.000
1714025431.108,-35.645,-21.973,-34.668,-27.344,0.000
1714025431.112,-41.504,-25.391,-34.668,-31.250,0.000
1714025431.116,-46.875,-26.367,-35.156,-35.645,0.000
1714025431.120,-43.945,-29.785,-39.062,-51.758,0.000
1714025431.123,-45.410,-25.879,-40.527,-54.688,0.000
1714025431.127,-38.086,-23.438,-37.598,-38.086,0.000
1714025431.131,-28.320,-23.926,-34.668,-32.227,0.000
1714025431.135,-30.273,-23.438,-36.621,-34.668,0.000
1714025431.139,-33.203,-27.832,-37.109,-37.598,0.000
1714025431.143,-42.480,-30.273,-34.668,-45.898,0.000
1714025431.147,-53.223,-30.762,-33.691,-46.875,0.000
1714025431.151,-52.246,-31.250,-37.109,-51.758,0.000
1714025431.155,-33.203,-26.367,-34.668,-55.664,0.000
1714025431.159,-26.367,-20.508,-30.273,-40.039,0.000
1714025431.162,-31.250,-19.531,-23.438,-32.715,0.000
1714025431.165,-28.320,-22.949,-21.484,-38.574,0.000
1714025431.169,-26.855,-22.949,-31.250,-39.551,0.000
1714025431.173,-25.879,-19.043,-28.320,-42.969,0.000
1714025431.177,-29.297,-20.508,-22.461,-36.133,0.000
1714025431.181,-35.156,-28.320,-26.367,-22.949,0.000
1714025431.185,-30.273,-34.668,-27.344,-25.879,0.000
1714025431.189,-30.273,-31.250,-27.344,-32.715,0.000
1714025431.193,-22.949,-28.320,-16.113,-21.973,0.000
1714025431.197,-17.090,-29.785,-13.184,-27.832,0.000
1714025431.201,-31.250,-28.320,-23.438,-34.180,0.000
1714025431.204,-29.297,-25.879,-31.250,-37.598,0.000
1714025431.207,-22.461,-27.344,-29.785,-36.621,0.000
1714025431.211,-22.949,-26.855,-23.926,-26.855,0.000
1714025431.215,-19.043,-21.973,-24.902,-32.227,0.000
1714025431.219,-20.020,-22.949,-20.996,-31.250,0.000
1714025431.223,-25.879,-25.391,-18.066,-16.602,0.000
1714025431.227,-27.344,-26.367,-23.438,-12.207,0.000
1714025431.231,-23.926,-27.344,-26.367,-20.508,0.000
1714025431.235,-23.438,-22.461,-26.855,-24.414,0.000
1714025431.239,-23.926,-22.949,-28.320,-21.973,0.000
1714025431.242,-23.438,-25.879,-27.344,-20.020,0.000
1714025431.246,-28.320,-22.949,-27.832,-22.461,0.000
1714025431.250,-34.668,-19.531,-26.855,-27.344,0.000
1714025431.257,-16.602,-15.137,-25.391,-31.738,0.000
1714025431.261,-2.441,-16.113,-27.832,-25.391,0.000
1714025431.264,-9.766,-19.531,-29.785,-16.113,0.000
1714025431.268,-26.367,-22.461,-27.344,-20.020,0.000
1714025431.272,-32.715,-28.320,-27.832,-24.414,0.000
1714025431.276,-29.785,-27.832,-29.785,-27.832,0.000
1714025431.280,-31.250,-24.902,-29.297,-33.691,0.000
1714025431.284,-41.016,-23.438,-31.738,-27.344,0.000
1714025431.288,-31.250,-23.926,-40.039,-23.438,0.000
1714025431.292,-29.785,-24.414,-38.574,-14.648,0.000
1714025431.296,-25.391,-19.531,-29.297,-15.137,0.000
1714025431.300,-21.973,-19.531,-18.066,-13.672,0.000
1714025431.305,-36.621,-26.367,-19.043,-12.695,0.000
1714025431.309,-30.273,-26.367,-24.414,-12.695,0.000
1714025431.313,-14.160,-20.020,-26.855,-22.461,0.000
1714025431.316,-31.738,-24.902,-28.320,-32.715,0.000
1714025431.320,-32.227,-25.879,-25.879,-34.180,0.000
1714025431.324,-20.020,-23.926,-20.020,-24.414,0.000
1714025431.328,-32.715,-30.762,-16.113,-16.113,0.000
1714025431.332,-39.062,-31.250,-20.508,-12.695,0.000
1714025431.336,-33.203,-30.273,-27.344,-9.277,0.000
1714025431.340,-31.738,-28.809,-30.273,-20.996,0.000
1714025431.344,-26.367,-25.391,-25.879,-36.621,0.000
1714025431.348,-28.320,-30.273,-26.367,-27.832,0.000
1714025431.352,-37.598,-33.691,-27.832,-25.391,0.000
1714025431.356,-28.809,-28.809,-29.297,-36.133,0.000
1714025431.360,-22.461,-27.344,-30.273,-27.832,0.000
1714025431.364,-17.090,-23.926,-27.832,-20.996,0.000
1714025431.368,-15.137,-21.484,-31.250,-21.484,0.000
1714025431.372,-10.254,-20.020,-38.086,-19.531,0.000
1714025431.375,-10.254,-16.602,-30.762,-20.508,0.000
1714025431.379,-12.207,-19.531,-26.367,-18.066,0.000
1714025431.383,-13.184,-24.414,-33.203,-14.648,0.000
1714025431.387,-16.602,-21.973,-37.109,-19.531,0.000
1714025431.391,-19.043,-21.973,-31.738,-17.578,0.000
1714025431.395,-13.184,-30.762,-27.344,-11.719,0.000
1714025431.399,-13.672,-33.691,-31.738,-26.855,0.000
1714025431.403,-21.484,-30.273,-33.691,-33.691,0.000
1714025431.407,-23.926,-28.320,-33.691,-25.391,0.000
1714025431.411,-16.602,-26.855,-35.645,-26.855,0.000
1714025431.415,1.953,-23.438,-31.738,-28.809,0.000
1714025431.419,-10.742,-21.973,-24.902,-18.066,0.000
1714025431.422,-25.879,-23.926,-25.391,-15.625,0.000
1714025431.426,-17.090,-23.438,-28.809,-22.949,0.000
1714025431.430,-12.207,-19.531,-31.738,-13.672,0.000
1714025431.434,-12.207,-17.090,-33.691,-14.648,0.000
1714025431.438,-13.184,-15.625,-35.645,-36.621,0.000
1714025431.442,-19.531,-16.602,-30.273,-25.879,0.000
1714025431.445,-24.414,-18.555,-26.367,-14.648,0.000
1714025431.449,-21.484,-12.695,-30.273,-28.320,0.000
1714025431.453,-15.625,-11.719,-32.227,-26.855,0.000
1714025431.457,-16.602,-14.648,-29.785,-21.484,0.000
1714025431.461,-18.555,-20.508,-29.785,-22.461,0.000
1714025431.465,-16.113,-24.414,-28.809,-23.926,0.000
1714025431.469,-20.020,-24.902,-26.367,-31.738,0.000
1714025431.473,-21.973,-26.367,-28.809,-29.785,0.000
1714025431.477,-16.602,-28.809,-25.879,-13.672,0.000
1714025431.481,-20.020,-29.785,-21.484,-24.414,0.000
1714025431.484,-26.367,-28.320,-22.461,-28.809,0.000
1714025431.488,-25.391,-32.715,-32.227,-21.973,0.000
1714025431.491,-26.367,-28.809,-37.598,-29.297,0.000
1714025431.495,-23.926,-23.438,-34.180,-31.738,0.000
1714025431.499,-21.484,-26.367,-31.738,-32.715,0.000
1714025431.503,-29.297,-25.391,-30.762,-30.273,0.000
1714025431.507,-34.668,-23.438,-32.715,-26.855,0.000
1714025431.511,-31.738,-20.996,-32.715,-25.879,0.000
1714025431.515,-33.203,-21.973,-28.320,-36.133,0.000
1714025431.519,-39.551,-27.832,-23.438,-36.133,0.000
1714025431.523,-37.598,-24.902,-22.461,-30.762,0.000
1714025431.527,-36.133,-21.484,-20.020,-32.715,0.000
1714025431.530,-41.016,-25.879,-16.113,-32.227,0.000
1714025431.534,-39.551,-22.949,-17.578,-39.551,0.000
1714025431.537,-37.598,-8.301,-22.461,-41.504,0.000
1714025431.541,-43.457,-17.578,-15.625,-37.598,0.000
1714025431.545,-52.246,-20.020,-16.602,-48.828,0.000
1714025431.549,-53.711,-14.160,-20.020,-61.523,0.000
1714025431.553,-60.059,-25.391,-17.090,-58.594,0.000
1714025431.557,-78.613,-26.367,-15.137,-67.871,0.000
1714025431.561,-96.191,-25.879,-11.230,-91.309,0.000
1714025431.564,-98.633,-26.855,-11.719,-91.797,0.000
1714025431.568,-103.027,-24.902,-5.859,-103.027,0.000
1714025431.572,-115.234,-24.902,-2.441,-114.258,0.000
1714025431.576,-137.695,-30.762,0.977,-119.141,0.000
1714025431.580,-156.738,-32.227,4.883,-140.625,0.000
1714025431.583,-149.414,-28.809,13.672,-142.090,0.000
1714025431.587,-148.926,-32.227,20.996,-139.648,0.000
1714025431.591,-147.461,-32.227,21.973,-132.812,0.000
1714025431.594,-151.367,-35.645,29.785,-139.160,0.000
1714025431.598,-165.527,-41.504,37.109,-152.832,0.000
1714025431.602,-155.273,-41.016,43.945,-140.625,0.000
1714025431.606,-138.184,-40.527,45.898,-120.117,0.000
1714025431.610,-129.395,-43.945,48.340,-106.934,0.000
1714025431.614,-127.441,-43.945,52.246,-111.328,0.000
1714025431.618,-122.070,-43.945,51.758,-110.840,0.000
1714025431.622,-110.352,-45.898,50.293,-85.938,0.000
1714025431.626,-97.168,-43.457,54.688,-66.895,0.000
1714025431.628,-84.473,-44.922,49.316,-60.547,0.000
1714025431.632,-76.172,-52.734,42.480,-51.270,0.000
1714025431.636,-77.637,-55.664,37.598,-52.734,0.000
1714025431.640,-70.801,-60.059,23.926,-48.340,0.000
1714025431.644,-56.152,-60.547,18.066,-29.785,0.000
1714025431.648,-51.270,-56.152,10.742,-29.297,0.000
1714025431.651,-32.715,-56.152,5.859,-12.695,0.000
1714025431.655,-9.766,-54.688,6.836,10.254,0.000
1714025431.659,-10.742,-58.594,2.930,4.883,0.000
1714025431.663,2.930,-62.012,-11.719,14.648,0.000
1714025431.667,34.180,-56.641,-21.484,47.852,0.000
1714025431.671,32.715,-51.270,-24.414,44.434,0.000
1714025431.677,13.184,-47.363,-27.832,23.438,0.000
1714025431.681,21.484,-47.852,-30.762,32.715,0.000
1714025431.685,33.691,-53.223,-36.133,41.504,0.000
1714025431.689,43.945,-51.270,-41.504,49.316,0.000
1714025431.693,64.453,-48.828,-38.574,65.430,0.000
1714025431.697,74.707,-50.293,-45.898,63.477,0.000
1714025431.700,81.055,-45.898,-51.758,62.500,0.000
1714025431.704,76.172,-41.504,-52.734,64.941,0.000
1714025431.708,68.359,-42.480,-51.758,66.895,0.000
1714025431.712,69.336,-43.945,-52.246,71.777,0.000
1714025431.716,79.590,-39.062,-51.758,74.707,0.000
1714025431.720,84.961,-39.062,-48.340,74.219,0.000
1714025431.725,84.473,-44.434,-44.922,77.637,0.000
1714025431.729,92.285,-43.457,-41.016,86.914,0.000
1714025431.733,88.379,-36.133,-41.016,83.496,0.000
1714025431.737,83.496,-36.621,-43.457,78.125,0.000
1714025431.741,78.613,-41.504,-44.434,77.637,0.000
1714025431.745,66.895,-41.016,-43.945,70.801,0.000
1714025431.748,60.059,-38.574,-38.086,73.730,0.000
1714025431.752,59.570,-32.227,-35.156,70.801,0.000
1714025431.756,53.223,-33.691,-38.574,67.871,0.000
1714025431.760,49.805,-34.668,-36.133,68.359,0.000
1714025431.764,49.316,-31.250,-32.715,52.246,0.000
1714025431.768,42.969,-33.203,-34.668,45.410,0.000
1714025431.772,36.133,-33.203,-38.574,49.316,0.000
1714025431.776,32.715,-31.250,-35.645,47.852,0.000
1714025431.780,25.391,-28.809,-36.133,41.504,0.000
1714025431.784,20.996,-27.832,-37.598,43.945,0.000
1714025431.788,20.996,-33.691,-38.086,49.316,0.000
1714025431.792,23.926,-34.180,-37.598,41.504,0.000
1714025431.796,23.926,-34.668,-34.668,31.738,0.000
1714025431.800,19.043,-32.227,-29.297,27.344,0.000
1714025431.804,12.207,-31.738,-29.297,20.508,0.000
1714025431.808,7.812,-32.715,-32.715,20.020,0.000
1714025431.812,9.277,-30.762,-34.668,21.973,0.000
1714025431.815,6.348,-31.250,-31.738,14.648,0.000
1714025431.819,0.977,-32.715,-30.762,7.324,0.000
1714025431.823,1.953,-27.832,-27.344,14.160,0.000
1714025431.827,6.348,-26.855,-29.785,14.160,0.000
1714025431.831,5.371,-32.227,-33.691,6.836,0.000
1714025431.835,-0.488,-33.691,-36.133,-1.465,0.000
1714025431.839,-0.488,-31.738,-36.621,-4.395,0.000
1714025431.843,0.977,-25.879,-30.762,-0.977,0.000
1714025431.847,-0.977,-25.879,-28.809,0.000,0.000
1714025431.851,2.930,-26.855,-26.367,6.836,0.000
1714025431.854,2.930,-24.902,-24.902,1.953,0.000
1714025431.858,0.977,-28.320,-23.438,1.953,0.000
1714025431.862,-2.930,-32.715,-23.438,2.930,0.000
1714025431.866,-2.930,-28.809,-24.414,-6.836,0.000
1714025431.870,-3.906,-24.902,-27.344,-14.648,0.000
1714025431.874,-4.883,-30.273,-33.691,-12.207,0.000
1714025431.878,-2.930,-37.109,-31.738,-7.812,0.000
1714025431.881,-0.977,-33.203,-29.297,0.000,0.000
1714025431.885,-8.301,-30.273,-33.203,-3.906,0.000
1714025431.889,-12.207,-29.785,-34.668,-6.348,0.000
1714025431.893,-9.766,-32.227,-34.668,-0.977,0.000
1714025431.897,-11.230,-30.762,-26.367,-7.812,0.000
1714025431.901,-10.742,-27.344,-24.902,-15.137,0.000
1714025431.905,-15.625,-31.250,-28.320,-9.766,0.000
1714025431.909,-14.160,-30.273,-22.461,1.953,0.000
1714025431.912,-14.648,-28.809,-14.160,2.930,0.000
1714025431.916,-20.996,-32.227,-22.461,-6.348,0.000
1714025431.920,-18.066,-27.832,-24.414,-2.441,0.000
1714025431.924,-18.066,-24.902,-14.648,4.395,0.000
1714025431.927,-19.531,-25.391,-11.230,5.371,0.000
1714025431.931,-19.531,-25.391,-16.602,-5.859,0.000
1714025431.935,-18.066,-24.414,-23.926,-8.301,0.000
1714025431.939,-13.672,-23.438,-23.438,3.418,0.000
1714025431.943,-16.602,-27.344,-20.996,-2.930,0.000
1714025431.947,-16.113,-23.926,-20.996,-9.766,0.000
1714025431.951,-12.695,-21.484,-21.973,-12.695,0.000
1714025431.955,-14.648,-23.926,-24.902,-14.648,0.000
1714025431.958,-15.625,-27.832,-32.227,-14.648,0.000
1714025431.961,-14.160,-30.762,-32.715,-20.996,0.000
1714025431.965,-20.020,-25.879,-30.273,-27.344,0.000
1714025431.969,-21.973,-24.414,-28.320,-23.438,0.000
1714025431.973,-21.973,-27.344,-26.855,-18.066,0.000
1714025431.977,-24.902,-27.832,-26.367,-19.043,0.000
1714025431.981,-26.855,-34.668,-28.809,-16.113,0.000
1714025431.985,-29.297,-38.086,-32.715,-18.066,0.000
1714025431.989,-31.250,-33.203,-25.879,-25.391,0.000
1714025431.993,-29.785,-36.621,-22.949,-25.391,0.000
1714025431.997,-29.785,-33.203,-23.926,-30.273,0.000
1714025432.001,-29.297,-28.320,-23.438,-29.297,0.000
1714025432.007,-27.832,-28.320,-20.020,-26.367,0.000
1714025432.011,-24.902,-25.879,-18.555,-20.508,0.000
1714025432.014,-21.484,-27.344,-16.113,-15.625,0.000
1714025432.018,-20.508,-29.297,-18.066,-17.090,0.000
1714025432.022,-22.461,-28.320,-26.855,-23.438,0.000
1714025432.026,-24.414,-26.855,-26.367,-19.531,0.000
1714025432.030,-20.996,-28.809,-24.902,-8.301,0.000
1714025432.034,-20.508,-25.391,-21.484,-18.555,0.000
1714025432.038,-21.484,-24.902,-21.484,-21.973,0.000
1714025432.042,-20.508,-25.391,-21.484,-19.043,0.000
1714025432.046,-22.949,-25.879,-18.066,-23.438,0.000
1714025432.050,-25.879,-28.809,-22.461,-31.250,0.000
1714025432.055,-28.809,-28.809,-34.668,-37.109,0.000
1714025432.059,-33.691,-30.273,-35.645,-35.156,0.000
1714025432.062,-33.203,-31.738,-31.738,-34.668,0.000
1714025432.066,-31.250,-31.250,-27.832,-37.598,0.000
1714025432.070,-33.203,-27.832,-26.367,-34.668,0.000
1714025432.074,-33.691,-29.785,-30.273,-36.133,0.000
1714025432.078,-32.715,-33.203,-26.367,-41.504,0.000
1714025432.082,-29.297,-32.227,-21.484,-35.645,0.000
1714025432.086,-28.809,-30.273,-23.926,-35.645,0.000
1714025432.090,-36.133,-35.156,-31.738,-41.992,0.000
1714025432.094,-40.039,-36.133,-33.691,-40.527,0.000
1714025432.098,-36.621,-30.273,-28.809,-40.527,0.000
1714025432.102,-39.062,-30.273,-27.832,-43.945,0.000
1714025432.106,-36.621,-28.809,-24.414,-37.109,0.000
1714025432.110,-36.621,-25.879,-22.461,-35.156,0.000
1714025432.114,-36.621,-28.320,-26.855,-34.668,0.000
1714025432.118,-37.109,-28.809,-26.367,-31.738,0.000
1714025432.122,-37.109,-27.832,-29.297,-36.133,0.000
1714025432.125,-29.785,-25.391,-28.809,-31.738,0.000
1714025432.129,-24.902,-20.508,-21.973,-26.367,0.000
1714025432.133,-25.879,-21.973,-26.367,-29.297,0.000
1714025432.137,-29.297,-23.438,-30.762,-34.180,0.000
1714025432.141,-33.203,-26.855,-27.832,-44.434,0.000
1714025432.145,-32.227,-28.809,-23.926,-41.992,0.000
1714025432.149,-22.949,-27.344,-25.879,-32.227,0.000
1714025432.153,-24.902,-26.855,-25.391,-37.109,0.000
1714025432.157,-32.715,-26.367,-27.832,-40.039,0.000
1714025432.161,-26.367,-26.367,-27.344,-30.762,0.000
1714025432.164,-22.949,-23.926,-20.996,-21.484,0.000
1714025432.168,-25.391,-22.461,-23.438,-23.926,0.000
1714025432.172,-28.320,-23.926,-27.344,-40.039,0.000
1714025432.176,-37.109,-28.320,-27.344,-44.434,0.000
1714025432.180,-40.039,-31.250,-28.320,-35.645,0.000
1714025432.184,-35.645,-29.297,-23.438,-39.062,0.000
1714025432.188,-35.645,-27.344,-23.438,-42.480,0.000
1714025432.192,-33.691,-36.133,-24.902,-35.645,0.000
1714025432.195,-30.273,-41.992,-22.949,-28.809,0.000
1714025432.199,-38.086,-39.551,-25.879,-33.691,0.000
1714025432.203,-41.504,-35.156,-29.785,-41.504,0.000
1714025432.207,-34.180,-31.250,-24.414,-36.133,0.000
1714025432.211,-35.645,-30.273,-23.438,-35.645,0.000
1714025432.215,-36.133,-26.367,-26.855,-34.668,0.000
1714025432.219,-34.180,-24.902,-28.809,-38.574,0.000
1714025432.223,-32.715,-29.785,-30.762,-39.551,0.000
1714025432.227,-30.273,-31.250,-29.785,-32.227,0.000
1714025432.230,-30.273,-22.949,-21.484,-39.062,0.000
1714025432.234,-29.297,-20.020,-24.902,-47.363,0.000
1714025432.238,-31.250,-22.949,-32.227,-40.527,0.000
1714025432.241,-32.227,-27.832,-37.109,-35.645,0.000
1714025432.245,-26.367,-26.367,-34.180,-32.715,0.000
1714025432.249,-26.855,-25.391,-29.297,-36.133,0.000
1714025432.253,-31.250,-23.438,-32.715,-38.086,0.000
1714025432.257,-30.273,-23.438,-30.273,-33.691,0.000
1714025432.261,-23.438,-23.438,-30.273,-33.691,0.000
1714025432.265,-21.973,-24.414,-32.227,-39.062,0.000
1714025432.269,-24.414,-26.855,-31.250,-36.621,0.000
1714025432.273,-27.344,-28.320,-30.273,-34.180,0.000
1714025432.276,-27.344,-26.367,-25.879,-33.203,0.000
1714025432.280,-23.926,-24.414,-24.414,-28.809,0.000
1714025432.284,-25.879,-22.949,-30.273,-35.156,0.000
1714025432.287,-27.344,-26.367,-32.715,-39.062,0.000
1714025432.291,-32.227,-28.320,-35.156,-38.574,0.000
1714025432.295,-36.621,-28.320,-37.598,-37.598,0.000
1714025432.299,-33.691,-28.809,-30.762,-41.016,0.000
1714025432.303,-33.203,-24.414,-28.320,-48.828,0.000
1714025432.307,-27.344,-19.043,-26.367,-42.480,0.000
1714025432.311,-23.926,-20.508,-29.297,-34.668,0.000
1714025432.314,-23.926,-22.461,-31.738,-26.367,0.000
1714025432.318,-21.973,-20.996,-31.250,-35.645,0.000
1714025432.322,-22.461,-20.020,-38.574,-39.062,0.000
1714025432.326,-18.066,-17.090,-32.227,-21.973,0.000
1714025432.330,-16.602,-13.184,-22.461,-23.438,0.000
1714025432.333,-19.043,-12.207,-18.066,-26.855,0.000
1714025432.337,-17.090,-13.672,-20.020,-27.344,0.000
1714025432.341,-21.484,-15.137,-31.738,-30.273,0.000
1714025432.345,-21.973,-13.184,-41.992,-32.227,0.000
1714025432.348,-22.461,-16.113,-36.133,-29.785,0.000
1714025432.352,-30.273,-18.066,-24.414,-28.809,0.000
1714025432.356,-36.133,-23.926,-22.461,-27.832,0.000
1714025432.360,-41.992,-22.461,-22.461,-32.227,0.000
1714025432.364,-37.598,-20.020,-20.020,-42.480,0.000
1714025432.368,-39.551,-28.809,-18.066,-49.805,0.000
1714025432.372,-44.434,-30.273,-14.160,-50.293,0.000
1714025432.376,-45.898,-28.320,-12.207,-44.922,0.000
1714025432.378,-41.992,-27.832,-14.648,-49.805,0.000
1714025432.382,-33.203,-27.832,-14.160,-55.664,0.000
1714025432.386,-36.133,-30.273,-13.672,-47.363,0.000
1714025432.390,-34.180,-30.762,-15.625,-37.109,0.000
1714025432.394,-32.715,-28.809,-15.137,-37.109,0.000
1714025432.398,-37.109,-27.832,-19.531,-37.598,0.000
1714025432.402,-38.086,-28.809,-25.391,-34.180,0.000
1714025432.406,-35.645,-28.809,-21.973,-32.227,0.000
1714025432.409,-36.621,-26.855,-18.066,-37.598,0.000
1714025432.413,-37.598,-29.297,-22.461,-44.922,0.000
1714025432.417,-41.016,-27.344,-25.879,-48.340,0.000
1714025432.421,-44.434,-25.879,-21.484,-50.781,0.000
1714025432.427,-38.574,-26.367,-19.531,-45.898,0.000
1714025432.431,-33.691,-26.855,-23.926,-41.504,0.000
1714025432.435,-37.598,-28.809,-24.902,-40.039,0.000
1714025432.439,-38.574,-32.227,-22.949,-34.668,0.000
1714025432.443,-33.203,-32.715,-26.855,-29.297,0.000
1714025432.447,-26.855,-25.391,-30.273,-32.715,0.000
1714025432.451,-26.855,-22.461,-34.668,-38.086,0.000
1714025432.455,-26.367,-19.043,-27.832,-33.203,0.000
1714025432.459,-24.414,-19.531,-16.602,-27.344,0.000
1714025432.462,-19.043,-19.531,-15.625,-26.367,0.000
1714025432.466,-20.996,-18.066,-17.578,-31.250,0.000
1714025432.470,-22.949,-18.066,-24.414,-27.832,0.000
1714025432.475,-13.672,-17.578,-24.902,-14.648,0.000
1714025432.479,-10.742,-17.090,-26.855,-11.719,0.000
1714025432.483,-13.672,-17.578,-26.367,-20.996,0.000
1714025432.487,-14.160,-21.973,-23.438,-22.949,0.000
1714025432.491,-15.625,-24.902,-20.508,-20.996,0.000
1714025432.495,-16.602,-28.320,-21.484,-22.461,0.000
1714025432.499,-20.508,-27.832,-26.855,-22.461,0.000
1714025432.503,-20.996,-21.973,-28.320,-21.973,0.000
1714025432.507,-18.555,-17.578,-27.832,-18.066,0.000
1714025432.511,-16.602,-16.113,-25.391,-5.859,0.000
1714025432.514,-19.043,-16.602,-22.461,-9.277,0.000
1714025432.518,-22.949,-15.137,-26.855,-21.973,0.000
1714025432.523,-21.973,-16.113,-28.809,-27.344,0.000
1714025432.527,-24.414,-23.926,-25.879,-25.391,0.000
1714025432.531,-30.273,-28.809,-30.762,-26.855,0.000
1714025432.534,-34.668,-34.180,-31.250,-33.691,0.000
1714025432.538,-33.203,-36.621,-34.668,-37.109,0.000
1714025432.542,-31.250,-28.320,-29.297,-32.227,0.000
1714025432.546,-33.203,-23.438,-23.926,-29.297,0.000
1714025432.550,-31.738,-25.391,-31.738,-37.109,0.000
1714025432.554,-30.762,-25.879,-29.785,-35.645,0.000
1714025432.558,-34.668,-27.832,-28.320,-34.668,0.000
1714025432.562,-34.668,-27.832,-28.809,-35.156,0.000
1714025432.566,-32.227,-25.391,-25.391,-35.645,0.000
1714025432.569,-32.715,-21.973,-30.762,-40.039,0.000
1714025432.573,-30.762,-23.926,-35.645,-37.598,0.000
1714025432.577,-30.762,-25.391,-31.738,-33.203,0.000
1714025432.581,-23.926,-20.508,-30.273,-26.367,0.000
1714025432.585,-17.578,-22.949,-26.367,-26.367,0.000
1714025432.589,-24.902,-28.809,-28.809,-30.273,0.000
1714025432.593,-28.809,-23.438,-26.855,-24.414,0.000
1714025432.597,-22.461,-23.926,-24.414,-15.137,0.000
1714025432.601,-26.367,-28.320,-31.738,-23.926,0.000
1714025432.605,-37.598,-24.902,-33.691,-40.527,0.000
1714025432.608,-33.691,-24.902,-30.762,-34.668,0.000
1714025432.612,-34.180,-32.715,-34.668,-28.809,0.000
1714025432.616,-33.203,-35.156,-34.668,-34.180,0.000
1714025432.620,-30.273,-35.645,-31.738,-37.109,0.000
1714025432.623,-33.691,-33.203,-37.598,-40.527,0.000
1714025432.627,-22.949,-28.320,-29.785,-33.691,0.000
1714025432.631,-16.602,-22.461,-20.996,-28.809,0.000
1714025432.635,-24.414,-20.996,-20.020,-31.250,0.000
1714025432.639,-19.043,-18.066,-21.973,-24.902,0.000
1714025432.643,-18.066,-19.531,-24.414,-19.531,0.000
1714025432.647,-23.926,-21.973,-17.090,-22.461,0.000
1714025432.651,-24.414,-17.090,-14.648,-35.156,0.000
1714025432.655,-30.762,-21.484,-23.926,-37.109,0.000
1714025432.659,-38.086,-27.344,-29.297,-34.668,0.000
1714025432.662,-38.086,-28.809,-25.391,-34.180,0.000
1714025432.665,-40.039,-30.762,-25.391,-36.621,0.000
1714025432.669,-43.457,-30.273,-27.344,-41.016,0.000
1714025432.673,-39.551,-26.855,-29.297,-33.691,0.000
1714025432.677,-31.738,-26.855,-34.180,-27.832,0.000
1714025432.681,-33.691,-29.785,-25.879,-35.156,0.000
1714025432.685,-41.504,-30.273,-22.461,-39.062,0.000
1714025432.689,-37.109,-33.203,-23.438,-28.809,0.000
1714025432.693,-36.621,-29.785,-17.090,-26.855,0.000
1714025432.697,-40.527,-32.227,-22.949,-33.203,0.000
1714025432.701,-32.715,-32.715,-21.484,-33.203,0.000
1714025432.705,-28.809,-27.344,-14.648,-27.832,0.000
1714025432.707,-32.715,-34.180,-16.602,-20.508,0.000
1714025432.711,-30.762,-34.668,-19.531,-22.461,0.000
1714025432.715,-27.344,-28.809,-22.949,-26.367,0.000
1714025432.719,-25.391,-26.367,-20.996,-21.484,0.000
1714025432.723,-23.926,-25.391,-20.508,-20.020,0.000
1714025432.727,-26.367,-26.367,-21.973,-24.414,0.000
1714025432.731,-26.367,-29.785,-23.926,-27.832,0.000
1714025432.735,-25.391,-29.297,-24.414,-27.344,0.000
1714025432.739,-25.391,-27.344,-22.949,-21.484,0.000
1714025432.742,-20.020,-23.926,-28.809,-13.184,0.000
1714025432.746,-17.090,-21.484,-25.391,-16.113,0.000
1714025432.750,-15.625,-24.414,-20.996,-30.273,0.000
1714025432.753,-18.066,-28.320,-25.879,-28.809,0.000
1714025432.757,-19.043,-31.250,-23.438,-27.344,0.000
1714025432.761,-15.625,-26.855,-27.344,-34.668,0.000
1714025432.765,-19.531,-25.879,-32.227,-39.551,0.000
1714025432.769,-23.438,-27.344,-23.926,-38.086,0.000
1714025432.773,-19.531,-22.461,-25.391,-27.832,0.000
1714025432.776,-15.625,-23.926,-24.902,-17.090,0.000
1714025432.780,-16.113,-23.438,-20.020,-21.973,0.000
1714025432.784,-14.648,-21.484,-27.832,-24.902,0.000
1714025432.788,-14.160,-25.391,-29.297,-17.090,0.000
1714025432.792,-15.137,-24.414,-23.438,-13.672,0.000
1714025432.796,-24.902,-28.320,-26.367,-16.113,0.000
1714025432.802,-30.762,-27.832,-27.832,-21.484,0.000
1714025432.806,-26.367,-25.391,-26.367,-20.996,0.000
1714025432.810,-31.250,-26.367,-29.297,-26.367,0.000
1714025432.814,-38.574,-29.297,-30.273,-29.297,0.000
1714025432.818,-39.062,-29.297,-27.832,-30.273,0.000
1714025432.822,-35.645,-30.273,-29.297,-26.367,0.000
1714025432.825,-30.762,-29.785,-29.785,-18.066,0.000
1714025432.829,-22.949,-27.344,-21.484,-17.090,0.000
1714025432.833,-23.926,-29.785,-17.578,-21.973,0.000
1714025432.837,-28.809,-28.809,-22.461,-18.066,0.000
1714025432.841,-27.832,-24.902,-23.438,-20.996,0.000
1714025432.845,-23.438,-23.926,-22.461,-24.902,0.000
1714025432.850,-18.066,-23.438,-23.438,-20.508,0.000
1714025432.854,-22.461,-26.855,-26.855,-27.344,0.000
1714025432.858,-27.832,-28.809,-29.785,-31.250,0.000
1714025432.862,-30.273,-25.879,-32.715,-33.691,0.000
1714025432.866,-32.715,-26.367,-30.762,-37.109,0.000
1714025432.870,-32.227,-30.273,-35.156,-47.363,0.000
1714025432.873,-30.762,-30.762,-37.598,-39.062,0.000
1714025432.877,-31.738,-29.297,-31.738,-30.762,0.000
1714025432.881,-33.691,-28.809,-33.203,-33.691,0.000
1714025432.885,-30.762,-27.344,-33.203,-33.203,0.000
1714025432.889,-26.855,-25.391,-30.273,-32.227,0.000
1714025432.893,-24.414,-23.926,-32.227,-29.297,0.000
1714025432.898,-22.461,-22.949,-29.785,-35.156,0.000
1714025432.901,-20.508,-21.484,-23.438,-33.691,0.000
1714025432.905,-22.949,-23.926,-20.508,-29.297,0.000
1714025432.909,-23.926,-28.320,-21.484,-25.391,0.000
1714025432.913,-19.531,-23.926,-22.461,-14.648,0.000
1714025432.917,-20.020,-21.973,-25.879,-20.508,0.000
1714025432.921,-23.438,-26.367,-29.297,-23.438,0.000
1714025432.925,-21.484,-21.973,-28.809,-20.996,0.000
1714025432.929,-14.648,-19.043,-22.461,-8.301,0.000
1714025432.933,-10.254,-18.555,-16.602,-5.859,0.000
1714025432.937,-14.160,-20.020,-24.414,-23.438,0.000
1714025432.941,-9.277,-17.090,-25.391,-14.160,0.000
1714025432.945,-2.441,-17.090,-21.484,-4.883,0.000
1714025432.949,-13.672,-18.066,-20.996,-20.020,0.000
1714025432.952,-26.367,-17.090,-23.926,-34.668,0.000
1714025432.956,-25.879,-18.555,-26.855,-32.715,0.000
1714025432.960,-19.531,-20.508,-22.949,-30.273,0.000
1714025432.964,-23.438,-25.391,-28.809,-33.203,0.000
1714025432.968,-26.367,-21.973,-33.203,-42.480,0.000
1714025432.972,-22.461,-20.996,-32.715,-36.621,0.000
1714025432.976,-21.973,-25.391,-31.250,-21.973,0.000
1714025432.980,-27.344,-24.902,-30.273,-26.855,0.000
1714025432.984,-25.391,-22.949,-33.691,-32.227,0.000
1714025432.988,-26.367,-23.438,-31.738,-29.785,0.000
1714025432.991,-34.180,-24.902,-25.391,-24.414,0.000
1714025432.995,-34.668,-26.367,-22.949,-22.461,0.000
1714025432.999,-34.180,-26.855,-26.367,-28.320,0.000
1714025433.003,-35.645,-26.855,-23.438,-31.738,0.000
1714025433.006,-33.203,-31.738,-21.484,-29.297,0.000
1714025433.010,-28.809,-32.227,-20.508,-30.273,0.000
1714025433.014,-27.344,-26.855,-20.020,-30.762,0.000
1714025433.018,-34.668,-26.367,-25.879,-30.762,0.000
1714025433.022,-36.621,-24.414,-27.344,-33.691,0.000
1714025433.026,-34.668,-25.391,-30.762,-30.273,0.000
1714025433.030,-38.574,-31.250,-37.598,-32.715,0.000
1714025433.034,-31.738,-29.785,-28.320,-35.156,0.000
1714025433.037,-19.531,-26.855,-20.508,-28.320,0.000
1714025433.041,-26.855,-29.297,-22.461,-30.273,0.000
1714025433.045,-28.809,-31.250,-26.855,-27.832,0.000
1714025433.049,-21.973,-30.762,-24.902,-22.949,0.000
1714025433.053,-28.320,-28.809,-23.438,-28.809,0.000
1714025433.056,-33.203,-23.926,-25.391,-36.133,0.000
1714025433.060,-30.273,-25.879,-30.273,-30.762,0.000
1714025433.064,-29.297,-27.344,-35.645,-26.367,0.000
1714025433.068,-33.691,-22.461,-32.715,-40.527,0.000
1714025433.072,-26.367,-20.020,-30.762,-38.574,0.000
1714025433.076,-14.648,-20.996,-27.832,-28.320,0.000
1714025433.080,-12.695,-19.531,-26.367,-30.762,0.000
1714025433.083,-15.625,-21.973,-28.809,-35.645,0.000
1714025433.086,-23.438,-26.367,-22.949,-30.273,0.000
1714025433.090,-26.855,-29.297,-17.090,-16.602,0.000
1714025433.094,-22.461,-26.367,-14.160,-12.207,0.000
1714025433.098,-25.879,-23.438,-18.066,-23.926,0.000
1714025433.102,-23.926,-22.461,-28.320,-20.996,0.000
1714025433.106,-21.484,-23.438,-29.297,-10.742,0.000
1714025433.110,-26.367,-24.902,-29.785,-16.602,0.000
1714025433.114,-30.762,-27.344,-35.156,-31.738,0.000
1714025433.118,-33.691,-31.250,-36.133,-37.109,0.000
1714025433.122,-34.668,-30.762,-32.715,-37.598,0.000
1714025433.126,-33.203,-30.762,-30.762,-40.527,0.000
1714025433.128,-25.391,-32.227,-30.273,-41.992,0.000
1714025433.132,-27.832,-35.156,-32.227,-41.016,0.000
1714025433.136,-31.250,-33.203,-32.227,-38.086,0.000
1714025433.140,-31.738,-31.738,-34.180,-34.668,0.000
1714025433.144,-29.785,-30.762,-31.738,-36.621,0.000
1714025433.148,-27.832,-31.250,-31.738,-41.504,0.000
1714025433.152,-36.621,-34.180,-36.133,-41.504,0.000
1714025433.156,-41.504,-33.691,-38.086,-44.434,0.000
1714025433.159,-40.527,-34.668,-28.809,-41.016,0.000
1714025433.163,-39.551,-34.668,-25.391,-37.109,0.000
1714025433.167,-34.180,-31.250,-29.785,-34.668,0.000
1714025433.171,-26.855,-22.949,-25.391,-27.832,0.000
1714025433.177,-29.297,-20.996,-23.926,-26.367,0.000
1714025433.181,-31.250,-28.320,-28.809,-27.832,0.000
1714025433.185,-29.297,-30.273,-31.250,-27.832,0.000
1714025433.189,-31.738,-26.367,-29.297,-36.621,0.000
1714025433.193,-28.809,-28.320,-31.738,-35.156,0.000
1714025433.197,-23.926,-31.738,-33.203,-20.508,0.000
1714025433.201,-27.832,-28.809,-31.738,-18.555,0.000
1714025433.205,-28.809,-27.344,-31.250,-18.066,0.000
1714025433.209,-28.320,-29.785,-33.203,-14.648,0.000
1714025433.212,-32.227,-27.832,-35.156,-11.230,0.000
1714025433.216,-33.203,-20.996,-32.227,-15.137,0.000
1714025433.220,-24.902,-19.531,-28.809,-21.973,0.000
1714025433.225,-25.879,-20.996,-30.273,-25.391,0.000
1714025433.229,-29.785,-23.438,-28.809,-24.902,0.000
1714025433.233,-28.320,-26.367,-30.273,-24.414,0.000
1714025433.237,-27.344,-20.996,-26.855,-20.020,0.000
1714025433.241,-27.832,-20.020,-29.297,-14.648,0.000
1714025433.245,-29.785,-22.461,-29.297,-12.695,0.000
1714025433.249,-25.879,-20.996,-27.344,-18.555,0.000
1714025433.253,-23.438,-22.949,-32.227,-26.367,0.000
1714025433.257,-22.949,-23.438,-28.320,-24.414,0.000
1714025433.260,-20.996,-18.066,-24.414,-14.160,0.000
1714025433.264,-22.461,-18.066,-21.973,-19.531,0.000
1714025433.268,-25.391,-22.949,-22.461,-26.367,0.000
1714025433.273,-29.785,-25.879,-25.391,-26.855,0.000
1714025433.277,-26.367,-28.320,-25.391,-27.832,0.000
1714025433.280,-26.367,-28.320,-23.926,-25.879,0.000
1714025433.284,-25.879,-27.344,-17.578,-25.391,0.000
1714025433.288,-24.902,-30.762,-18.066,-29.297,0.000
1714025433.292,-27.832,-32.715,-24.902,-32.715,0.000
1714025433.296,-23.926,-25.879,-26.855,-32.227,0.000
1714025433.300,-22.949,-23.926,-22.949,-26.855,0.000
1714025433.304,-23.438,-24.902,-20.508,-21.484,0.000
1714025433.308,-22.949,-21.484,-21.484,-21.484,0.000
1714025433.312,-26.855,-22.949,-24.902,-24.902,0.000
1714025433.316,-27.344,-26.367,-26.367,-31.250,0.000
1714025433.319,-26.367,-21.973,-25.391,-28.809,0.000
1714025433.323,-26.367,-20.996,-22.461,-19.531,0.000
1714025433.327,-26.855,-25.879,-20.508,-17.090,0.000
1714025433.331,-28.809,-28.320,-17.090,-20.508,0.000
1714025433.335,-27.344,-23.438,-16.602,-26.367,0.000
1714025433.339,-23.926,-21.484,-19.043,-21.484,0.000
1714025433.343,-22.949,-21.484,-20.508,-19.531,0.000
1714025433.347,-24.414,-20.996,-25.391,-25.391,0.000
1714025433.350,-24.902,-23.438,-23.438,-24.902,0.000
1714025433.354,-23.438,-25.391,-22.461,-29.785,0.000
1714025433.358,-24.902,-27.832,-25.879,-27.832,0.000
1714025433.362,-27.344,-29.297,-24.414,-27.832,0.000
1714025433.366,-21.484,-29.785,-20.996,-27.344,0.000
1714025433.369,-22.461,-32.227,-22.949,-28.809,0.000
1714025433.373,-27.832,-29.785,-26.855,-28.320,0.000
1714025433.377,-26.855,-30.762,-27.344,-19.043,0.000
1714025433.381,-20.996,-28.320,-25.879,-19.531,0.000
1714025433.385,-22.949,-29.785,-27.344,-30.273,0.000
1714025433.389,-27.344,-33.691,-27.344,-34.668,0.000
1714025433.393,-27.832,-28.320,-27.344,-22.949,0.000
1714025433.397,-22.461,-23.926,-22.461,-14.648,0.000
1714025433.401,-27.344,-28.320,-23.926,-22.461,0.000
1714025433.405,-34.180,-28.809,-22.949,-24.414,0.000
1714025433.408,-29.785,-24.902,-18.066,-16.113,0.000
1714025433.412,-33.203,-25.879,-21.484,-14.648,0.000
1714025433.415,-32.227,-21.973,-18.066,-17.578,0.000
1714025433.419,-27.344,-20.020,-14.648,-15.625,0.000
1714025433.423,-29.785,-21.973,-20.996,-16.602,0.000
1714025433.427,-27.832,-28.320,-22.949,-17.090,0.000
1714025433.431,-29.297,-36.621,-20.508,-20.508,0.000
1714025433.435,-33.691,-38.574,-22.949,-27.344,0.000
1714025433.439,-37.109,-41.504,-26.367,-22.461,0.000
1714025433.443,-30.273,-35.645,-27.832,-22.949,0.000
1714025433.447,-25.879,-33.203,-31.738,-27.344,0.000
1714025433.451,-30.273,-31.250,-31.738,-27.344,0.000
1714025433.454,-33.203,-30.762,-26.367,-28.320,0.000
1714025433.458,-32.227,-30.273,-27.344,-27.832,0.000
1714025433.461,-31.250,-26.367,-27.832,-29.297,0.000
1714025433.465,-30.762,-25.391,-26.367,-30.273,0.000
1714025433.469,-28.320,-21.484,-22.949,-26.367,0.000
1714025433.473,-26.367,-20.508,-23.926,-20.996,0.000
1714025433.477,-23.926,-26.855,-32.227,-18.066,0.000
1714025433.481,-26.855,-31.250,-35.156,-17.578,0.000
1714025433.485,-32.715,-29.297,-34.180,-20.996,0.000
1714025433.489,-32.227,-24.902,-28.809,-21.973,0.000
1714025433.493,-28.809,-25.391,-29.785,-22.949,0.000
1714025433.497,-25.391,-23.438,-29.297,-22.949,0.000
1714025433.501,-26.367,-24.902,-28.809,-29.297,0.000
1714025433.503,-30.273,-23.926,-29.785,-27.344,0.000
1714025433.507,-23.926,-20.508,-20.996,-19.043,0.000
1714025433.511,-23.926,-23.438,-18.066,-24.414,0.000
1714025433.515,-25.879,-25.391,-23.438,-23.926,0.000
1714025433.519,-18.555,-21.484,-19.043,-19.043,0.000
1714025433.523,-16.602,-17.090,-16.602,-18.555,0.000
1714025433.527,-16.602,-20.996,-20.996,-19.531,0.000
1714025433.530,-18.555,-22.949,-21.484,-30.762,0.000
1714025433.534,-25.391,-21.484,-20.508,-40.039,0.000
1714025433.538,-25.879,-28.809,-20.020,-34.180,0.000
1714025433.542,-29.785,-32.227,-27.344,-30.273,0.000
1714025433.546,-29.297,-29.785,-29.297,-31.250,0.000
1714025433.552,-28.320,-24.902,-22.949,-35.645,0.000
1714025433.556,-30.762,-23.926,-20.020,-31.250,0.000
1714025433.560,-24.414,-26.855,-13.672,-18.555,0.000
1714025433.564,-25.879,-29.785,-14.160,-27.832,0.000
1714025433.568,-31.250,-29.297,-24.414,-33.203,0.000
1714025433.572,-30.762,-32.227,-30.273,-30.273,0.000
1714025433.575,-25.879,-33.203,-27.344,-29.785,0.000
1714025433.579,-21.973,-27.344,-26.855,-23.926,0.000
1714025433.583,-24.902,-25.879,-29.785,-31.250,0.000
1714025433.587,-25.879,-29.297,-30.762,-28.320,0.000
1714025433.591,-24.414,-28.320,-28.809,-22.949,0.000
1714025433.595,-26.855,-25.391,-30.273,-29.297,0.000
1714025433.600,-24.414,-22.949,-30.273,-33.691,0.000
1714025433.604,-31.250,-25.391,-29.785,-42.969,0.000
1714025433.608,-37.598,-24.902,-33.203,-45.410,0.000
1714025433.612,-31.250,-22.461,-33.203,-38.574,0.000
1714025433.616,-31.738,-24.902,-29.785,-40.527,0.000
1714025433.620,-31.250,-30.273,-30.273,-41.992,0.000
1714025433.623,-30.762,-25.879,-27.344,-36.621,0.000
1714025433.627,-34.180,-19.043,-26.855,-35.645,0.000
1714025433.631,-28.320,-22.949,-30.762,-34.180,0.000
1714025433.635,-25.879,-26.855,-30.762,-37.598,0.000
1714025433.639,-29.785,-21.484,-26.367,-41.016,0.000
1714025433.643,-32.715,-22.461,-25.879,-32.715,0.000
1714025433.647,-30.273,-25.391,-27.344,-28.320,0.000
1714025433.651,-25.879,-26.855,-25.879,-25.391,0.000
1714025433.655,-24.414,-26.367,-26.367,-24.902,0.000
1714025433.659,-22.461,-26.367,-24.414,-21.973,0.000
1714025433.663,-18.066,-22.949,-21.973,-20.508,0.000
1714025433.667,-18.066,-21.973,-22.461,-25.879,0.000
1714025433.671,-23.926,-20.508,-18.555,-22.949,0.000
1714025433.675,-23.438,-17.090,-18.066,-16.602,0.000
1714025433.679,-24.414,-21.484,-24.902,-16.602,0.000
1714025433.683,-23.438,-20.020,-16.602,-19.531,0.000
1714025433.686,-24.414,-19.043,-17.578,-18.555,0.000
1714025433.690,-26.855,-23.926,-20.020,-13.184,0.000
1714025433.694,-19.531,-25.879,-18.066,-1.465,0.000
1714025433.698,1.465,-28.320,-17.578,11.719,0.000
1714025433.702,-7.812,-26.855,-25.391,-7.812,0.000
1714025433.706,-29.785,-21.973,-34.668,-34.180,0.000
1714025433.710,-29.297,-16.602,-34.180,-34.668,0.000
1714025433.714,-25.391,-12.695,-36.133,-33.203,0.000
1714025433.718,-15.137,-11.719,-38.086,-31.250,0.000
1714025433.722,-25.879,-10.254,-34.668,-38.574,0.000
1714025433.726,-36.133,-13.184,-33.691,-38.086,0.000
1714025433.729,-27.832,-15.137,-34.180,-27.832,0.000
1714025433.733,-20.996,-14.160,-33.691,-24.902,0.000
1714025433.737,-17.578,-18.066,-36.621,-27.344,0.000
1714025433.741,-20.508,-19.531,-37.598,-18.555,0.000
1714025433.745,-22.949,-20.996,-35.156,-16.113,0.000
1714025433.748,-20.996,-21.973,-33.203,-22.949,0.000
1714025433.752,-22.949,-20.508,-31.250,-24.902,0.000
1714025433.756,-24.414,-19.043,-32.715,-24.414,0.000
1714025433.760,-20.020,-20.996,-31.250,-25.391,0.000
1714025433.764,-20.508,-25.879,-34.668,-28.809,0.000
1714025433.768,-25.879,-27.832,-41.504,-27.832,0.000
1714025433.772,-33.203,-28.809,-39.551,-28.320,0.000
1714025433.776,-34.180,-29.785,-35.156,-28.809,0.000
1714025433.780,-25.391,-29.297,-30.762,-23.926,0.000
1714025433.784,-24.902,-24.902,-32.227,-25.391,0.000
1714025433.787,-34.180,-20.996,-29.297,-31.738,0.000
1714025433.791,-30.273,-24.414,-25.879,-28.320,0.000
1714025433.795,-22.461,-26.855,-25.391,-22.461,0.000
1714025433.798,-20.020,-25.879,-27.832,-23.926,0.000
1714025433.802,-20.020,-27.344,-29.297,-27.832,0.000
1714025433.806,-17.090,-22.461,-30.273,-28.320,0.000
1714025433.810,-13.184,-19.043,-30.273,-20.508,0.000
1714025433.814,-20.020,-24.902,-34.180,-15.137,0.000
1714025433.818,-24.414,-23.438,-33.691,-23.438,0.000
1714025433.822,-14.648,-21.484,-25.391,-24.414,0.000
1714025433.826,-11.230,-17.578,-24.902,-16.602,0.000
1714025433.830,-13.184,-13.184,-27.344,-22.949,0.000
1714025433.833,-19.531,-12.695,-29.297,-29.785,0.000
1714025433.836,-26.367,-17.090,-32.227,-28.320,0.000
1714025433.840,-26.367,-20.996,-34.180,-26.855,0.000
1714025433.844,-27.832,-20.508,-32.715,-27.832,0.000
1714025433.848,-27.344,-20.996,-26.855,-27.344,0.000
1714025433.852,-23.926,-23.926,-26.367,-26.367,0.000
1714025433.856,-21.973,-27.832,-25.391,-19.531,0.000
1714025433.860,-27.832,-26.855,-20.996,-13.184,0.000
1714025433.864,-32.227,-24.414,-27.832,-21.973,0.000
1714025433.868,-34.668,-30.762,-35.156,-32.227,0.000
1714025433.872,-33.203,-33.203,-36.133,-33.203,0.000
1714025433.876,-30.273,-25.391,-36.133,-32.227,0.000
1714025433.878,-33.203,-26.855,-34.668,-39.551,0.000
1714025433.882,-33.203,-29.785,-32.715,-38.574,0.000
1714025433.886,-34.180,-29.785,-30.273,-35.156,0.000
1714025433.890,-31.738,-28.809,-30.762,-37.109,0.000
1714025433.894,-19.531,-27.344,-24.414,-27.832,0.000
1714025433.898,-18.066,-26.855,-24.414,-24.414,0.000
1714025433.902,-28.809,-27.344,-36.621,-32.715,0.000
1714025433.906,-31.738,-26.855,-33.691,-34.180,0.000
1714025433.909,-23.926,-24.902,-33.203,-31.738,0.000
1714025433.913,-21.973,-26.855,-37.598,-31.738,0.000
1714025433.917,-28.320,-24.902,-32.715,-28.809,0.000
1714025433.921,-27.344,-23.926,-25.879,-27.344,0.000
1714025433.927,-20.020,-28.320,-25.879,-32.227,0.000
1714025433.931,-23.438,-27.832,-22.461,-30.762,0.000
1714025433.935,-23.438,-24.902,-20.020,-26.367,0.000
1714025433.939,-21.973,-27.832,-24.902,-23.926,0.000
1714025433.943,-11.719,-24.414,-25.879,-15.137,0.000
1714025433.947,-7.812,-28.809,-21.484,-14.648,0.000
1714025433.951,-11.230,-29.297,-24.414,-21.973,0.000
1714025433.955,-10.742,-25.879,-21.484,-19.043,0.000
1714025433.959,-10.742,-26.855,-20.020,-15.137,0.000
1714025433.962,-18.066,-26.855,-24.902,-10.742,0.000
1714025433.966,-21.484,-23.926,-20.996,-13.184,0.000
1714025433.970,-23.926,-24.414,-22.461,-18.555,0.000
1714025433.975,-29.297,-23.926,-26.367,-18.066,0.000
1714025433.979,-25.879,-20.996,-22.461,-19.531,0.000
1714025433.983,-23.926,-20.020,-21.484,-27.832,0.000
1714025433.987,-18.555,-20.508,-20.508,-25.391,0.000
1714025433.991,-17.090,-24.414,-22.949,-20.508,0.000
1714025433.995,-13.184,-27.832,-20.508,-15.137,0.000
1714025433.999,-4.883,-31.738,-20.996,-8.789,0.000
1714025434.003,-8.789,-31.250,-24.902,-11.719,0.000
1714025434.006,-17.578,-29.297,-30.273,-21.973,0.000
1714025434.010,-19.043,-23.926,-31.250,-28.320,0.000
1714025434.014,-20.020,-16.602,-22.461,-32.715,0.000
1714025434.018,-22.461,-20.996,-25.391,-31.250,0.000
1714025434.023,-23.926,-27.344,-26.367,-24.902,0.000
1714025434.026,-18.066,-29.297,-20.020,-12.207,0.000
1714025434.030,-8.789,-27.344,-19.043,1.465,0.000
1714025434.034,-10.742,-25.879,-20.020,-7.812,0.000
1714025434.038,-13.184,-29.785,-18.066,-10.254,0.000
1714025434.042,-11.719,-32.227,-16.113,-1.465,0.000
1714025434.046,-14.160,-31.250,-22.949,-5.371,0.000
1714025434.050,-13.184,-30.273,-24.414,-11.230,0.000
1714025434.054,-15.137,-29.785,-24.414,-14.160,0.000
1714025434.058,-26.855,-34.180,-27.344,-18.066,0.000
1714025434.062,-21.973,-30.762,-26.855,-20.996,0.000
1714025434.066,-14.648,-30.762,-22.949,-24.414,0.000
1714025434.069,-22.461,-35.645,-19.531,-25.879,0.000
1714025434.073,-25.879,-33.203,-22.461,-19.531,0.000
1714025434.077,-27.344,-32.227,-27.344,-21.973,0.000
1714025434.081,-29.297,-35.156,-29.297,-24.414,0.000
1714025434.085,-23.926,-35.645,-30.273,-20.508,0.000
1714025434.089,-26.855,-37.598,-29.785,-25.879,0.000
1714025434.093,-27.832,-32.715,-24.902,-26.367,0.000
1714025434.097,-24.902,-27.344,-20.996,-19.043,0.000
1714025434.100,-27.344,-34.180,-27.344,-20.996,0.000
1714025434.104,-30.273,-31.250,-31.250,-33.203,0.000
1714025434.108,-28.809,-29.785,-32.227,-32.227,0.000
1714025434.112,-26.367,-33.203,-26.367,-22.461,0.000
1714025434.116,-27.832,-30.762,-20.020,-23.438,0.000
1714025434.120,-27.344,-27.832,-20.508,-25.879,0.000
1714025434.123,-27.832,-28.809,-22.461,-22.461,0.000
1714025434.127,-31.250,-29.785,-24.902,-16.602,0.000
1714025434.131,-29.297,-23.926,-23.926,-18.066,0.000
1714025434.135,-22.949,-25.391,-22.949,-19.531,0.000
1714025434.139,-20.020,-22.461,-21.484,-19.531,0.000
1714025434.143,-19.043,-19.531,-19.043,-21.484,0.000
1714025434.147,-16.602,-24.414,-15.137,-23.438,0.000
1714025434.151,-14.648,-21.973,-11.719,-26.855,0.000
1714025434.155,-15.625,-20.508,-15.625,-36.133,0.000
1714025434.159,-16.113,-20.020,-22.461,-37.109,0.000
1714025434.162,-17.578,-23.438,-20.508,-27.344,0.000
1714025434.166,-19.043,-32.227,-22.461,-30.762,0.000
1714025434.169,-23.926,-30.762,-18.066,-40.039,0.000
1714025434.173,-22.461,-26.855,-11.719,-37.598,0.000
1714025434.177,-18.066,-23.926,-11.719,-28.809,0.000
1714025434.181,-19.531,-23.926,-18.066,-31.738,0.000
1714025434.185,-24.902,-27.832,-20.996,-39.551,0.000
1714025434.189,-31.250,-28.809,-24.902,-29.297,0.000
1714025434.193,-22.949,-22.949,-21.973,-22.461,0.000
1714025434.197,-15.137,-21.973,-14.160,-16.602,0.000
1714025434.201,-19.531,-31.250,-15.625,-13.672,0.000
1714025434.205,-18.555,-31.738,-15.137,-21.484,0.000
1714025434.207,-14.160,-22.949,-15.625,-20.020,0.000
1714025434.211,-19.043,-14.160,-19.531,-25.391,0.000
1714025434.215,-25.879,-19.531,-25.879,-31.250,0.000
1714025434.219,-28.809,-27.344,-30.273,-33.691,0.000
1714025434.223,-23.438,-26.855,-32.227,-30.762,0.000
1714025434.227,-13.672,-26.367,-31.738,-21.973,0.000
1714025434.231,-13.672,-25.391,-30.762,-15.625,0.000
1714025434.235,-20.020,-25.879,-32.715,-19.531,0.000
1714025434.239,-19.043,-24.902,-34.668,-24.902,0.000
1714025434.243,-16.113,-22.949,-36.621,-18.555,0.000
1714025434.247,-13.672,-20.996,-36.133,-16.602,0.000
1714025434.250,-16.602,-23.926,-25.879,-20.020,0.000
1714025434.253,-17.090,-25.879,-19.531,-12.695,0.000
1714025434.257,-10.742,-24.902,-21.484,-7.324,0.000
1714025434.261,-19.531,-24.902,-27.344,-20.020,0.000
1714025434.265,-21.973,-24.414,-27.344,-26.367,0.000
1714025434.269,-17.578,-22.949,-23.926,-23.926,0.000
1714025434.273,-20.020,-21.484,-28.320,-17.578,0.000
1714025434.276,-20.020,-28.320,-30.762,-6.836,0.000
1714025434.280,-24.414,-31.250,-28.320,-19.043,0.000
1714025434.284,-28.809,-29.785,-33.203,-31.738,0.000
1714025434.288,-37.598,-31.738,-33.203,-25.879,0.000
1714025434.292,-32.715,-31.738,-27.344,-11.230,0.000
1714025434.296,-29.297,-30.273,-24.902,-18.555,0.000
1714025434.302,-27.344,-27.344,-20.996,-20.020,0.000
1714025434.306,-24.414,-28.320,-21.484,-9.277,0.000
1714025434.310,-29.297,-29.297,-26.855,-17.090,0.000
1714025434.314,-33.203,-30.273,-27.344,-23.926,0.000
1714025434.318,-31.250,-32.227,-29.785,-24.902,0.000
1714025434.321,-27.832,-26.367,-31.250,-19.531,0.000
1714025434.325,-25.879,-21.973,-29.785,-15.625,0.000
1714025434.329,-21.973,-23.438,-31.250,-21.484,0.000
1714025434.333,-20.020,-29.297,-30.762,-29.297,0.000
1714025434.337,-23.926,-29.297,-38.574,-25.391,0.000
1714025434.341,-23.438,-23.438,-33.203,-20.996,0.000
1714025434.345,-21.484,-22.461,-27.344,-25.879,0.000
1714025434.350,-24.902,-23.926,-27.832,-29.297,0.000
1714025434.354,-30.273,-22.461,-31.738,-32.715,0.000
1714025434.358,-29.785,-21.484,-34.668,-32.227,0.000
1714025434.362,-31.738,-24.414,-33.203,-32.227,0.000
1714025434.366,-32.715,-24.902,-38.086,-40.527,0.000
1714025434.370,-31.250,-26.855,-37.598,-42.969,0.000
1714025434.374,-34.668,-30.273,-33.203,-45.410,0.000
1714025434.377,-35.156,-32.715,-31.738,-40.527,0.000
1714025434.381,-29.297,-32.715,-30.762,-30.762,0.000
1714025434.385,-29.785,-26.855,-27.344,-29.297,0.000
1714025434.389,-26.367,-18.555,-21.484,-23.438,0.000
1714025434.393,-19.043,-20.996,-18.555,-16.602,0.000
1714025434.397,-26.367,-28.809,-15.625,-20.508,0.000
1714025434.401,-27.832,-23.926,-13.184,-27.832,0.000
1714025434.405,-24.902,-19.043,-11.230,-32.227,0.000
1714025434.409,-22.949,-20.996,-10.254,-27.344,0.000
1714025434.413,-21.484,-21.973,-9.277,-14.648,0.000
1714025434.417,-25.391,-22.461,-9.766,-11.230,0.000
1714025434.421,-27.344,-27.344,-10.254,-12.695,0.000
1714025434.425,-18.066,-22.949,-8.301,-5.859,0.000
1714025434.429,-13.184,-17.090,-4.883,2.930,0.000
1714025434.433,-20.996,-16.602,-2.930,-1.953,0.000
1714025434.436,-23.926,-16.602,-4.395,-12.695,0.000
1714025434.440,-22.949,-19.531,-7.812,-10.742,0.000
1714025434.444,-21.973,-22.949,-7.324,-3.906,0.000
1714025434.448,-20.508,-21.484,-6.348,-3.906,0.000
1714025434.452,-17.090,-21.484,-8.301,-2.930,0.000
1714025434.456,-12.207,-24.902,-9.766,-2.441,0.000
1714025434.460,-14.160,-25.391,-12.695,-4.395,0.000
1714025434.464,-10.742,-21.484,-12.207,-1.465,0.000
1714025434.468,-12.695,-19.043,-15.137,-7.324,0.000
1714025434.472,-15.625,-20.508,-24.902,-12.207,0.000
1714025434.476,-16.602,-19.531,-24.414,-4.395,0.000
1714025434.479,-19.531,-16.113,-18.555,-12.207,0.000
1714025434.483,-20.508,-21.484,-20.996,-28.320,0.000
1714025434.487,-27.832,-29.785,-28.320,-34.180,0.000
1714025434.491,-23.926,-25.391,-26.855,-25.391,0.000
1714025434.495,-22.949,-20.996,-22.949,-22.461,0.000
1714025434.499,-28.809,-22.949,-24.414,-31.250,0.000
1714025434.502,-25.879,-24.414,-25.391,-36.621,0.000
1714025434.506,-26.367,-25.879,-26.855,-38.086,0.000
1714025434.510,-32.715,-25.879,-33.691,-37.109,0.000
1714025434.514,-25.879,-26.367,-38.574,-32.715,0.000
1714025434.518,-19.531,-31.738,-33.691,-26.855,0.000
1714025434.522,-22.461,-34.668,-27.832,-29.297,0.000
1714025434.526,-20.020,-27.344,-26.855,-26.855,0.000
1714025434.530,-19.043,-28.320,-22.949,-21.484,0.000
1714025434.534,-25.879,-28.809,-23.926,-31.738,0.000
1714025434.537,-28.809,-23.438,-23.438,-32.227,0.000
1714025434.541,-27.832,-23.926,-19.043,-21.973,0.000
1714025434.545,-24.902,-24.902,-13.672,-18.066,0.000
1714025434.549,-24.414,-25.879,-18.555,-20.508,0.000
1714025434.552,-26.367,-26.855,-27.344,-25.391,0.000
1714025434.556,-25.391,-26.367,-25.391,-22.461,0.000
1714025434.560,-21.484,-22.949,-22.461,-21.973,0.000
1714025434.564,-22.949,-20.508,-27.344,-24.414,0.000
1714025434.568,-25.391,-22.461,-22.949,-26.367,0.000
1714025434.572,-23.438,-20.508,-16.602,-22.949,0.000
1714025434.576,-17.090,-18.555,-22.461,-16.602,0.000
1714025434.580,-13.672,-20.996,-24.902,-23.438,0.000
1714025434.582,-15.625,-24.902,-22.949,-32.227,0.000
1714025434.586,-16.602,-26.367,-27.344,-27.344,0.000
1714025434.590,-14.160,-25.879,-29.785,-22.949,0.000
1714025434.594,-13.672,-21.973,-26.367,-26.855,0.000
1714025434.598,-21.484,-20.996,-24.902,-30.273,0.000
1714025434.602,-27.832,-24.902,-27.344,-27.344,0.000
1714025434.606,-23.926,-25.879,-31.250,-21.484,0.000
1714025434.610,-24.902,-25.879,-34.180,-23.926,0.000
1714025434.614,-23.926,-27.344,-31.738,-31.250,0.000
1714025434.618,-20.996,-23.438,-28.320,-29.297,0.000
1714025434.622,-21.973,-21.484,-27.344,-23.438,0.000
1714025434.625,-20.508,-20.020,-25.391,-18.555,0.000
1714025434.628,-18.066,-15.137,-23.438,-25.391,0.000
