timestamps,TP9,AF7,AF8,TP10,Right AUX
1713985909.448,-27.832,-33.203,-29.785,-273.926,0.000
1713985909.452,-24.414,-29.785,-28.320,-264.648,0.000
1713985909.456,-24.902,-27.344,-35.156,-267.578,0.000
1713985909.460,-27.832,-27.344,-28.809,-273.438,0.000
1713985909.464,-28.809,-34.668,-23.926,-275.391,0.000
1713985909.468,-27.832,-36.621,-20.508,-257.812,0.000
1713985909.472,-32.715,-29.785,-29.297,-261.719,0.000
1713985909.475,-31.738,-23.926,-36.621,-272.461,0.000
1713985909.479,-34.668,-23.926,-29.785,-265.137,0.000
1713985909.483,-24.414,-23.438,-22.949,-247.559,0.000
1713985909.487,-20.508,-26.367,-30.273,-234.863,0.000
1713985909.491,-29.785,-29.297,-34.180,-257.324,0.000
1713985909.496,-31.738,-25.879,-25.879,-270.996,0.000
1713985909.500,-31.250,-38.086,-14.160,-265.137,0.000
1713985909.504,-31.250,-46.387,-8.789,-261.719,0.000
1713985909.507,-28.809,-44.434,-18.066,-270.996,0.000
1713985909.511,-32.227,-37.109,-26.855,-277.344,0.000
1713985909.515,-35.645,-33.203,-34.668,-273.926,0.000
1713985909.519,-37.598,-34.180,-41.016,-261.230,0.000
1713985909.523,-41.016,-29.785,-31.250,-261.719,0.000
1713985909.527,-38.574,-20.508,-20.508,-278.320,0.000
1713985909.531,-27.832,-19.531,-12.207,-260.254,0.000
1713985909.535,-30.762,-31.250,-0.488,-248.047,0.000
1713985909.539,-32.715,-44.434,-9.277,-252.441,0.000
1713985909.543,-34.180,-35.645,-24.902,-247.070,0.000
1713985909.547,-37.598,-17.090,-31.250,-251.465,0.000
1713985909.551,-35.645,-28.320,-32.227,-255.859,0.000
1713985909.555,-38.086,-38.086,-30.273,-254.395,0.000
1713985909.559,-30.273,-36.133,-30.762,-252.930,0.000
1713985909.563,-19.531,-27.832,-11.230,-248.535,0.000
1713985909.566,-28.320,-24.414,-7.812,-241.699,0.000
1713985909.570,-27.344,-30.762,-29.297,-249.023,0.000
1713985909.574,-20.508,-23.438,-35.645,-260.254,0.000
1713985909.578,-19.043,-16.602,-30.273,-272.461,0.000
1713985909.582,-7.324,-19.531,-25.879,-266.602,0.000
1713985909.586,-2.930,-17.578,-22.949,-237.305,0.000
1713985909.590,3.418,-26.367,-23.926,-219.727,0.000
1713985909.594,-9.277,-40.039,-21.973,-227.051,0.000
1713985909.598,-30.273,-27.832,-23.926,-257.324,0.000
1713985909.602,-35.645,-24.414,-35.156,-270.508,0.000
1713985909.606,-34.668,-35.156,-37.109,-273.926,0.000
1713985909.610,-29.785,-18.555,-33.691,-293.945,0.000
1713985909.614,-31.250,-18.555,-30.273,-304.199,0.000
1713985909.617,-30.762,-34.668,-30.273,-284.180,0.000
1713985909.621,-23.438,-30.273,-22.461,-273.926,0.000
1713985909.625,-20.020,-16.113,-8.301,-273.438,0.000
1713985909.629,-30.762,-20.508,-5.859,-277.344,0.000
1713985909.633,-32.227,-33.691,-11.719,-278.809,0.000
1713985909.637,-29.785,-20.508,-24.902,-269.531,0.000
1713985909.641,-31.738,-6.348,-39.062,-273.438,0.000
1713985909.645,-39.551,-17.578,-32.715,-272.949,0.000
1713985909.649,-43.457,-35.645,-19.531,-238.281,0.000
1713985909.653,-36.133,-21.973,-21.973,-195.801,0.000
1713985909.657,-28.320,-12.207,-12.207,-170.898,0.000
1713985909.661,-25.879,-14.648,-5.859,-166.992,0.000
1713985909.664,-29.297,-20.996,-22.949,-150.391,0.000
1713985909.668,-34.180,-23.438,-31.250,-129.395,0.000
1713985909.672,-40.039,-21.484,-32.227,-121.582,0.000
1713985909.676,-28.809,-21.484,-32.715,-109.863,0.000
1713985909.680,-31.250,-12.207,-37.598,-114.258,0.000
1713985909.684,-36.133,-9.277,-31.738,-114.746,0.000
1713985909.688,-19.531,-16.602,-14.160,-101.562,0.000
1713985909.692,-20.508,-32.715,-18.066,-101.562,0.000
1713985909.696,-31.738,-31.738,-36.133,-98.145,0.000
1713985909.699,-27.344,-10.742,-33.691,-108.887,0.000
1713985909.703,-27.344,-14.160,-31.250,-143.555,0.000
1713985909.707,-33.203,-22.949,-35.156,-176.270,0.000
1713985909.711,-27.832,-23.438,-29.785,-196.289,0.000
1713985909.715,-20.020,-29.785,-21.484,-217.285,0.000
1713985909.719,-22.949,-27.832,-27.832,-241.699,0.000
1713985909.723,-23.438,-26.855,-38.574,-246.094,0.000
1713985909.727,-20.020,-20.996,-31.738,-235.352,0.000
1713985909.730,-18.066,-16.113,-37.109,-230.957,0.000
1713985909.734,-13.672,-16.602,-36.133,-204.102,0.000
1713985909.738,-10.254,-18.066,-36.621,-202.148,0.000
1713985909.742,-10.254,-19.043,-31.250,-208.984,0.000
1713985909.746,-17.090,-25.879,-18.066,-203.125,0.000
1713985909.750,-24.414,-38.574,-31.250,-228.027,0.000
1713985909.754,-22.461,-39.551,-53.223,-263.184,0.000
1713985909.758,-19.043,-22.949,-40.039,-265.625,0.000
1713985909.762,-18.066,-20.508,-23.926,-271.973,0.000
1713985909.766,-14.648,-24.902,-40.527,-279.297,0.000
1713985909.769,-17.090,-11.719,-50.293,-271.973,0.000
1713985909.773,-23.926,-18.555,-23.926,-275.879,0.000
1713985909.777,-24.414,-33.203,-12.695,-288.086,0.000
1713985909.781,-31.738,-34.180,-37.598,-288.574,0.000
1713985909.785,-36.133,-33.691,-44.434,-260.742,0.000
1713985909.788,-19.043,-29.297,-23.438,-237.305,0.000
1713985909.792,-16.113,-17.090,-16.602,-244.629,0.000
1713985909.796,-30.273,-14.160,-28.320,-259.277,0.000
1713985909.800,-28.320,-20.508,-28.809,-256.348,0.000
1713985909.804,-22.461,-33.203,-19.043,-255.859,0.000
1713985909.808,-33.203,-34.180,-23.438,-281.738,0.000
1713985909.812,-43.945,-28.320,-34.668,-299.805,0.000
1713985909.816,-41.016,-38.086,-42.480,-290.527,0.000
1713985909.820,-36.621,-39.551,-36.621,-277.344,0.000
1713985909.823,-28.809,-27.832,-26.855,-266.602,0.000
1713985909.827,-31.250,-32.715,-19.531,-255.859,0.000
1713985909.831,-37.109,-34.668,-25.879,-246.094,0.000
1713985909.835,-26.367,-15.625,-36.133,-228.027,0.000
1713985909.839,-28.809,-24.902,-29.297,-228.516,0.000
1713985909.843,-30.762,-40.527,-40.527,-236.816,0.000
1713985909.846,-28.809,-33.203,-41.016,-220.215,0.000
1713985909.850,-33.691,-32.227,-33.203,-228.027,0.000
1713985909.854,-30.273,-29.297,-38.574,-220.703,0.000
1713985909.858,-21.973,-31.250,-26.855,-190.918,0.000
1713985909.862,-27.344,-26.367,-20.020,-191.895,0.000
1713985909.866,-22.949,-15.625,-31.738,-208.984,0.000
1713985909.871,-21.973,-28.809,-35.156,-229.492,0.000
1713985909.875,-27.344,-31.250,-30.273,-238.281,0.000
1713985909.878,-38.086,-21.973,-38.086,-247.559,0.000
1713985909.882,-40.527,-34.668,-38.574,-254.395,0.000
1713985909.886,-29.785,-46.875,-30.762,-259.277,0.000
1713985909.890,-33.203,-41.504,-18.555,-253.906,0.000
1713985909.894,-34.668,-24.902,-14.648,-249.023,0.000
1713985909.898,-36.133,-14.648,-35.156,-247.559,0.000
1713985909.902,-41.992,-24.902,-42.480,-233.887,0.000
1713985909.906,-35.156,-37.109,-42.969,-209.473,0.000
1713985909.910,-33.203,-26.367,-45.898,-208.008,0.000
1713985909.914,-32.227,-20.020,-35.645,-202.637,0.000
1713985909.918,-33.691,-22.461,-16.113,-183.105,0.000
1713985909.922,-41.504,-23.438,-22.461,-195.312,0.000
1713985909.926,-44.434,-25.391,-7.324,-216.309,0.000
1713985909.930,-41.992,-19.043,4.883,-224.609,0.000
1713985909.934,-40.039,-15.625,-21.973,-196.289,0.000
1713985909.938,-39.062,-9.277,-26.367,-182.617,0.000
1713985909.941,-57.617,-7.324,-25.879,-224.609,0.000
1713985909.945,-70.312,-13.184,-20.996,-257.324,0.000
1713985909.949,-81.055,-16.602,-5.371,-259.277,0.000
1713985909.953,-104.980,-15.625,9.277,-253.418,0.000
1713985909.957,-120.605,-4.883,7.812,-307.129,0.000
1713985909.961,-145.508,3.906,13.184,-382.324,0.000
1713985909.965,-173.340,2.930,27.832,-405.762,0.000
1713985909.969,-185.547,13.672,31.250,-419.434,0.000
1713985909.973,-188.965,22.461,35.156,-459.961,0.000
1713985909.977,-195.801,32.715,43.945,-493.164,0.000
1713985909.981,-208.496,40.527,55.176,-476.074,0.000
1713985909.985,-210.938,41.504,53.711,-443.359,0.000
1713985909.989,-195.801,38.086,41.992,-382.324,0.000
1713985909.992,-181.152,29.297,45.898,-351.562,0.000
1713985909.996,-179.199,8.789,58.594,-355.469,0.000
1713985910.000,-163.086,6.348,48.828,-333.496,0.000
1713985910.004,-154.297,16.113,25.879,-333.008,0.000
1713985910.008,-150.391,8.301,18.555,-332.520,0.000
1713985910.012,-132.324,-6.836,17.090,-319.336,0.000
1713985910.016,-110.840,-2.441,16.113,-302.246,0.000
1713985910.020,-98.633,19.531,23.926,-276.367,0.000
1713985910.024,-88.867,7.812,24.414,-265.625,0.000
1713985910.028,-65.918,-14.648,15.137,-271.484,0.000
1713985910.032,-58.105,-35.645,-5.859,-276.367,0.000
1713985910.035,-49.805,-49.805,-12.695,-255.371,0.000
1713985910.039,-36.133,-41.504,-22.461,-206.543,0.000
1713985910.043,-26.855,-42.480,-31.250,-166.992,0.000
1713985910.047,-15.137,-41.016,-28.809,-146.484,0.000
1713985910.051,-11.230,-32.715,-39.062,-100.586,0.000
1713985910.055,-9.766,-27.344,-44.434,-29.785,0.000
1713985910.059,-6.348,-34.668,-41.992,25.879,0.000
1713985910.063,-5.859,-51.270,-43.457,59.082,0.000
1713985910.067,-15.625,-57.617,-53.223,33.691,0.000
1713985910.070,-3.418,-58.105,-61.523,-5.859,0.000
1713985910.074,13.672,-45.898,-60.547,-4.395,0.000
1713985910.078,13.184,-45.410,-58.105,-9.766,0.000
1713985910.082,15.625,-65.430,-63.965,-16.602,0.000
1713985910.086,19.531,-62.012,-57.129,-5.859,0.000
1713985910.090,20.996,-50.293,-59.082,-25.391,0.000
1713985910.094,17.578,-49.805,-64.453,-36.621,0.000
1713985910.098,13.672,-44.922,-55.176,-25.879,0.000
1713985910.102,19.043,-41.504,-59.570,-29.297,0.000
1713985910.105,23.438,-43.457,-65.918,-34.180,0.000
1713985910.109,20.508,-45.898,-67.383,-40.039,0.000
1713985910.113,34.668,-41.992,-59.082,-38.086,0.000
1713985910.117,26.367,-32.715,-60.547,-29.297,0.000
1713985910.121,22.461,-41.992,-72.754,-19.531,0.000
1713985910.125,21.484,-50.293,-83.496,-16.113,0.000
1713985910.129,23.438,-42.969,-73.730,-5.859,0.000
1713985910.133,27.344,-40.527,-60.547,14.648,0.000
1713985910.137,22.461,-34.180,-53.223,-0.488,0.000
1713985910.140,17.578,-35.156,-51.758,-24.414,0.000
1713985910.144,13.672,-35.645,-60.059,-40.039,0.000
1713985910.148,16.602,-23.926,-46.387,-53.223,0.000
1713985910.152,19.043,-17.578,-40.039,-44.434,0.000
1713985910.156,14.648,-27.832,-59.082,-44.922,0.000
1713985910.160,13.184,-41.504,-63.477,-57.617,0.000
1713985910.164,16.602,-45.410,-48.340,-47.363,0.000
1713985910.167,12.207,-49.316,-44.434,-42.480,0.000
1713985910.171,5.859,-51.270,-55.176,-50.293,0.000
1713985910.175,9.766,-40.039,-48.340,-66.406,0.000
1713985910.179,7.324,-27.832,-36.621,-70.801,0.000
1713985910.183,0.000,-31.250,-44.922,-64.941,0.000
1713985910.187,-1.465,-39.551,-54.199,-61.035,0.000
1713985910.191,2.441,-34.180,-65.430,-58.594,0.000
1713985910.195,1.465,-35.645,-55.176,-60.547,0.000
1713985910.198,-0.977,-42.969,-32.227,-62.988,0.000
1713985910.202,-0.977,-32.715,-36.133,-65.430,0.000
1713985910.206,-4.395,-27.344,-39.551,-64.941,0.000
1713985910.210,-0.977,-28.320,-37.109,-65.918,0.000
1713985910.214,-1.465,-28.809,-45.410,-68.359,0.000
1713985910.218,1.953,-40.527,-36.621,-66.406,0.000
1713985910.222,6.836,-33.691,-28.809,-61.523,0.000
1713985910.225,-11.230,-20.020,-41.016,-72.266,0.000
1713985910.229,-10.742,-23.438,-34.668,-73.242,0.000
1713985910.233,-0.977,-29.297,-27.832,-66.895,0.000
1713985910.237,-2.930,-24.414,-37.598,-66.895,0.000
1713985910.241,-6.836,-27.344,-41.504,-65.430,0.000
1713985910.246,-7.324,-27.832,-43.457,-53.223,0.000
1713985910.250,-7.812,-17.578,-45.898,-49.805,0.000
1713985910.253,-7.324,-28.809,-41.504,-49.316,0.000
1713985910.257,-14.648,-29.785,-43.945,-49.805,0.000
1713985910.261,-22.461,-31.738,-36.133,-55.664,0.000
1713985910.265,-14.648,-47.852,-30.273,-52.734,0.000
1713985910.269,-10.254,-41.992,-33.691,-53.711,0.000
1713985910.273,-13.672,-33.691,-34.668,-74.707,0.000
1713985910.277,-13.184,-30.762,-33.691,-83.984,0.000
1713985910.281,-9.766,-22.949,-32.715,-77.637,0.000
1713985910.285,-10.254,-16.113,-35.645,-91.797,0.000
1713985910.289,-8.301,-29.785,-36.621,-104.492,0.000
1713985910.293,1.465,-40.527,-25.879,-102.539,0.000
1713985910.297,0.488,-35.156,-14.160,-98.145,0.000
1713985910.301,-1.465,-40.527,-19.531,-97.656,0.000
1713985910.305,6.348,-42.480,-34.180,-101.562,0.000
1713985910.309,-1.465,-39.551,-38.574,-102.051,0.000
1713985910.313,-5.859,-27.832,-33.203,-85.449,0.000
1713985910.316,-3.906,-11.719,-24.414,-69.336,0.000
1713985910.320,-13.184,-12.207,-23.926,-59.570,0.000
1713985910.324,-17.090,-30.762,-27.832,-49.316,0.000
1713985910.328,-15.137,-29.785,-20.996,-47.852,0.000
1713985910.332,-19.043,-21.973,-27.832,-62.012,0.000
1713985910.336,-20.020,-24.414,-39.551,-59.082,0.000
1713985910.340,-17.090,-23.926,-23.926,-51.758,0.000
1713985910.344,-19.043,-32.227,-25.879,-65.918,0.000
1713985910.348,-30.273,-41.992,-41.992,-69.336,0.000
1713985910.352,-22.461,-29.297,-26.855,-48.340,0.000
1713985910.356,-22.461,-24.414,-23.438,-44.434,0.000
1713985910.360,-35.645,-29.297,-39.551,-59.082,0.000
1713985910.364,-32.715,-31.250,-39.551,-51.270,0.000
1713985910.367,-21.484,-25.391,-33.203,-44.434,0.000
1713985910.371,-18.066,-40.039,-37.109,-41.992,0.000
1713985910.375,-19.531,-47.363,-37.598,-53.223,0.000
1713985910.379,-22.949,-43.945,-36.133,-78.613,0.000
1713985910.383,-30.273,-41.504,-36.133,-75.195,0.000
1713985910.387,-31.738,-35.645,-24.414,-57.617,0.000
1713985910.391,-24.902,-31.250,-23.926,-66.406,0.000
1713985910.395,-32.227,-39.062,-38.086,-67.383,0.000
1713985910.399,-39.062,-40.527,-41.016,-45.898,0.000
1713985910.403,-27.832,-20.996,-35.156,-53.711,0.000
1713985910.407,-31.738,-24.414,-28.809,-77.637,0.000
1713985910.410,-27.832,-32.227,-16.602,-94.238,0.000
1713985910.414,-23.926,-30.273,-26.367,-108.398,0.000
1713985910.418,-32.715,-30.762,-52.246,-122.070,0.000
1713985910.422,-22.949,-27.832,-43.945,-116.699,0.000
1713985910.426,-18.066,-33.203,-42.480,-108.398,0.000
1713985910.430,-23.926,-26.855,-47.852,-70.312,0.000
1713985910.434,-19.043,-23.926,-28.809,3.418,0.000
1713985910.438,-20.508,-26.367,-24.902,33.691,0.000
1713985910.442,-22.949,-14.648,-14.648,52.246,0.000
1713985910.445,-11.719,-20.996,-0.488,81.055,0.000
1713985910.449,-20.020,-39.551,-26.367,91.309,0.000
1713985910.453,-20.996,-49.316,-41.992,111.328,0.000
1713985910.457,-17.578,-37.109,-39.062,123.047,0.000
1713985910.461,-23.438,-33.203,-44.922,62.500,0.000
1713985910.465,-12.695,-25.879,-36.621,-21.973,0.000
1713985910.469,-15.625,-10.254,-25.879,-81.055,0.000
1713985910.473,-17.090,-9.766,-14.160,-112.305,0.000
1713985910.477,-9.766,-17.090,-10.254,-123.047,0.000
1713985910.480,-11.230,-21.484,-29.785,-145.020,0.000
1713985910.484,-12.695,-28.320,-49.316,-158.691,0.000
1713985910.488,-8.789,-32.715,-42.969,-150.879,0.000
1713985910.492,1.953,-33.691,-22.461,-154.785,0.000
1713985910.496,7.324,-24.902,-18.066,-164.062,0.000
1713985910.500,-1.465,-11.719,-31.738,-154.297,0.000
1713985910.504,-7.324,-10.254,-33.203,-165.527,0.000
1713985910.508,-5.859,-2.930,-17.578,-184.570,0.000
1713985910.512,-21.484,-5.371,-30.273,-208.984,0.000
1713985910.515,-17.090,-17.090,-34.180,-216.797,0.000
1713985910.519,-15.625,-25.879,-22.461,-206.543,0.000
1713985910.523,-22.461,-29.297,-30.273,-208.984,0.000
1713985910.527,-24.414,-29.297,-33.691,-217.285,0.000
1713985910.531,-21.973,-18.555,-29.785,-232.422,0.000
1713985910.535,-9.277,-5.371,-7.324,-228.027,0.000
1713985910.538,-15.137,-16.113,-7.812,-210.449,0.000
1713985910.542,-24.902,-33.203,-30.273,-191.895,0.000
1713985910.546,-30.273,-40.039,-32.715,-152.832,0.000
1713985910.550,-32.227,-34.180,-37.109,-99.121,0.000
1713985910.554,-23.926,-15.137,-23.438,-61.035,0.000
1713985910.558,-19.531,-17.578,-15.137,-42.969,0.000
1713985910.562,-21.973,-28.809,-27.344,-39.062,0.000
1713985910.566,-16.113,-24.902,-20.996,-20.996,0.000
1713985910.570,-21.973,-16.602,-18.066,38.574,0.000
1713985910.574,-35.645,-21.484,-31.738,91.797,0.000
1713985910.578,-28.809,-25.391,-35.645,154.297,0.000
1713985910.582,-28.809,-30.762,-39.551,198.730,0.000
1713985910.586,-33.691,-31.738,-36.621,221.191,0.000
1713985910.590,-25.391,-24.902,-24.902,234.863,0.000
1713985910.594,-15.137,-29.297,-20.020,216.309,0.000
1713985910.598,-14.160,-24.902,-10.742,186.523,0.000
1713985910.602,-20.996,-36.133,-10.254,174.316,0.000
1713985910.606,-21.973,-33.203,-30.762,227.051,0.000
1713985910.610,-24.414,-25.391,-39.062,261.230,0.000
1713985910.614,-35.645,-44.922,-40.039,239.746,0.000
1713985910.617,-37.109,-28.320,-31.250,214.844,0.000
1713985910.622,-33.203,-10.742,-21.973,228.027,0.000
1713985910.626,-34.180,-20.996,-22.949,236.816,0.000
1713985910.630,-32.715,-29.297,-23.926,248.535,0.000
1713985910.634,-33.203,-24.414,-21.484,253.906,0.000
1713985910.638,-43.457,-28.809,-19.043,233.398,0.000
1713985910.641,-46.875,-34.180,-30.762,195.312,0.000
1713985910.645,-47.852,-29.297,-44.922,159.668,0.000
1713985910.649,-47.852,-22.949,-34.180,181.641,0.000
1713985910.653,-36.133,-24.902,-27.344,187.012,0.000
1713985910.657,-29.785,-29.785,-33.691,162.109,0.000
1713985910.661,-27.344,-25.391,-27.832,167.480,0.000
1713985910.665,-31.738,-29.297,-20.996,192.383,0.000
1713985910.669,-34.180,-39.062,-25.391,223.145,0.000
1713985910.673,-27.344,-40.527,-31.250,246.094,0.000
1713985910.677,-33.691,-35.156,-37.598,252.930,0.000
1713985910.681,-26.367,-26.367,-30.273,260.742,0.000
1713985910.685,-27.344,-20.020,-27.832,267.090,0.000
1713985910.689,-38.086,-23.438,-36.621,286.133,0.000
1713985910.693,-34.180,-12.207,-30.273,278.320,0.000
1713985910.696,-33.691,-11.719,-24.414,256.348,0.000
1713985910.700,-44.922,-30.762,-24.414,260.254,0.000
1713985910.704,-44.922,-32.227,-33.203,249.512,0.000
1713985910.708,-37.109,-33.203,-28.809,246.094,0.000
1713985910.712,-35.156,-39.551,-25.391,250.000,0.000
1713985910.716,-37.598,-39.062,-34.668,249.023,0.000
1713985910.720,-35.156,-23.926,-19.531,260.742,0.000
1713985910.724,-42.969,-20.508,-19.043,209.961,0.000
1713985910.728,-40.039,-29.785,-39.062,147.461,0.000
1713985910.732,-20.020,-25.879,-35.645,154.785,0.000
1713985910.736,-22.949,-8.301,-16.602,186.035,0.000
1713985910.739,-17.578,-14.160,-3.418,194.336,0.000
1713985910.743,-21.484,-31.738,-21.973,189.453,0.000
1713985910.747,-35.156,-36.621,-41.504,194.824,0.000
1713985910.751,-39.062,-34.668,-35.645,181.152,0.000
1713985910.755,-25.879,-24.414,-32.227,182.129,0.000
1713985910.759,-17.578,-16.113,-31.250,203.125,0.000
1713985910.763,-20.020,-17.578,-27.344,215.332,0.000
1713985910.767,-27.344,-16.602,-29.297,215.332,0.000
1713985910.771,-36.621,-29.785,-29.297,210.449,0.000
1713985910.775,-24.414,-35.645,-20.020,171.387,0.000
1713985910.778,-19.531,-24.414,-21.484,109.863,0.000
1713985910.782,-26.367,-26.855,-25.391,62.988,0.000
1713985910.786,-19.043,-18.555,-21.973,39.551,0.000
1713985910.790,-15.625,-18.555,-21.484,6.836,0.000
1713985910.794,-20.508,-15.625,-21.973,-36.133,0.000
1713985910.798,-30.273,-7.812,-24.414,-77.637,0.000
1713985910.802,-30.762,-18.555,-22.949,-96.680,0.000
1713985910.806,-28.320,-36.133,-10.254,-101.074,0.000
1713985910.809,-20.508,-32.227,-14.648,-114.258,0.000
1713985910.813,-26.367,-25.391,-34.180,-125.977,0.000
1713985910.817,-33.691,-32.715,-32.715,-136.230,0.000
1713985910.821,-32.715,-37.109,-25.879,-137.695,0.000
1713985910.825,-28.320,-35.156,-31.250,-107.422,0.000
1713985910.829,-27.344,-20.996,-36.133,-57.617,0.000
1713985910.833,-34.668,-17.578,-27.344,21.973,0.000
1713985910.837,-28.809,-29.785,-16.602,101.562,0.000
1713985910.841,-28.320,-32.227,-26.855,148.438,0.000
1713985910.845,-39.551,-27.344,-35.645,176.758,0.000
1713985910.849,-34.180,-25.879,-28.320,208.008,0.000
1713985910.852,-37.598,-38.086,-30.273,247.070,0.000
1713985910.856,-39.551,-28.809,-29.297,264.160,0.000
1713985910.860,-25.391,-24.902,-28.320,268.066,0.000
1713985910.864,-25.879,-34.668,-23.926,267.578,0.000
1713985910.868,-30.273,-27.832,-16.113,265.625,0.000
1713985910.872,-30.762,-25.391,-13.672,264.648,0.000
1713985910.876,-34.180,-29.297,-13.672,258.301,0.000
1713985910.879,-31.738,-22.461,-31.738,247.559,0.000
1713985910.883,-37.598,-25.391,-40.527,247.559,0.000
1713985910.887,-41.016,-39.551,-31.250,252.930,0.000
1713985910.891,-34.180,-34.180,-17.578,267.090,0.000
1713985910.895,-32.715,-30.762,-25.391,267.090,0.000
1713985910.899,-30.762,-32.227,-36.621,268.066,0.000
1713985910.902,-27.344,-29.297,-29.785,261.230,0.000
1713985910.906,-32.715,-26.367,-31.738,234.375,0.000
1713985910.910,-37.598,-22.461,-40.527,226.074,0.000
1713985910.914,-41.016,-33.691,-43.945,222.656,0.000
1713985910.918,-41.504,-34.668,-29.297,229.004,0.000
1713985910.922,-25.391,-20.020,-13.672,259.277,0.000
1713985910.926,-30.273,-25.391,-14.160,271.973,0.000
1713985910.930,-46.875,-31.738,-19.043,248.047,0.000
1713985910.934,-41.016,-28.809,-32.227,209.473,0.000
1713985910.938,-36.133,-27.832,-37.598,173.340,0.000
1713985910.941,-37.598,-35.645,-34.668,167.969,0.000
1713985910.945,-41.992,-42.969,-28.320,176.270,0.000
1713985910.949,-46.875,-42.480,-25.879,179.199,0.000
1713985910.952,-43.945,-39.551,-34.180,185.547,0.000
1713985910.956,-38.086,-32.715,-36.621,183.105,0.000
1713985910.960,-34.180,-27.832,-26.367,208.008,0.000
1713985910.964,-30.762,-33.203,-22.461,240.723,0.000
1713985910.968,-25.391,-26.367,-20.996,262.207,0.000
1713985910.972,-23.438,-21.484,-19.531,277.832,0.000
1713985910.976,-24.902,-32.227,-31.738,278.809,0.000
1713985910.980,-36.621,-48.340,-39.551,276.855,0.000
1713985910.984,-33.691,-42.969,-35.645,289.551,0.000
1713985910.988,-24.414,-26.855,-28.809,299.316,0.000
1713985910.992,-28.809,-30.762,-20.020,278.809,0.000
1713985910.996,-26.855,-32.715,-23.438,282.227,0.000
1713985911.000,-26.367,-25.391,-27.344,298.340,0.000
1713985911.004,-30.762,-30.273,-28.809,304.688,0.000
1713985911.008,-33.691,-40.527,-26.367,287.109,0.000
1713985911.012,-33.203,-44.922,-24.414,273.438,0.000
1713985911.016,-33.691,-46.387,-32.715,282.227,0.000
1713985911.020,-28.809,-34.180,-34.180,279.297,0.000
1713985911.024,-20.996,-22.949,-24.902,271.973,0.000
1713985911.027,-14.648,-10.742,-20.020,273.926,0.000
1713985911.031,-13.184,-12.207,-35.645,258.789,0.000
1713985911.035,-20.996,-37.598,-28.320,255.371,0.000
1713985911.039,-29.785,-43.457,-8.789,257.812,0.000
1713985911.043,-29.297,-34.180,-6.836,252.930,0.000
1713985911.047,-32.715,-18.066,-2.930,256.836,0.000
1713985911.051,-44.434,-22.461,-10.742,251.953,0.000
1713985911.055,-62.500,-32.715,-19.043,232.910,0.000
1713985911.059,-83.496,-35.156,-6.348,204.590,0.000
1713985911.063,-98.633,-34.180,3.418,180.664,0.000
1713985911.067,-109.375,-31.250,13.672,169.922,0.000
1713985911.071,-134.766,-22.949,20.996,148.926,0.000
1713985911.075,-164.062,-18.555,30.273,114.746,0.000
1713985911.079,-172.852,-11.230,42.480,90.332,0.000
1713985911.083,-183.105,0.488,54.688,86.914,0.000
1713985911.086,-211.426,1.953,62.500,70.801,0.000
1713985911.091,-220.703,16.113,68.848,37.109,0.000
1713985911.095,-214.844,22.461,74.219,45.898,0.000
1713985911.098,-227.051,20.020,67.871,42.480,0.000
1713985911.102,-216.797,27.832,63.477,41.504,0.000
1713985911.106,-208.008,24.902,65.430,47.363,0.000
1713985911.110,-208.008,6.836,65.430,46.875,0.000
1713985911.114,-188.965,-0.488,63.965,65.918,0.000
1713985911.118,-163.086,-6.348,66.895,97.656,0.000
1713985911.122,-151.855,-9.766,45.898,113.281,0.000
1713985911.126,-149.414,7.812,23.926,105.469,0.000
1713985911.130,-129.883,5.859,15.137,109.863,0.000
1713985911.134,-109.375,-11.230,0.000,125.000,0.000
1713985911.138,-98.633,-21.973,-14.648,145.996,0.000
1713985911.141,-68.848,-18.555,-18.555,159.180,0.000
1713985911.145,-53.711,-16.602,-25.879,162.598,0.000
1713985911.149,-40.527,-17.090,-34.668,179.688,0.000
1713985911.153,-20.508,-17.578,-34.668,194.824,0.000
1713985911.157,-18.555,-27.344,-34.668,190.918,0.000
1713985911.161,-15.625,-31.738,-47.363,189.453,0.000
1713985911.165,-4.395,-39.062,-61.035,199.707,0.000
1713985911.169,4.395,-43.457,-67.871,217.285,0.000
1713985911.173,18.066,-40.039,-64.453,233.398,0.000
1713985911.177,28.809,-36.133,-55.664,231.445,0.000
1713985911.181,24.902,-36.621,-63.477,222.656,0.000
1713985911.184,20.020,-36.621,-59.570,241.211,0.000
1713985911.188,30.273,-31.738,-48.340,258.789,0.000
1713985911.192,33.691,-27.832,-48.340,266.113,0.000
1713985911.196,32.715,-24.902,-53.711,279.297,0.000
1713985911.200,29.297,-26.367,-52.246,284.668,0.000
1713985911.204,22.461,-25.391,-44.434,280.762,0.000
1713985911.208,27.344,-35.645,-46.875,265.625,0.000
1713985911.212,25.391,-23.926,-50.293,250.000,0.000
1713985911.216,10.742,-12.207,-58.105,224.121,0.000
1713985911.219,-18.066,-21.484,-57.129,195.312,0.000
1713985911.223,-53.711,-23.438,-41.992,169.434,0.000
1713985911.227,-76.660,-16.113,-22.949,123.047,0.000
1713985911.231,-93.262,-6.836,-2.930,97.168,0.000
1713985911.235,-121.094,3.906,-0.977,77.637,0.000
1713985911.239,-149.902,12.207,10.254,46.387,0.000
1713985911.242,-175.293,20.020,28.320,14.160,0.000
1713985911.246,-190.430,29.297,25.391,-12.695,0.000
1713985911.250,-200.195,40.039,26.367,-7.812,0.000
1713985911.254,-211.914,38.086,32.715,-5.859,0.000
1713985911.258,-201.660,27.344,29.297,-6.348,0.000
1713985911.262,-177.246,53.711,28.320,11.230,0.000
1713985911.266,-166.992,62.988,20.508,32.715,0.000
1713985911.270,-157.715,51.270,-7.324,52.734,0.000
1713985911.274,-144.531,42.480,-2.930,62.988,0.000
1713985911.277,-124.512,40.527,2.441,62.012,0.000
1713985911.281,-105.469,37.598,-27.344,70.801,0.000
1713985911.285,-76.660,38.574,-49.316,97.168,0.000
1713985911.289,-58.105,32.227,-58.105,110.840,0.000
1713985911.293,-52.734,14.648,-61.523,106.934,0.000
1713985911.297,-24.414,8.301,-64.453,136.230,0.000
1713985911.301,-15.137,-11.719,-69.336,175.781,0.000
1713985911.304,-15.625,-26.367,-80.078,187.988,0.000
1713985911.308,10.742,-14.160,-80.566,198.242,0.000
1713985911.312,17.578,-19.531,-73.730,200.684,0.000
1713985911.316,15.137,-21.973,-76.660,195.801,0.000
1713985911.320,23.926,-18.555,-77.637,215.820,0.000
1713985911.323,31.250,-28.320,-77.148,243.652,0.000
1713985911.327,44.434,-41.504,-78.613,246.094,0.000
1713985911.331,53.711,-41.504,-84.473,276.855,0.000
1713985911.335,54.688,-49.805,-86.914,307.129,0.000
1713985911.339,60.059,-46.387,-87.891,291.992,0.000
1713985911.343,60.059,-39.551,-84.473,266.602,0.000
1713985911.347,61.035,-49.805,-89.355,247.559,0.000
1713985911.351,61.523,-47.852,-85.449,233.887,0.000
1713985911.355,62.500,-49.316,-78.125,240.234,0.000
1713985911.359,69.824,-45.898,-78.125,251.953,0.000
1713985911.362,64.453,-55.176,-71.289,226.074,0.000
1713985911.366,56.641,-55.664,-75.195,205.078,0.000
1713985911.371,57.129,-54.688,-84.473,226.074,0.000
1713985911.375,57.129,-53.223,-84.961,243.652,0.000
1713985911.379,57.129,-43.945,-68.359,223.145,0.000
1713985911.383,62.012,-47.852,-57.129,199.707,0.000
1713985911.387,62.988,-52.734,-67.383,192.383,0.000
1713985911.391,56.152,-46.387,-73.730,179.688,0.000
1713985911.394,45.410,-43.945,-74.707,167.969,0.000
1713985911.398,45.410,-44.434,-68.359,154.785,0.000
1713985911.402,50.781,-42.480,-70.312,144.043,0.000
1713985911.406,50.781,-54.688,-70.801,146.484,0.000
1713985911.410,48.340,-61.523,-60.059,162.109,0.000
1713985911.414,40.039,-59.570,-61.523,163.086,0.000
1713985911.418,34.668,-48.828,-61.523,171.387,0.000
1713985911.422,39.551,-36.133,-52.734,196.289,0.000
1713985911.426,37.109,-28.809,-45.898,178.223,0.000
1713985911.430,26.855,-36.621,-51.270,132.812,0.000
1713985911.434,29.297,-46.875,-54.199,121.582,0.000
1713985911.438,33.691,-38.086,-48.340,126.465,0.000
1713985911.442,27.832,-36.621,-38.086,120.117,0.000
1713985911.446,29.297,-50.293,-32.227,139.160,0.000
1713985911.450,22.461,-46.387,-43.945,171.875,0.000
1713985911.453,12.695,-37.109,-53.711,202.148,0.000
1713985911.457,21.973,-46.387,-45.898,210.449,0.000
1713985911.461,21.484,-43.457,-36.621,231.934,0.000
1713985911.465,14.160,-32.715,-43.457,258.301,0.000
1713985911.469,16.602,-23.926,-44.434,271.484,0.000
1713985911.473,14.648,-25.391,-31.738,281.250,0.000
1713985911.477,11.230,-35.156,-28.809,282.715,0.000
1713985911.481,11.719,-40.527,-32.715,287.598,0.000
1713985911.485,13.184,-42.969,-41.992,278.809,0.000
1713985911.489,13.672,-33.203,-49.316,266.602,0.000
1713985911.493,23.926,-30.762,-37.109,253.418,0.000
1713985911.497,36.133,-33.203,-48.340,224.121,0.000
1713985911.501,14.160,-33.691,-56.152,155.762,0.000
1713985911.504,-12.695,-26.367,-26.367,83.496,0.000
1713985911.508,-9.766,-27.832,-21.973,95.215,0.000
1713985911.512,-12.695,-40.039,-40.527,99.121,0.000
1713985911.516,-32.227,-29.785,-42.969,57.617,0.000
1713985911.520,-37.598,-21.973,-49.316,27.344,0.000
1713985911.524,-25.879,-15.625,-54.688,7.812,0.000
1713985911.528,-21.484,-2.930,-50.293,-5.859,0.000
1713985911.532,-33.203,-12.695,-43.945,-9.766,0.000
1713985911.536,-39.062,-31.250,-42.969,19.043,0.000
1713985911.540,-30.273,-32.715,-54.199,46.387,0.000
1713985911.543,-21.973,-15.137,-63.965,59.570,0.000
1713985911.547,-29.297,-9.766,-59.082,73.730,0.000
1713985911.551,-32.227,-17.578,-54.688,96.680,0.000
1713985911.555,-25.391,-14.648,-47.363,77.637,0.000
1713985911.559,-16.602,-8.789,-36.621,58.105,0.000
1713985911.563,-19.043,-13.672,-44.922,87.891,0.000
1713985911.567,-26.367,-25.391,-54.688,104.004,0.000
1713985911.571,-13.184,-21.973,-38.574,93.262,0.000
1713985911.575,-3.418,-16.602,-29.785,90.332,0.000
1713985911.579,-11.719,-20.996,-40.527,103.027,0.000
1713985911.582,-20.508,-22.949,-41.016,113.281,0.000
1713985911.586,-11.719,-20.508,-36.621,142.578,0.000
1713985911.590,-9.766,-18.066,-34.668,156.738,0.000
1713985911.594,-17.578,-20.996,-36.133,136.719,0.000
1713985911.598,-13.672,-24.902,-37.109,131.836,0.000
1713985911.602,-15.137,-32.227,-40.039,133.789,0.000
1713985911.606,-9.277,-30.762,-35.645,136.230,0.000
1713985911.610,-0.977,-20.508,-23.438,115.723,0.000
1713985911.613,-8.789,-21.484,-24.414,60.547,0.000
1713985911.617,-11.719,-28.320,-33.691,41.504,0.000
1713985911.621,-14.648,-31.250,-40.527,77.148,0.000
1713985911.625,-3.906,-20.508,-29.297,108.887,0.000
1713985911.629,-5.371,-26.367,-24.414,110.352,0.000
1713985911.633,-19.043,-26.855,-34.668,127.441,0.000
1713985911.637,-18.555,-12.207,-26.367,144.043,0.000
1713985911.641,-16.602,-16.113,-6.348,147.461,0.000
1713985911.645,-14.160,-30.273,-16.113,143.555,0.000
1713985911.649,-21.973,-36.133,-30.762,130.859,0.000
1713985911.652,-21.484,-34.668,-25.879,126.953,0.000
1713985911.656,-16.602,-23.438,-21.973,126.953,0.000
1713985911.660,-23.926,-20.020,-34.180,110.840,0.000
1713985911.664,-18.066,-30.273,-31.738,72.754,0.000
1713985911.668,-9.277,-30.762,-23.926,36.621,0.000
1713985911.672,-21.484,-26.367,-20.020,46.387,0.000
1713985911.676,-23.438,-32.227,-22.461,82.031,0.000
1713985911.679,-30.273,-37.109,-24.414,104.492,0.000
1713985911.683,-34.180,-30.762,-27.832,118.652,0.000
1713985911.687,-25.391,-36.621,-32.227,141.113,0.000
1713985911.691,-23.438,-38.574,-33.691,157.715,0.000
1713985911.695,-25.879,-30.762,-33.203,170.410,0.000
1713985911.698,-37.109,-30.762,-27.832,174.805,0.000
1713985911.702,-31.738,-20.508,-13.184,191.406,0.000
1713985911.706,-23.438,-12.695,-7.812,204.590,0.000
1713985911.710,-29.785,-10.254,-15.137,193.359,0.000
1713985911.714,-30.762,-23.438,-16.602,192.383,0.000
1713985911.718,-27.344,-23.438,-17.090,215.332,0.000
1713985911.722,-20.996,-13.672,-13.672,240.234,0.000
1713985911.726,-20.020,-25.879,-16.113,231.934,0.000
1713985911.730,-28.809,-27.832,-21.973,231.445,0.000
1713985911.734,-24.902,-21.484,-20.996,251.465,0.000
1713985911.737,-19.043,-16.602,-28.320,259.277,0.000
1713985911.741,-14.160,-31.250,-33.203,257.812,0.000
1713985911.746,0.000,-32.227,-26.855,282.715,0.000
1713985911.750,-11.719,-21.973,-16.113,291.992,0.000
1713985911.754,-43.945,-14.160,-15.625,256.836,0.000
1713985911.758,-48.340,-10.254,-24.902,239.746,0.000
1713985911.762,-41.504,-20.996,-34.668,232.910,0.000
1713985911.766,-41.992,-20.996,-36.621,228.027,0.000
1713985911.769,-35.156,-19.043,-41.016,227.051,0.000
1713985911.773,-24.414,-13.672,-45.410,238.770,0.000
1713985911.777,-12.207,-16.602,-44.434,238.770,0.000
1713985911.781,-11.230,-28.809,-30.273,231.934,0.000
1713985911.785,-14.160,-30.762,-3.418,248.535,0.000
1713985911.789,-7.812,-26.367,1.465,237.793,0.000
1713985911.793,-10.742,-30.273,-24.902,228.027,0.000
1713985911.797,-18.066,-31.738,-47.363,229.980,0.000
1713985911.801,-15.137,-24.414,-45.410,234.375,0.000
1713985911.805,-8.301,-20.020,-34.180,236.328,0.000
1713985911.809,-11.719,-24.414,-32.715,223.633,0.000
1713985911.813,-18.066,-21.484,-28.320,220.215,0.000
1713985911.817,-26.855,-35.645,-15.625,222.168,0.000
1713985911.821,-27.832,-45.410,-17.090,226.562,0.000
1713985911.825,-20.508,-30.273,-35.156,229.980,0.000
1713985911.828,-17.090,-35.156,-41.504,226.562,0.000
1713985911.832,-17.578,-36.133,-34.180,230.469,0.000
1713985911.836,-26.855,-21.973,-24.414,231.934,0.000
1713985911.840,-29.297,-15.137,-24.414,224.609,0.000
1713985911.844,-20.020,-21.973,-28.320,221.680,0.000
1713985911.848,-22.949,-28.809,-34.180,212.891,0.000
1713985911.852,-34.668,-41.992,-39.551,210.938,0.000
1713985911.856,-36.621,-48.828,-28.809,212.402,0.000
1713985911.860,-32.227,-41.016,-37.109,201.660,0.000
1713985911.864,-31.738,-37.109,-43.457,199.707,0.000
1713985911.868,-26.855,-44.434,-20.508,203.125,0.000
1713985911.872,-22.461,-37.109,-19.043,192.871,0.000
1713985911.876,-21.973,-16.602,-33.691,196.289,0.000
1713985911.880,-24.414,-14.160,-31.250,203.613,0.000
1713985911.883,-21.484,-24.414,-17.578,212.402,0.000
1713985911.887,-8.789,-22.461,-14.160,225.098,0.000
1713985911.891,-15.137,-28.809,-17.090,212.402,0.000
1713985911.895,-27.832,-37.109,-24.414,208.984,0.000
1713985911.899,-26.855,-40.039,-41.992,219.238,0.000
1713985911.903,-31.738,-36.133,-38.574,218.750,0.000
1713985911.907,-24.414,-24.902,-35.156,212.402,0.000
1713985911.911,-21.484,-20.508,-34.668,187.988,0.000
1713985911.915,-20.996,-25.879,-26.855,142.578,0.000
1713985911.919,-11.230,-18.555,-29.785,99.121,0.000
1713985911.922,-13.672,-16.113,-17.578,67.871,0.000
1713985911.926,-10.254,-31.738,-17.090,61.523,0.000
1713985911.930,-13.672,-25.391,-33.691,50.293,0.000
1713985911.934,-25.879,-6.836,-41.016,35.156,0.000
1713985911.938,-24.414,-17.090,-32.227,25.879,0.000
1713985911.942,-20.508,-28.809,-23.438,9.766,0.000
1713985911.946,-27.832,-27.832,-30.762,-1.953,0.000
1713985911.950,-30.273,-30.273,-22.461,0.977,0.000
1713985911.954,-23.438,-26.367,-9.766,12.207,0.000
1713985911.957,-32.227,-31.250,-13.672,-1.953,0.000
1713985911.961,-28.320,-40.039,-26.367,-14.160,0.000
1713985911.965,-19.043,-31.738,-40.039,-9.766,0.000
1713985911.969,-16.113,-31.250,-37.598,-15.625,0.000
1713985911.973,-20.020,-34.668,-39.062,-17.578,0.000
1713985911.977,-23.438,-26.367,-38.086,-11.230,0.000
1713985911.981,-16.113,-21.484,-28.320,-9.277,0.000
1713985911.984,-12.207,-16.602,-19.043,9.277,0.000
1713985911.988,-15.625,-24.414,-15.137,10.254,0.000
1713985911.992,-15.625,-20.996,-21.973,-11.230,0.000
1713985911.996,-18.555,-26.367,-27.832,-8.789,0.000
1713985912.000,-29.297,-37.109,-22.461,-3.418,0.000
1713985912.004,-21.973,-23.438,-22.461,-8.301,0.000
1713985912.008,-12.695,-16.602,-32.715,-14.160,0.000
1713985912.012,-12.695,-19.531,-30.273,-37.598,0.000
1713985912.016,-25.391,-21.484,-34.668,-51.758,0.000
1713985912.020,-35.645,-26.367,-33.691,-55.176,0.000
1713985912.024,-43.945,-33.691,-26.367,-61.035,0.000
1713985912.027,-53.711,-32.715,-38.574,-68.848,0.000
1713985912.031,-51.270,-28.320,-52.246,-58.594,0.000
1713985912.035,-43.457,-34.180,-42.480,-21.484,0.000
1713985912.039,-30.762,-28.809,-19.531,-3.418,0.000
1713985912.043,-29.297,-22.949,-29.785,-12.207,0.000
1713985912.046,-40.039,-25.391,-40.527,-18.066,0.000
1713985912.050,-38.086,-24.414,-28.320,3.906,0.000
1713985912.054,-31.250,-34.180,-19.043,17.090,0.000
1713985912.058,-35.156,-36.621,-20.996,5.859,0.000
1713985912.062,-40.527,-34.668,-34.180,-6.348,0.000
1713985912.066,-29.785,-31.250,-37.109,4.883,0.000
1713985912.070,-25.391,-20.020,-26.855,5.371,0.000
1713985912.073,-31.250,-25.879,-18.066,-3.906,0.000
1713985912.077,-33.203,-33.691,-17.578,-9.766,0.000
1713985912.081,-40.039,-36.133,-34.668,-20.020,0.000
1713985912.085,-42.969,-20.020,-55.664,-17.578,0.000
1713985912.089,-33.691,-14.160,-44.434,-10.254,0.000
1713985912.093,-37.109,-27.344,-34.180,-2.930,0.000
1713985912.097,-37.598,-40.527,-41.992,3.418,0.000
1713985912.101,-30.762,-39.551,-35.156,-1.465,0.000
1713985912.104,-36.621,-37.598,-28.809,-8.789,0.000
1713985912.108,-41.992,-36.133,-26.367,-17.578,0.000
1713985912.112,-32.715,-27.344,-24.902,-18.066,0.000
1713985912.116,-24.414,-20.508,-26.855,-5.371,0.000
1713985912.121,-17.578,-17.578,-15.625,11.719,0.000
1713985912.125,-13.184,-16.113,-10.742,7.812,0.000
1713985912.129,-16.602,-20.996,-20.020,-10.742,0.000
1713985912.132,-27.344,-33.203,-33.203,-18.066,0.000
1713985912.136,-32.715,-34.180,-39.551,-18.066,0.000
1713985912.140,-25.391,-30.762,-28.320,-9.277,0.000
1713985912.144,-18.066,-26.855,-16.602,-8.301,0.000
1713985912.148,-19.531,-20.996,-25.879,-13.184,0.000
1713985912.152,-27.344,-19.043,-34.668,6.348,0.000
1713985912.156,-33.203,-25.879,-27.344,25.391,0.000
1713985912.160,-36.621,-35.156,-16.602,13.672,0.000
1713985912.164,-45.898,-34.180,-13.184,3.418,0.000
1713985912.168,-41.016,-27.832,-18.555,1.465,0.000
1713985912.172,-29.785,-18.555,-9.766,7.324,0.000
1713985912.176,-31.738,-11.230,-11.230,2.930,0.000
1713985912.180,-35.645,-26.367,-31.738,-12.695,0.000
1713985912.184,-40.039,-43.945,-32.227,-6.348,0.000
1713985912.188,-35.156,-40.527,-21.973,0.977,0.000
1713985912.192,-32.715,-26.367,-23.438,-16.113,0.000
1713985912.195,-29.785,-23.926,-25.879,-18.066,0.000
1713985912.199,-28.809,-31.250,-28.809,-9.277,0.000
1713985912.203,-28.809,-25.879,-26.367,-7.812,0.000
1713985912.207,-33.203,-20.020,-2.441,-16.113,0.000
1713985912.211,-38.574,-32.715,-7.324,-29.297,0.000
1713985912.215,-31.738,-34.668,-28.320,-9.277,0.000
1713985912.219,-29.297,-20.508,-22.461,32.227,0.000
1713985912.223,-30.762,-18.555,-20.020,40.039,0.000
1713985912.227,-34.180,-33.203,-29.297,16.602,0.000
1713985912.231,-26.855,-25.879,-25.391,7.812,0.000
1713985912.235,-26.855,-12.695,-15.625,9.766,0.000
1713985912.239,-36.621,-25.879,-16.113,-4.883,0.000
1713985912.243,-37.109,-36.133,-18.555,7.812,0.000
1713985912.247,-36.621,-35.156,-27.344,22.461,0.000
1713985912.250,-35.645,-26.855,-19.043,30.762,0.000
1713985912.254,-36.621,-24.414,-12.695,53.223,0.000
1713985912.258,-32.715,-30.762,-25.879,67.383,0.000
1713985912.262,-30.273,-28.809,-30.273,60.059,0.000
1713985912.266,-35.156,-27.832,-31.738,42.480,0.000
1713985912.270,-30.762,-20.020,-29.785,38.574,0.000
1713985912.274,-12.207,-13.184,-15.137,36.133,0.000
1713985912.278,-15.137,-17.090,-17.090,14.160,0.000
1713985912.282,-31.250,-28.320,-30.273,-12.695,0.000
1713985912.286,-30.273,-29.785,-23.438,-5.371,0.000
1713985912.290,-19.043,-24.414,-12.207,9.766,0.000
1713985912.293,-21.973,-27.832,-26.367,-18.066,0.000
1713985912.297,-30.762,-35.645,-41.992,-41.504,0.000
1713985912.301,-33.691,-35.645,-35.156,-41.992,0.000
1713985912.305,-20.508,-28.320,-29.297,-35.645,0.000
1713985912.309,-15.625,-17.090,-32.227,-34.668,0.000
1713985912.313,-29.785,-3.418,-36.133,-46.875,0.000
1713985912.317,-32.227,-16.113,-39.062,-49.316,0.000
1713985912.321,-29.785,-26.855,-31.250,-35.645,0.000
1713985912.325,-25.391,-17.090,-20.020,-29.785,0.000
1713985912.328,-18.066,-14.160,-13.184,-29.785,0.000
1713985912.332,-19.531,-16.113,-18.066,-31.250,0.000
1713985912.336,-28.320,-25.391,-32.227,-30.762,0.000
1713985912.340,-23.438,-24.902,-40.527,-41.992,0.000
1713985912.344,-18.555,-19.531,-43.457,-61.523,0.000
1713985912.348,-30.762,-25.879,-36.621,-70.801,0.000
1713985912.352,-29.785,-27.344,-27.832,-49.805,0.000
1713985912.355,-21.484,-27.344,-31.738,-33.691,0.000
1713985912.359,-25.391,-30.273,-28.809,-33.691,0.000
1713985912.363,-35.645,-25.879,-17.578,-38.574,0.000
1713985912.367,-35.156,-21.973,-13.672,-30.273,0.000
1713985912.371,-36.621,-24.902,-34.668,-20.508,0.000
1713985912.375,-43.945,-23.926,-59.082,-34.668,0.000
1713985912.379,-41.504,-27.344,-62.988,-37.109,0.000
1713985912.383,-30.273,-33.203,-46.875,0.488,0.000
1713985912.387,-13.672,-28.809,-38.574,32.715,0.000
1713985912.391,-8.301,-30.273,-38.574,52.246,0.000
1713985912.395,-27.832,-32.715,-28.320,31.738,0.000
1713985912.398,-38.574,-30.762,-24.414,28.320,0.000
1713985912.402,-36.133,-33.691,-23.438,47.852,0.000
1713985912.406,-35.156,-29.785,-20.508,49.805,0.000
1713985912.410,-34.180,-24.902,-23.926,43.945,0.000
1713985912.414,-43.945,-23.926,-32.227,32.715,0.000
1713985912.418,-41.504,-21.973,-38.086,33.203,0.000
1713985912.421,-30.762,-22.949,-45.410,30.273,0.000
1713985912.425,-26.855,-24.414,-48.828,25.879,0.000
1713985912.429,-28.320,-25.391,-35.645,40.527,0.000
1713985912.433,-36.621,-32.227,-30.273,43.457,0.000
1713985912.437,-32.227,-35.645,-29.785,39.551,0.000
1713985912.441,-26.367,-28.809,-19.043,44.434,0.000
1713985912.445,-30.762,-28.320,-16.113,46.875,0.000
1713985912.448,-37.109,-32.227,-24.414,44.434,0.000
1713985912.452,-34.668,-33.691,-38.086,44.922,0.000
1713985912.456,-28.809,-37.598,-36.133,49.805,0.000
1713985912.460,-28.809,-36.133,-25.391,54.688,0.000
1713985912.464,-32.227,-29.297,-29.785,66.895,0.000
1713985912.468,-29.785,-38.574,-29.297,79.102,0.000
1713985912.472,-16.113,-30.273,-25.391,94.727,0.000
1713985912.476,-13.184,-24.414,-22.949,93.750,0.000
1713985912.479,-17.578,-33.691,-18.066,81.055,0.000
1713985912.483,-15.137,-26.855,-25.391,82.520,0.000
1713985912.487,-16.113,-15.137,-23.438,80.566,0.000
1713985912.491,-24.414,-27.344,-21.484,66.895,0.000
1713985912.496,-22.461,-38.574,-35.156,71.289,0.000
1713985912.500,-24.902,-44.434,-38.574,76.660,0.000
1713985912.504,-24.414,-39.551,-37.598,80.078,0.000
1713985912.508,-15.137,-22.949,-22.949,80.078,0.000
1713985912.512,-12.207,-20.508,-10.254,76.172,0.000
1713985912.515,-26.367,-34.668,-20.020,79.590,0.000
1713985912.519,-32.715,-41.992,-17.090,80.566,0.000
1713985912.523,-22.949,-20.996,-14.160,73.242,0.000
1713985912.527,-21.973,-15.137,-28.809,58.594,0.000
1713985912.531,-29.785,-34.668,-30.273,61.035,0.000
1713985912.535,-30.273,-39.062,-27.832,78.613,0.000
1713985912.539,-27.344,-31.250,-35.645,80.078,0.000
1713985912.543,-25.879,-27.344,-23.926,75.195,0.000
1713985912.547,-29.785,-32.227,-22.461,67.383,0.000
1713985912.551,-33.691,-30.762,-22.949,70.312,0.000
1713985912.555,-24.414,-3.418,-4.883,83.496,0.000
1713985912.559,-25.879,-17.578,-3.418,65.918,0.000
1713985912.563,-32.715,-40.039,-22.949,51.270,0.000
1713985912.567,-28.320,-27.832,-42.480,69.336,0.000
1713985912.571,-20.996,-17.090,-40.039,71.289,0.000
1713985912.575,-12.207,-14.648,-30.762,55.176,0.000
1713985912.578,-12.695,-27.832,-32.227,45.410,0.000
1713985912.582,-15.625,-28.320,-22.949,47.852,0.000
1713985912.586,-13.184,-24.902,-20.020,67.871,0.000
1713985912.590,-20.020,-32.715,-22.461,84.473,0.000
1713985912.594,-23.926,-19.531,-22.949,71.777,0.000
1713985912.598,-27.344,-12.207,-23.926,58.105,0.000
1713985912.602,-38.574,-22.949,-27.344,69.336,0.000
1713985912.606,-30.762,-28.809,-28.809,81.543,0.000
1713985912.610,-26.367,-26.855,-27.344,77.148,0.000
1713985912.614,-40.039,-23.438,-30.273,52.734,0.000
1713985912.618,-38.574,-20.508,-26.367,50.293,0.000
1713985912.622,-29.297,-27.344,-27.344,64.941,0.000
1713985912.626,-33.203,-23.438,-31.738,56.641,0.000
1713985912.629,-28.809,-15.625,-26.367,56.152,0.000
1713985912.633,-27.832,-21.484,-30.762,59.082,0.000
1713985912.637,-31.738,-15.625,-28.320,58.105,0.000
1713985912.641,-32.227,-10.254,-5.859,63.965,0.000
1713985912.645,-34.668,-9.277,-4.395,61.035,0.000
1713985912.649,-32.715,-1.953,-26.855,52.246,0.000
1713985912.653,-40.527,-0.488,-39.551,37.109,0.000
1713985912.657,-53.711,-14.648,-48.828,29.785,0.000
1713985912.661,-46.387,-7.324,-51.758,26.367,0.000
1713985912.665,-54.688,-1.465,-38.574,17.090,0.000
1713985912.669,-83.984,-4.395,-28.320,4.395,0.000
1713985912.672,-109.375,16.602,-12.207,-20.020,0.000
1713985912.676,-145.020,5.859,-10.742,-61.523,0.000
1713985912.680,-173.828,-4.395,-4.883,-94.238,0.000
1713985912.684,-194.824,8.301,17.578,-106.934,0.000
1713985912.688,-217.773,14.648,31.738,-119.629,0.000
1713985912.692,-234.375,19.043,45.898,-147.461,0.000
1713985912.696,-246.582,23.438,66.895,-148.926,0.000
1713985912.700,-254.395,17.090,73.730,-112.793,0.000
1713985912.704,-254.883,5.859,80.566,-96.680,0.000
1713985912.707,-246.582,9.277,94.238,-83.496,0.000
1713985912.711,-237.305,-0.488,95.703,-68.359,0.000
1713985912.715,-213.379,-22.949,97.168,-47.363,0.000
1713985912.719,-198.242,-28.809,90.332,-42.480,0.000
1713985912.723,-181.641,-23.926,73.730,-18.555,0.000
1713985912.727,-147.461,-45.410,78.125,10.254,0.000
1713985912.731,-128.418,-57.617,88.379,20.508,0.000
1713985912.735,-105.469,-61.523,63.477,63.965,0.000
1713985912.738,-83.008,-72.754,24.902,98.145,0.000
1713985912.742,-74.219,-62.012,13.184,108.887,0.000
1713985912.746,-60.547,-52.734,3.906,136.230,0.000
1713985912.750,-48.828,-63.965,-10.254,171.387,0.000
1713985912.754,-39.062,-62.988,-14.648,188.965,0.000
1713985912.758,-13.672,-49.805,-21.973,201.172,0.000
1713985912.762,7.324,-48.340,-29.297,218.262,0.000
1713985912.766,17.578,-68.848,-27.832,244.141,0.000
1713985912.770,23.926,-67.871,-35.156,269.043,0.000
1713985912.774,22.949,-57.617,-41.504,278.320,0.000
1713985912.777,23.926,-62.988,-41.992,288.086,0.000
1713985912.781,23.926,-59.082,-47.363,292.969,0.000
1713985912.785,22.461,-49.316,-44.922,291.504,0.000
1713985912.789,35.645,-34.180,-34.180,320.801,0.000
1713985912.793,39.551,-30.273,-41.016,343.262,0.000
1713985912.797,37.598,-50.781,-42.969,332.031,0.000
1713985912.800,28.809,-55.176,-44.922,323.242,0.000
1713985912.804,20.508,-49.805,-51.270,329.590,0.000
1713985912.808,32.715,-43.457,-43.945,330.566,0.000
1713985912.812,28.320,-36.621,-37.598,327.637,0.000
1713985912.816,26.855,-35.645,-39.062,327.148,0.000
1713985912.820,31.250,-31.250,-35.645,342.773,0.000
1713985912.823,28.809,-20.020,-41.992,347.168,0.000
1713985912.827,29.785,-22.461,-51.270,338.867,0.000
1713985912.831,25.879,-38.086,-46.387,335.938,0.000
1713985912.835,26.367,-35.156,-46.387,331.055,0.000
1713985912.839,22.461,-34.668,-49.316,322.754,0.000
1713985912.843,17.578,-44.434,-47.852,334.473,0.000
1713985912.847,16.602,-44.922,-47.852,351.074,0.000
1713985912.851,6.348,-43.457,-51.270,343.262,0.000
1713985912.855,6.836,-34.668,-48.340,348.633,0.000
1713985912.858,13.184,-32.715,-34.180,357.910,0.000
1713985912.862,11.719,-23.926,-32.715,350.586,0.000
1713985912.866,14.648,-25.391,-45.410,357.422,0.000
1713985912.871,9.277,-44.434,-55.176,360.840,0.000
1713985912.875,2.930,-48.828,-55.176,364.258,0.000
1713985912.879,-3.906,-49.805,-42.969,360.840,0.000
1713985912.883,-12.207,-57.617,-50.293,358.887,0.000
1713985912.887,-17.578,-50.293,-57.129,364.258,0.000
1713985912.890,-7.812,-32.227,-44.434,375.000,0.000
1713985912.894,4.395,-20.508,-31.738,375.488,0.000
1713985912.898,-8.789,-28.809,-33.203,361.816,0.000
1713985912.902,-20.020,-40.527,-50.293,353.027,0.000
1713985912.906,-15.625,-52.246,-52.734,350.586,0.000
1713985912.910,-9.277,-48.340,-35.645,331.055,0.000
1713985912.914,-20.020,-45.410,-32.227,314.453,0.000
1713985912.918,-28.809,-47.852,-46.387,316.406,0.000
1713985912.922,-2.930,-37.109,-44.922,323.730,0.000
1713985912.926,9.766,-29.297,-27.832,318.848,0.000
1713985912.930,-1.465,-18.066,-23.438,307.617,0.000
1713985912.934,-10.254,-19.043,-38.574,310.059,0.000
1713985912.938,-5.371,-28.809,-44.922,314.453,0.000
1713985912.942,-2.441,-32.227,-33.203,312.500,0.000
1713985912.946,-2.930,-38.574,-30.273,297.363,0.000
1713985912.949,-2.441,-37.598,-36.133,298.340,0.000
1713985912.953,5.371,-34.668,-36.133,318.848,0.000
1713985912.957,4.395,-22.949,-32.715,301.758,0.000
1713985912.961,-10.742,-24.414,-39.062,271.973,0.000
1713985912.965,-7.812,-22.461,-44.434,259.766,0.000
1713985912.969,-5.859,-24.902,-33.691,270.508,0.000
1713985912.973,-4.883,-25.391,-30.762,275.391,0.000
1713985912.977,-11.230,-23.438,-28.809,261.719,0.000
1713985912.981,-10.742,-22.461,-17.090,248.535,0.000
1713985912.985,-2.930,-31.738,-19.531,262.695,0.000
1713985912.989,-12.695,-32.227,-32.715,272.461,0.000
1713985912.993,-8.789,-15.137,-37.598,254.395,0.000
1713985912.997,-7.812,-28.320,-38.574,249.512,0.000
1713985913.000,-16.113,-38.086,-36.621,249.023,0.000
1713985913.004,4.395,-32.227,-28.809,268.066,0.000
1713985913.008,24.414,-22.949,-18.555,291.992,0.000
1713985913.012,3.906,-7.324,-1.465,245.117,0.000
1713985913.016,-22.461,-18.066,-16.113,206.055,0.000
1713985913.020,-16.113,-29.785,-34.668,218.750,0.000
1713985913.024,0.977,-26.855,-31.250,222.168,0.000
1713985913.028,5.859,-27.344,-34.668,219.727,0.000
1713985913.032,-5.371,-29.297,-43.457,202.637,0.000
1713985913.036,-8.301,-33.691,-34.668,203.613,0.000
1713985913.040,9.766,-22.461,-6.836,230.957,0.000
1713985913.043,6.836,-19.043,-14.160,218.262,0.000
1713985913.047,-7.324,-25.391,-21.973,192.383,0.000
1713985913.051,-0.488,-27.832,-16.602,197.266,0.000
1713985913.055,-6.348,-23.438,-24.414,194.336,0.000
1713985913.059,-14.648,-25.391,-21.973,177.246,0.000
1713985913.063,-31.738,-37.598,-22.461,146.973,0.000
1713985913.067,-62.012,-36.133,-11.230,120.117,0.000
1713985913.071,-89.355,-15.625,13.184,100.098,0.000
1713985913.075,-109.863,-10.742,24.902,79.102,0.000
1713985913.079,-145.508,-14.648,18.066,27.832,0.000
1713985913.082,-179.199,-5.371,18.555,-18.555,0.000
1713985913.086,-199.219,1.953,31.250,-31.250,0.000
1713985913.090,-221.191,10.254,45.410,-29.297,0.000
1713985913.094,-222.168,16.113,59.082,-55.664,0.000
1713985913.098,-236.328,18.555,71.289,-71.777,0.000
1713985913.102,-250.977,4.395,82.520,-69.336,0.000
1713985913.106,-222.656,-1.953,83.496,-61.523,0.000
1713985913.109,-190.430,27.344,67.871,-39.062,0.000
1713985913.113,-178.223,41.504,66.406,-9.277,0.000
1713985913.117,-169.434,7.812,67.871,27.832,0.000
1713985913.121,-131.836,-10.742,47.363,61.523,0.000
1713985913.125,-95.703,-15.625,21.973,87.891,0.000
1713985913.129,-79.102,-22.461,9.766,104.980,0.000
1713985913.133,-67.871,-24.902,9.766,130.859,0.000
1713985913.137,-51.270,-25.391,0.000,159.668,0.000
1713985913.141,-24.902,-30.762,-0.977,180.664,0.000
1713985913.145,-12.695,-27.344,3.418,198.242,0.000
1713985913.149,-0.977,-39.551,-11.719,214.844,0.000
1713985913.152,14.648,-56.641,-28.320,220.215,0.000
1713985913.156,23.438,-47.852,-37.109,227.539,0.000
1713985913.160,33.691,-43.457,-41.016,246.094,0.000
1713985913.164,45.410,-51.758,-41.504,250.977,0.000
1713985913.168,44.922,-44.434,-41.016,241.211,0.000
1713985913.171,36.133,-38.086,-48.340,250.000,0.000
1713985913.175,45.410,-39.551,-51.758,249.023,0.000
1713985913.179,52.246,-37.109,-54.688,229.004,0.000
1713985913.183,42.969,-37.109,-57.617,222.168,0.000
1713985913.187,41.992,-44.922,-62.012,229.004,0.000
1713985913.191,48.340,-45.410,-67.383,232.910,0.000
1713985913.195,45.898,-46.387,-67.871,210.449,0.000
1713985913.198,34.668,-43.945,-70.312,191.406,0.000
1713985913.202,28.809,-44.434,-68.848,187.012,0.000
1713985913.206,26.855,-45.410,-68.359,188.965,0.000
1713985913.210,30.762,-48.340,-63.477,208.496,0.000
1713985913.214,39.062,-49.805,-51.758,212.891,0.000
1713985913.218,28.809,-45.410,-62.988,192.383,0.000
1713985913.222,22.461,-43.457,-65.430,211.426,0.000
1713985913.226,25.879,-29.785,-66.895,229.980,0.000
1713985913.229,32.715,-18.555,-69.336,220.215,0.000
1713985913.233,22.949,-27.832,-61.035,219.238,0.000
1713985913.237,17.090,-30.762,-53.223,219.238,0.000
1713985913.241,16.602,-32.715,-49.316,201.660,0.000
1713985913.246,22.949,-29.785,-36.621,195.312,0.000
1713985913.250,21.973,-25.879,-38.574,193.359,0.000
1713985913.254,12.207,-32.715,-55.176,180.664,0.000
1713985913.258,6.348,-41.504,-58.594,185.547,0.000
1713985913.261,13.672,-40.527,-55.664,187.012,0.000
1713985913.265,11.719,-35.156,-49.316,186.035,0.000
1713985913.269,8.789,-25.391,-45.410,196.777,0.000
1713985913.273,16.113,-27.832,-54.688,191.895,0.000
1713985913.277,18.066,-35.645,-58.105,183.105,0.000
1713985913.281,13.184,-28.809,-46.387,194.824,0.000
1713985913.285,13.184,-20.996,-40.039,205.566,0.000
1713985913.289,18.555,-30.273,-38.086,187.012,0.000
1713985913.293,13.672,-34.180,-41.504,173.340,0.000
1713985913.297,18.555,-31.250,-51.758,176.270,0.000
1713985913.301,18.066,-32.227,-48.828,188.477,0.000
1713985913.305,26.367,-27.832,-41.504,192.871,0.000
1713985913.309,24.414,-21.484,-43.945,180.664,0.000
1713985913.313,-0.488,-22.949,-46.387,170.898,0.000
1713985913.317,4.395,-20.508,-32.227,176.270,0.000
1713985913.321,-1.953,-25.391,-28.809,182.617,0.000
1713985913.324,-14.160,-28.320,-46.875,163.574,0.000
1713985913.328,-7.812,-28.320,-47.363,166.992,0.000
1713985913.332,-11.230,-35.645,-37.109,170.898,0.000
1713985913.336,-16.602,-42.480,-39.062,152.344,0.000
1713985913.340,-23.438,-44.922,-36.621,145.996,0.000
1713985913.344,-24.902,-49.316,-38.574,139.648,0.000
1713985913.348,-16.602,-37.598,-32.227,135.742,0.000
1713985913.352,-20.508,-21.973,-20.020,145.996,0.000
1713985913.356,-24.414,-21.973,-33.203,153.809,0.000
1713985913.360,-22.949,-24.902,-38.086,153.320,0.000
1713985913.364,-20.508,-23.926,-33.691,143.066,0.000
1713985913.368,-18.555,-39.062,-35.645,132.324,0.000
1713985913.372,-33.691,-55.664,-46.387,132.812,0.000
1713985913.375,-25.391,-49.805,-47.852,135.254,0.000
1713985913.379,-15.137,-37.598,-39.062,131.348,0.000
1713985913.383,-26.367,-34.668,-40.039,121.582,0.000
1713985913.387,-27.344,-33.691,-39.551,114.746,0.000
1713985913.391,-27.832,-25.391,-23.926,106.934,0.000
1713985913.395,-29.785,-22.461,-8.789,83.496,0.000
1713985913.399,-35.645,-31.250,-18.555,65.918,0.000
1713985913.403,-33.203,-33.691,-31.738,73.730,0.000
1713985913.407,-30.273,-38.574,-30.762,81.055,0.000
1713985913.411,-30.762,-43.457,-32.715,69.336,0.000
1713985913.415,-20.020,-30.762,-36.621,73.730,0.000
1713985913.418,-23.926,-27.832,-42.969,79.590,0.000
1713985913.422,-30.762,-30.273,-34.180,67.871,0.000
1713985913.426,-19.531,-31.738,-9.766,63.965,0.000
1713985913.430,-11.230,-27.344,-12.207,52.734,0.000
1713985913.434,-19.043,-25.391,-42.969,59.570,0.000
1713985913.438,-21.973,-31.738,-46.875,67.383,0.000
1713985913.442,-18.555,-43.945,-32.227,50.781,0.000
1713985913.446,-18.066,-42.480,-34.668,41.504,0.000
1713985913.450,-18.555,-29.297,-38.574,50.293,0.000
1713985913.453,-18.066,-25.879,-28.809,61.035,0.000
1713985913.457,-8.301,-11.719,-17.090,71.777,0.000
1713985913.461,-9.277,-23.926,-14.648,75.684,0.000
1713985913.465,-15.137,-42.480,-15.137,82.520,0.000
1713985913.469,-18.066,-40.527,-27.344,96.680,0.000
1713985913.473,-20.020,-40.527,-42.480,94.727,0.000
1713985913.477,-18.066,-39.551,-43.945,69.824,0.000
1713985913.481,-18.555,-32.715,-35.156,71.777,0.000
1713985913.484,-19.043,-26.367,-31.738,86.426,0.000
1713985913.488,-17.578,-35.156,-31.250,79.590,0.000
1713985913.492,-20.996,-29.297,-31.250,68.848,0.000
1713985913.496,-18.066,-28.320,-20.020,81.543,0.000
1713985913.500,-14.648,-29.785,-8.789,102.539,0.000
1713985913.504,-17.090,-25.879,-17.090,127.441,0.000
1713985913.508,-29.785,-42.969,-34.180,125.488,0.000
1713985913.512,-24.414,-43.945,-34.180,104.492,0.000
1713985913.516,-20.996,-34.668,-34.668,101.562,0.000
1713985913.520,-30.273,-25.391,-34.668,105.957,0.000
1713985913.523,-20.020,-26.367,-27.344,105.957,0.000
1713985913.527,-19.043,-24.902,-20.508,107.910,0.000
1713985913.531,-22.949,-28.320,-18.555,92.773,0.000
1713985913.535,-27.832,-36.133,-20.020,81.055,0.000
1713985913.539,-20.508,-27.344,-11.230,83.984,0.000
1713985913.543,-18.555,-20.508,-11.230,83.496,0.000
1713985913.546,-27.344,-33.203,-26.855,76.660,0.000
1713985913.550,-19.531,-41.016,-27.832,91.797,0.000
1713985913.554,-24.902,-28.809,-21.973,93.262,0.000
1713985913.558,-31.738,-28.320,-22.461,79.102,0.000
1713985913.562,-26.855,-26.367,-23.926,71.777,0.000
1713985913.566,-31.250,-23.926,-22.949,78.613,0.000
1713985913.570,-24.414,-32.715,-11.719,101.074,0.000
1713985913.573,-14.648,-31.250,-8.301,103.027,0.000
1713985913.577,-21.973,-19.043,-15.137,85.938,0.000
1713985913.581,-30.273,-12.695,-30.273,83.984,0.000
1713985913.585,-32.715,-24.414,-40.039,86.426,0.000
1713985913.589,-22.461,-28.809,-28.809,88.867,0.000
1713985913.593,-21.484,-22.949,-26.855,83.496,0.000
1713985913.597,-19.043,-18.066,-29.297,87.402,0.000
1713985913.601,-17.578,-16.113,-18.555,102.051,0.000
1713985913.604,-34.180,-31.250,-16.602,101.074,0.000
1713985913.608,-36.133,-37.109,-16.602,98.633,0.000
1713985913.612,-25.391,-26.367,-16.602,94.238,0.000
1713985913.616,-26.367,-17.090,-15.137,101.074,0.000
1713985913.621,-30.762,-19.043,-22.461,108.398,0.000
1713985913.625,-22.949,-36.621,-28.809,111.328,0.000
1713985913.629,-19.043,-40.039,-25.879,103.516,0.000
1713985913.633,-27.344,-28.320,-27.344,101.074,0.000
1713985913.636,-23.438,-15.625,-14.648,119.141,0.000
1713985913.640,-19.043,-12.207,-0.488,126.953,0.000
1713985913.644,-24.414,-15.625,-7.324,111.328,0.000
1713985913.648,-30.273,-11.719,-12.207,90.332,0.000
1713985913.652,-36.133,-20.508,-27.832,87.891,0.000
1713985913.656,-40.527,-36.133,-42.480,94.238,0.000
1713985913.660,-29.297,-29.785,-30.273,105.957,0.000
1713985913.664,-26.367,-20.996,-23.926,91.797,0.000
1713985913.668,-25.391,-21.973,-16.602,89.355,0.000
1713985913.672,-21.484,-27.344,-7.324,91.797,0.000
1713985913.676,-27.832,-16.113,-12.695,80.078,0.000
1713985913.680,-32.227,-10.254,-25.391,70.801,0.000
1713985913.684,-34.668,-31.250,-42.969,63.965,0.000
1713985913.688,-32.227,-43.945,-40.527,67.871,0.000
1713985913.692,-22.949,-29.785,-25.879,72.754,0.000
1713985913.696,-31.250,-20.508,-30.762,65.918,0.000
1713985913.699,-34.668,-27.344,-32.227,83.008,0.000
1713985913.703,-22.949,-33.203,-15.137,107.422,0.000
1713985913.707,-21.484,-37.109,-11.719,95.703,0.000
1713985913.711,-24.414,-34.668,-16.602,80.078,0.000
1713985913.715,-37.598,-37.109,-23.926,70.801,0.000
1713985913.719,-34.180,-23.438,-32.715,74.219,0.000
1713985913.723,-23.438,-17.090,-36.133,81.543,0.000
1713985913.727,-35.156,-34.180,-33.203,66.895,0.000
1713985913.731,-34.668,-35.645,-27.832,54.688,0.000
1713985913.735,-30.273,-25.391,-21.973,56.152,0.000
1713985913.739,-30.273,-22.949,-17.090,53.711,0.000
1713985913.743,-26.855,-29.785,-20.996,45.898,0.000
1713985913.747,-24.414,-35.156,-26.367,43.945,0.000
1713985913.751,-31.738,-27.832,-20.508,49.805,0.000
1713985913.754,-30.762,-22.461,-15.625,59.082,0.000
1713985913.758,-25.391,-16.113,-23.926,63.965,0.000
1713985913.762,-34.180,-3.906,-33.203,54.688,0.000
1713985913.766,-31.250,-16.602,-32.715,52.246,0.000
1713985913.770,-32.227,-35.645,-31.738,53.711,0.000
1713985913.774,-39.062,-34.180,-27.344,66.406,0.000
1713985913.778,-34.668,-25.879,-20.996,59.570,0.000
1713985913.782,-37.598,-32.227,-27.344,56.152,0.000
1713985913.786,-32.715,-33.691,-31.738,71.289,0.000
1713985913.790,-18.555,-15.625,-29.297,70.801,0.000
1713985913.794,-20.508,-15.625,-21.973,69.336,0.000
1713985913.797,-36.621,-22.949,-13.184,65.430,0.000
1713985913.801,-34.668,-22.461,-22.461,60.547,0.000
1713985913.805,-12.207,-26.855,-27.344,62.500,0.000
1713985913.809,-1.465,-33.691,-17.090,72.754,0.000
1713985913.813,2.930,-28.320,-11.719,69.824,0.000
1713985913.817,0.977,-18.555,-23.438,65.430,0.000
1713985913.821,-16.113,-26.855,-31.250,72.266,0.000
1713985913.825,-31.250,-24.414,-18.555,79.102,0.000
1713985913.829,-45.410,-17.578,-17.090,76.172,0.000
1713985913.832,-52.246,-28.809,-19.043,81.543,0.000
1713985913.836,-45.410,-39.551,-30.273,100.586,0.000
1713985913.840,-39.551,-35.645,-32.715,107.422,0.000
1713985913.844,-31.738,-31.738,-23.438,98.145,0.000
1713985913.848,-29.785,-29.297,-27.832,76.172,0.000
1713985913.852,-25.391,-16.602,-26.367,74.707,0.000
1713985913.856,-18.066,-13.672,-20.996,86.914,0.000
1713985913.859,-17.578,-12.695,-22.949,79.102,0.000
1713985913.863,-26.367,-13.184,-31.250,67.871,0.000
1713985913.867,-39.062,-28.809,-32.715,60.547,0.000
1713985913.871,-43.945,-37.598,-35.156,65.430,0.000
1713985913.875,-44.922,-34.180,-29.785,66.406,0.000
1713985913.879,-40.527,-26.855,-23.438,64.941,0.000
1713985913.883,-35.645,-21.973,-29.297,65.430,0.000
1713985913.887,-32.715,-11.719,-25.391,56.641,0.000
1713985913.891,-12.207,-8.789,-17.578,76.660,0.000
1713985913.895,-18.555,-16.113,-10.254,66.406,0.000
1713985913.899,-36.133,-21.484,-21.484,46.875,0.000
1713985913.902,-34.668,-30.273,-12.695,61.035,0.000
1713985913.906,-32.227,-33.203,-11.719,61.523,0.000
1713985913.910,-51.270,-41.992,-27.832,35.156,0.000
1713985913.914,-77.637,-42.480,-15.137,0.000,0.000
1713985913.918,-104.004,-21.973,3.906,-24.902,0.000
1713985913.922,-129.395,0.000,23.438,-41.504,0.000
1713985913.925,-138.672,-2.930,37.598,-58.105,0.000
1713985913.929,-162.109,3.906,49.805,-83.984,0.000
1713985913.933,-196.289,4.883,48.340,-117.188,0.000
1713985913.937,-214.844,-2.930,52.734,-125.488,0.000
1713985913.941,-226.562,7.324,65.918,-144.043,0.000
1713985913.945,-229.004,20.508,68.848,-168.457,0.000
1713985913.948,-233.887,24.902,76.660,-158.691,0.000
1713985913.952,-235.840,26.855,81.543,-155.273,0.000
1713985913.956,-204.590,36.621,91.797,-145.020,0.000
1713985913.960,-187.500,19.531,85.449,-125.000,0.000
1713985913.964,-189.453,1.465,58.105,-120.117,0.000
1713985913.968,-168.945,14.160,43.945,-103.516,0.000
1713985913.972,-143.066,4.395,36.621,-62.500,0.000
1713985913.976,-118.652,-5.859,28.809,-46.875,0.000
1713985913.980,-107.910,-13.672,18.555,-41.992,0.000
1713985913.983,-86.426,-19.531,8.789,-23.926,0.000
1713985913.987,-72.754,-16.113,-1.953,-10.254,0.000
1713985913.991,-62.500,-28.320,-13.184,10.742,0.000
1713985913.996,-42.480,-38.574,-18.066,37.109,0.000
1713985914.000,-35.156,-45.410,-20.020,58.594,0.000
1713985914.004,-14.648,-52.734,-22.949,77.637,0.000
1713985914.008,5.371,-48.340,-27.832,104.980,0.000
1713985914.011,10.742,-43.945,-43.457,93.262,0.000
1713985914.015,10.742,-41.016,-53.711,87.891,0.000
1713985914.019,16.602,-27.832,-44.434,113.281,0.000
1713985914.023,35.156,-30.762,-49.316,101.562,0.000
1713985914.027,44.434,-33.203,-64.453,87.891,0.000
1713985914.031,34.668,-25.879,-63.477,77.148,0.000
1713985914.035,37.109,-43.457,-49.805,81.543,0.000
1713985914.039,48.828,-54.199,-51.758,90.820,0.000
1713985914.043,54.199,-41.992,-66.406,101.074,0.000
1713985914.047,45.410,-37.598,-74.219,90.332,0.000
1713985914.051,33.203,-41.992,-78.125,83.984,0.000
1713985914.055,36.621,-48.828,-77.637,96.191,0.000
1713985914.059,38.574,-40.039,-70.801,93.262,0.000
1713985914.063,33.691,-26.367,-67.871,89.355,0.000
1713985914.067,19.043,-29.785,-68.848,93.750,0.000
1713985914.071,24.414,-39.062,-65.430,108.887,0.000
1713985914.074,32.227,-39.551,-64.453,117.676,0.000
1713985914.078,17.578,-44.922,-74.219,105.469,0.000
1713985914.082,14.648,-38.086,-71.777,97.656,0.000
1713985914.086,17.090,-25.879,-67.383,107.910,0.000
1713985914.090,13.184,-27.344,-68.359,113.281,0.000
1713985914.094,19.531,-32.715,-57.129,135.254,0.000
1713985914.098,22.949,-32.715,-52.246,149.902,0.000
1713985914.102,17.090,-26.855,-51.270,143.555,0.000
1713985914.106,9.766,-31.250,-51.758,155.273,0.000
1713985914.110,9.766,-32.715,-54.688,163.086,0.000
1713985914.114,4.883,-37.109,-69.824,145.020,0.000
1713985914.118,8.789,-41.504,-67.871,139.160,0.000
1713985914.122,10.742,-35.645,-61.523,144.531,0.000
1713985914.125,8.789,-29.297,-67.871,137.695,0.000
1713985914.129,7.812,-36.133,-70.801,123.535,0.000
1713985914.133,6.836,-40.527,-54.688,125.977,0.000
1713985914.137,20.020,-34.180,-34.180,130.859,0.000
1713985914.141,10.742,-40.039,-31.738,132.812,0.000
1713985914.145,3.906,-37.109,-46.387,141.602,0.000
1713985914.149,10.742,-24.414,-59.082,125.977,0.000
1713985914.153,-0.488,-22.949,-53.223,113.770,0.000
1713985914.157,-5.371,-22.461,-43.457,114.258,0.000
1713985914.161,6.348,-21.484,-48.340,105.469,0.000
1713985914.165,7.812,-26.367,-48.340,100.098,0.000
1713985914.168,-1.953,-32.715,-35.645,108.887,0.000
1713985914.172,0.000,-37.598,-22.949,102.051,0.000
1713985914.176,5.859,-37.598,-27.832,71.777,0.000
1713985914.180,0.488,-35.645,-35.156,53.223,0.000
1713985914.184,-0.977,-35.645,-49.316,49.316,0.000
1713985914.188,-10.742,-37.109,-53.711,49.316,0.000
1713985914.192,0.000,-27.344,-48.340,32.715,0.000
1713985914.196,6.348,-13.672,-49.316,28.320,0.000
1713985914.200,0.977,-13.672,-42.969,39.062,0.000
1713985914.204,2.930,-20.508,-37.598,37.109,0.000
1713985914.207,1.953,-20.020,-29.297,26.855,0.000
1713985914.211,6.348,-22.461,-21.484,25.879,0.000
1713985914.215,-2.930,-34.668,-37.598,4.883,0.000
1713985914.219,-10.742,-37.598,-47.363,7.324,0.000
1713985914.223,-1.465,-18.555,-44.922,17.578,0.000
1713985914.227,-4.883,-12.695,-46.387,1.953,0.000
1713985914.231,-15.625,-30.273,-48.340,7.324,0.000
1713985914.235,-19.043,-41.504,-44.922,34.180,0.000
1713985914.238,-12.207,-37.598,-26.855,70.801,0.000
1713985914.242,-4.883,-34.668,-19.043,90.332,0.000
1713985914.246,-3.418,-33.691,-28.320,112.793,0.000
1713985914.250,-5.371,-37.109,-36.621,143.555,0.000
1713985914.254,-1.465,-40.039,-35.156,165.527,0.000
1713985914.258,-9.766,-30.273,-31.250,179.199,0.000
1713985914.262,-15.137,-27.832,-35.645,161.133,0.000
1713985914.266,-7.812,-14.160,-34.668,142.578,0.000
1713985914.270,-12.695,-10.254,-37.109,118.652,0.000
1713985914.274,-17.578,-25.391,-36.621,101.074,0.000
1713985914.277,-29.297,-30.762,-23.438,91.309,0.000
1713985914.281,-35.645,-39.062,-20.020,90.332,0.000
1713985914.285,-27.344,-37.109,-23.926,102.051,0.000
1713985914.289,-17.090,-33.691,-25.391,97.656,0.000
1713985914.293,-20.020,-35.645,-30.762,85.938,0.000
1713985914.297,-29.785,-34.180,-41.992,100.098,0.000
1713985914.300,-35.645,-30.273,-49.316,110.352,0.000
1713985914.304,-36.133,-24.414,-43.457,110.840,0.000
1713985914.308,-31.738,-16.602,-30.273,97.656,0.000
1713985914.312,-26.367,-17.578,-16.113,85.449,0.000
1713985914.316,-33.691,-23.926,-25.879,75.195,0.000
1713985914.320,-37.109,-27.344,-38.086,60.059,0.000
1713985914.323,-25.879,-32.715,-31.250,70.801,0.000
1713985914.327,-22.461,-28.320,-20.020,68.359,0.000
1713985914.331,-19.531,-33.691,-23.926,68.848,0.000
1713985914.335,-18.555,-38.574,-36.621,95.215,0.000
1713985914.339,-30.273,-31.738,-38.574,99.609,0.000
1713985914.343,-39.551,-31.738,-37.109,99.121,0.000
1713985914.347,-31.250,-22.461,-28.320,113.281,0.000
1713985914.351,-26.855,-15.625,-16.113,110.840,0.000
1713985914.355,-29.297,-37.598,-25.391,100.098,0.000
1713985914.358,-26.855,-41.504,-35.156,103.027,0.000
1713985914.362,-24.902,-26.855,-33.691,108.887,0.000
1713985914.366,-26.855,-24.414,-29.785,111.816,0.000
1713985914.371,-24.902,-28.809,-16.113,120.117,0.000
1713985914.375,-22.461,-26.855,-11.719,116.211,0.000
1713985914.379,-21.484,-27.344,-33.691,82.520,0.000
1713985914.383,-20.020,-31.250,-31.250,68.359,0.000
1713985914.386,-12.695,-19.531,-19.531,82.520,0.000
1713985914.390,-16.602,-21.973,-30.273,84.961,0.000
1713985914.394,-28.320,-27.832,-36.133,77.148,0.000
1713985914.398,-33.691,-30.273,-34.180,70.312,0.000
1713985914.402,-37.109,-30.273,-37.109,69.824,0.000
1713985914.406,-22.461,-27.344,-39.062,77.637,0.000
1713985914.410,-12.207,-12.695,-28.809,66.895,0.000
1713985914.414,-18.066,-19.531,-17.090,49.316,0.000
1713985914.418,-22.949,-20.996,-29.297,45.410,0.000
1713985914.422,-31.250,-13.672,-29.297,60.059,0.000
1713985914.426,-21.973,-22.949,-18.555,76.172,0.000
1713985914.430,-17.090,-24.902,-31.250,68.359,0.000
1713985914.434,-25.391,-23.438,-36.133,77.637,0.000
1713985914.438,-33.203,-29.785,-36.621,100.098,0.000
1713985914.442,-31.738,-25.391,-35.645,108.398,0.000
1713985914.446,-27.344,-24.902,-26.367,102.051,0.000
1713985914.449,-34.180,-30.762,-14.648,104.492,0.000
1713985914.453,-31.738,-23.926,-15.625,112.305,0.000
1713985914.457,-21.973,-9.277,-17.090,101.074,0.000
1713985914.461,-21.973,-16.113,0.488,81.055,0.000
1713985914.465,-25.391,-27.832,-8.789,43.457,0.000
1713985914.469,-25.879,-22.949,-28.809,28.320,0.000
1713985914.473,-32.715,-27.832,-26.367,35.156,0.000
1713985914.477,-33.203,-29.297,-28.809,32.227,0.000
1713985914.481,-28.809,-36.133,-34.668,41.992,0.000
1713985914.485,-34.668,-40.039,-29.297,43.457,0.000
1713985914.489,-35.156,-27.344,-28.809,40.039,0.000
1713985914.493,-23.926,-32.227,-14.160,46.875,0.000
1713985914.497,-20.996,-33.203,10.254,63.477,0.000
1713985914.500,-29.785,-15.137,1.953,61.523,0.000
1713985914.504,-30.762,-29.785,-20.996,59.570,0.000
1713985914.508,-30.273,-48.340,-32.715,66.895,0.000
1713985914.512,-23.926,-40.527,-34.180,60.059,0.000
1713985914.516,-24.902,-29.785,-33.691,68.359,0.000
1713985914.520,-32.227,-27.344,-27.344,83.496,0.000
1713985914.524,-32.715,-34.180,-15.137,94.238,0.000
1713985914.528,-28.809,-36.133,-18.555,86.426,0.000
1713985914.532,-30.762,-22.949,-23.438,74.219,0.000
1713985914.536,-29.785,-19.043,-15.137,74.707,0.000
1713985914.540,-26.855,-20.508,-6.348,91.309,0.000
1713985914.543,-29.297,-25.879,-18.555,97.656,0.000
1713985914.547,-36.621,-37.109,-39.062,76.172,0.000
1713985914.551,-34.668,-37.598,-36.133,80.566,0.000
1713985914.555,-35.645,-37.598,-28.809,86.914,0.000
1713985914.559,-33.203,-31.250,-28.809,87.891,0.000
1713985914.563,-26.855,-26.855,-22.461,85.938,0.000
1713985914.567,-30.273,-36.621,-9.277,75.195,0.000
1713985914.571,-39.062,-30.273,-9.277,85.449,0.000
1713985914.575,-39.062,-12.695,-17.578,86.426,0.000
1713985914.579,-33.203,-24.414,-9.277,91.797,0.000
1713985914.582,-31.250,-37.598,-17.090,85.938,0.000
1713985914.586,-28.809,-33.203,-32.715,88.379,0.000
1713985914.590,-32.227,-26.367,-28.809,120.117,0.000
1713985914.594,-35.645,-22.461,-27.832,129.395,0.000
1713985914.598,-40.039,-33.203,-28.809,128.418,0.000
1713985914.602,-35.156,-39.551,-25.879,141.113,0.000
1713985914.606,-30.762,-27.832,-15.625,147.461,0.000
1713985914.609,-27.344,-28.320,-17.090,152.832,0.000
1713985914.613,-26.367,-23.438,-27.832,164.062,0.000
1713985914.617,-41.992,-16.113,-28.320,147.461,0.000
1713985914.621,-35.645,-17.578,-20.020,116.211,0.000
1713985914.625,-25.879,-20.020,-17.578,105.957,0.000
1713985914.629,-31.250,-28.809,-23.926,104.492,0.000
1713985914.633,-41.504,-44.434,-30.762,97.168,0.000
1713985914.637,-30.762,-45.898,-26.855,99.609,0.000
1713985914.641,-21.484,-44.922,-21.484,98.145,0.000
1713985914.645,-23.438,-40.527,-27.832,88.379,0.000
1713985914.649,-27.344,-19.043,-28.809,90.820,0.000
1713985914.652,-28.320,-11.719,-18.066,105.957,0.000
1713985914.656,-27.344,-28.809,-13.184,114.746,0.000
1713985914.660,-28.320,-39.062,-19.531,111.328,0.000
1713985914.664,-34.668,-39.062,-23.438,92.285,0.000
1713985914.668,-31.738,-30.762,-20.508,86.914,0.000
1713985914.671,-28.809,-18.555,-10.742,97.168,0.000
1713985914.675,-30.273,-29.785,-21.973,86.914,0.000
1713985914.679,-22.461,-27.832,-23.926,81.055,0.000
1713985914.683,-16.602,-14.160,-20.996,86.914,0.000
1713985914.687,-21.484,-18.066,-18.066,85.449,0.000
1713985914.691,-23.438,-25.391,-8.789,70.801,0.000
1713985914.695,-25.879,-31.738,-14.160,62.500,0.000
1713985914.698,-33.203,-33.203,-18.555,48.340,0.000
1713985914.702,-26.855,-35.156,-26.367,42.480,0.000
1713985914.706,-26.367,-33.691,-29.297,49.805,0.000
1713985914.710,-31.738,-41.504,-20.508,42.480,0.000
1713985914.714,-22.949,-22.461,-22.949,41.992,0.000
1713985914.718,-22.461,-5.859,-31.250,34.668,0.000
1713985914.722,-27.344,-17.578,-32.227,28.809,0.000
1713985914.726,-26.367,-23.438,-19.531,37.598,0.000
1713985914.729,-26.855,-30.273,-10.254,25.391,0.000
1713985914.733,-20.020,-27.832,-18.555,22.461,0.000
1713985914.737,-27.344,-31.250,-23.438,20.996,0.000
1713985914.741,-27.832,-28.809,-18.555,34.180,0.000
1713985914.746,-20.020,-24.902,-20.996,28.809,0.000
1713985914.750,-26.855,-33.203,-31.250,0.977,0.000
1713985914.754,-24.902,-31.250,-34.668,4.883,0.000
1713985914.758,-23.438,-21.973,-28.809,10.742,0.000
1713985914.761,-13.184,-14.160,-20.020,-4.883,0.000
1713985914.765,-21.484,-20.996,-28.320,-12.207,0.000
1713985914.769,-29.297,-25.879,-27.832,-1.953,0.000
1713985914.773,-23.438,-25.879,-28.320,2.930,0.000
1713985914.777,-20.508,-27.344,-37.109,10.742,0.000
1713985914.781,-30.273,-29.297,-31.250,3.418,0.000
1713985914.785,-42.969,-28.320,-32.227,-9.277,0.000
1713985914.789,-25.879,-32.227,-31.738,13.672,0.000
1713985914.793,-14.648,-30.762,-32.715,12.695,0.000
1713985914.797,-21.484,-27.832,-32.227,12.207,0.000
1713985914.801,-20.996,-37.598,-21.484,16.602,0.000
1713985914.805,-7.324,-31.250,-18.555,24.414,0.000
1713985914.809,-3.906,-26.367,-27.832,40.527,0.000
1713985914.813,-5.371,-32.715,-32.227,39.551,0.000
1713985914.817,-4.883,-32.715,-24.902,30.762,0.000
1713985914.821,-17.090,-28.809,-34.180,22.461,0.000
1713985914.825,-17.090,-27.344,-43.945,17.578,0.000
1713985914.828,-2.441,-17.578,-39.062,11.719,0.000
1713985914.832,-22.461,-18.555,-39.062,2.441,0.000
1713985914.836,-31.250,-29.297,-27.344,21.484,0.000
1713985914.840,-18.066,-21.973,-21.973,22.461,0.000
1713985914.844,-20.996,-16.113,-19.043,14.648,0.000
1713985914.848,-24.902,-23.438,-13.672,21.973,0.000
1713985914.852,-36.133,-25.879,-30.273,19.043,0.000
1713985914.856,-41.992,-25.879,-36.133,13.672,0.000
1713985914.860,-35.156,-12.695,-25.879,11.230,0.000
1713985914.864,-27.832,-6.836,-19.531,10.254,0.000
1713985914.868,-34.180,-23.926,-24.414,13.672,0.000
1713985914.872,-43.457,-35.645,-32.227,9.766,0.000
1713985914.876,-43.945,-31.250,-24.902,17.090,0.000
1713985914.879,-41.016,-22.949,-16.113,24.902,0.000
1713985914.883,-41.016,-24.414,-20.996,7.812,0.000
1713985914.887,-56.641,-28.809,-33.203,-0.488,0.000
1713985914.891,-76.172,-30.762,-33.203,2.441,0.000
1713985914.895,-72.754,-30.273,-30.273,-10.742,0.000
1713985914.899,-56.641,-15.137,-28.809,-18.066,0.000
1713985914.903,-62.012,-19.531,-23.926,-19.043,0.000
1713985914.907,-75.684,-40.039,-21.484,-1.465,0.000
1713985914.911,-60.547,-28.320,-15.625,2.441,0.000
1713985914.915,-45.410,-8.789,-17.578,-4.395,0.000
1713985914.919,-53.711,-6.836,-13.184,14.160,0.000
1713985914.922,-69.336,-15.625,-18.555,-7.812,0.000
1713985914.926,-69.336,-17.578,-34.180,-11.719,0.000
1713985914.930,-55.664,-13.184,-28.809,18.066,0.000
1713985914.934,-59.570,-16.602,-23.438,5.371,0.000
1713985914.938,-56.641,-18.066,-23.926,5.371,0.000
1713985914.942,-39.551,-16.602,0.977,18.555,0.000
1713985914.946,-46.387,-19.043,7.324,-0.488,0.000
1713985914.950,-61.035,-16.602,-19.531,-8.789,0.000
1713985914.954,-54.199,-18.555,-31.250,-0.488,0.000
1713985914.957,-56.641,-26.855,-26.855,-7.812,0.000
1713985914.961,-62.988,-23.926,-15.137,-15.137,0.000
1713985914.965,-85.938,-17.090,-10.742,-43.457,0.000
1713985914.969,-107.422,-14.648,-2.441,-71.777,0.000
1713985914.973,-104.980,2.930,6.836,-59.082,0.000
1713985914.977,-119.141,13.672,19.531,-58.105,0.000
1713985914.981,-146.973,0.488,28.320,-89.355,0.000
1713985914.985,-169.434,2.441,29.785,-122.070,0.000
1713985914.988,-199.219,12.695,33.203,-142.090,0.000
1713985914.992,-218.750,12.695,37.598,-154.297,0.000
1713985914.996,-231.445,14.648,50.293,-170.898,0.000
1713985915.000,-229.004,13.672,63.965,-157.715,0.000
1713985915.004,-229.492,30.762,60.547,-138.184,0.000
1713985915.008,-237.305,33.203,58.594,-104.004,0.000
1713985915.012,-215.332,22.461,60.547,-75.195,0.000
1713985915.016,-194.336,40.039,64.941,-69.824,0.000
1713985915.020,-187.988,34.668,71.289,-61.035,0.000
1713985915.024,-160.645,-2.441,62.012,-31.738,0.000
1713985915.027,-130.371,-11.719,48.828,1.953,0.000
1713985915.031,-118.164,3.418,36.133,15.625,0.000
1713985915.035,-110.352,3.906,25.879,41.016,0.000
1713985915.039,-93.262,-8.301,20.996,75.195,0.000
1713985915.043,-76.660,-24.414,20.996,96.680,0.000
1713985915.047,-57.129,-33.691,9.766,120.605,0.000
1713985915.051,-40.527,-32.715,2.441,145.508,0.000
1713985915.054,-41.992,-29.297,1.953,149.414,0.000
1713985915.058,-27.832,-40.527,-8.301,132.812,0.000
1713985915.062,-5.371,-49.805,-20.508,133.301,0.000
1713985915.066,-11.230,-48.340,-28.320,119.629,0.000
1713985915.070,-0.977,-34.668,-34.668,111.328,0.000
1713985915.073,14.648,-51.270,-37.598,122.070,0.000
1713985915.077,19.531,-57.617,-37.598,125.977,0.000
1713985915.081,23.438,-36.133,-39.551,122.559,0.000
1713985915.085,27.344,-35.645,-44.434,117.676,0.000
1713985915.089,25.879,-36.621,-39.551,113.770,0.000
1713985915.093,33.691,-33.203,-43.457,119.141,0.000
1713985915.097,36.133,-33.203,-57.617,122.070,0.000
1713985915.101,30.273,-41.992,-71.289,111.328,0.000
1713985915.105,36.133,-48.828,-65.918,120.605,0.000
1713985915.109,42.480,-56.152,-61.035,136.230,0.000
1713985915.112,38.574,-57.617,-61.523,129.395,0.000
1713985915.116,30.762,-41.992,-54.688,127.930,0.000
1713985915.121,36.621,-40.527,-56.641,149.414,0.000
1713985915.125,42.969,-42.969,-61.523,155.762,0.000
1713985915.129,43.945,-36.133,-60.059,150.879,0.000
1713985915.133,39.551,-28.320,-55.664,143.555,0.000
1713985915.137,31.250,-28.320,-73.242,141.113,0.000
1713985915.140,24.902,-45.410,-80.566,145.508,0.000
1713985915.144,32.227,-44.922,-65.430,140.625,0.000
1713985915.148,41.992,-31.250,-62.500,141.113,0.000
1713985915.152,41.504,-38.086,-56.641,149.902,0.000
1713985915.156,41.016,-45.410,-52.246,141.602,0.000
1713985915.160,41.016,-31.250,-51.270,130.371,0.000
1713985915.164,41.016,-14.648,-48.340,125.488,0.000
1713985915.168,37.598,-11.230,-58.105,118.164,0.000
1713985915.172,35.645,-18.555,-66.406,120.605,0.000
1713985915.176,37.109,-22.949,-53.223,119.629,0.000
1713985915.180,32.227,-30.762,-50.293,114.746,0.000
1713985915.184,20.996,-39.551,-62.500,114.746,0.000
1713985915.188,34.180,-36.621,-54.199,120.605,0.000
1713985915.192,25.879,-33.691,-49.316,116.699,0.000
1713985915.196,21.973,-32.227,-44.434,115.723,0.000
1713985915.200,30.762,-36.133,-43.457,112.305,0.000
1713985915.203,24.902,-32.227,-51.270,110.840,0.000
1713985915.207,22.949,-7.812,-53.711,122.559,0.000
1713985915.211,20.020,0.488,-56.641,125.000,0.000
1713985915.215,13.184,-21.973,-57.617,115.723,0.000
1713985915.219,11.230,-39.062,-54.688,109.375,0.000
1713985915.223,12.207,-42.480,-38.086,114.746,0.000
1713985915.227,13.184,-36.133,-31.738,115.234,0.000
1713985915.231,7.812,-25.391,-44.434,116.699,0.000
1713985915.235,-0.488,-23.926,-47.852,117.188,0.000
1713985915.239,-2.441,-21.484,-42.969,123.535,0.000
1713985915.243,4.883,-14.648,-36.621,133.301,0.000
1713985915.247,11.719,-16.602,-30.273,137.695,0.000
1713985915.251,7.812,-24.414,-25.391,127.930,0.000
1713985915.255,10.254,-24.414,-21.484,132.324,0.000
1713985915.258,13.184,-40.039,-25.391,137.695,0.000
1713985915.262,2.930,-42.969,-35.645,119.629,0.000
1713985915.266,-4.395,-30.273,-39.551,112.305,0.000
1713985915.270,-17.090,-38.086,-38.574,113.770,0.000
1713985915.274,-14.160,-43.945,-47.363,108.398,0.000
1713985915.278,-0.977,-25.391,-45.898,112.793,0.000
1713985915.282,-0.488,-12.207,-38.086,105.469,0.000
1713985915.286,-2.930,-12.695,-34.668,113.281,0.000
1713985915.290,1.465,1.953,-24.414,130.859,0.000
1713985915.294,4.395,-8.789,-21.973,117.188,0.000
1713985915.298,-3.418,-32.227,-32.227,109.863,0.000
1713985915.301,-8.301,-35.645,-34.180,124.023,0.000
1713985915.305,-2.930,-41.016,-33.203,123.047,0.000
1713985915.309,-4.883,-38.086,-37.598,119.141,0.000
1713985915.313,-9.277,-20.508,-41.504,114.258,0.000
1713985915.317,-6.348,-16.602,-42.480,107.910,0.000
1713985915.321,-4.395,-8.301,-32.715,115.234,0.000
1713985915.325,-9.766,-19.043,-23.926,113.281,0.000
1713985915.329,-0.488,-38.574,-28.320,104.004,0.000
1713985915.333,-7.324,-37.598,-31.738,95.215,0.000
1713985915.337,-9.766,-32.227,-32.715,112.305,0.000
1713985915.340,-10.254,-24.902,-38.086,113.770,0.000
1713985915.344,-8.789,-26.367,-36.133,106.445,0.000
1713985915.348,-9.277,-25.391,-33.203,98.145,0.000
1713985915.352,-17.090,-21.484,-24.902,79.102,0.000
1713985915.356,-18.066,-9.277,-15.137,99.609,0.000
1713985915.360,-5.859,-7.812,-19.531,114.258,0.000
1713985915.364,-5.859,-31.250,-22.949,102.539,0.000
1713985915.367,-24.414,-36.133,-27.344,95.215,0.000
1713985915.371,-12.207,-31.738,-29.785,98.633,0.000
1713985915.375,-5.859,-35.156,-28.809,96.680,0.000
1713985915.379,-10.742,-38.086,-29.785,102.051,0.000
1713985915.383,-7.812,-37.109,-26.855,115.234,0.000
1713985915.387,-18.066,-25.391,-18.066,107.422,0.000
1713985915.391,-23.926,-21.484,-23.926,98.633,0.000
1713985915.395,-13.672,-27.344,-30.273,98.145,0.000
1713985915.399,-11.719,-34.668,-22.461,96.191,0.000
1713985915.402,-16.602,-37.598,-25.879,94.727,0.000
1713985915.406,-14.160,-39.551,-25.391,96.680,0.000
1713985915.410,-11.230,-41.016,-25.391,95.703,0.000
1713985915.414,-7.324,-15.137,-20.996,87.891,0.000
1713985915.418,-12.207,-8.301,-10.742,88.379,0.000
1713985915.422,-16.602,-12.207,-17.578,82.520,0.000
1713985915.426,-6.348,-12.695,-27.832,89.355,0.000
1713985915.430,-11.230,-15.625,-32.227,79.590,0.000
1713985915.434,-17.090,-20.996,-30.273,67.871,0.000
1713985915.437,-14.160,-27.832,-32.227,84.961,0.000
1713985915.441,-14.160,-25.879,-33.691,84.473,0.000
1713985915.445,-16.602,-28.809,-19.531,74.219,0.000
1713985915.449,-17.090,-26.855,-16.113,73.730,0.000
1713985915.452,-11.719,-26.367,-27.832,81.543,0.000
1713985915.456,-12.207,-25.879,-30.762,76.172,0.000
1713985915.460,-16.602,-30.273,-26.367,66.895,0.000
1713985915.464,-23.438,-33.203,-22.949,67.871,0.000
1713985915.468,-26.367,-35.156,-20.508,72.754,0.000
1713985915.472,-32.715,-31.250,-28.809,78.125,0.000
1713985915.476,-29.785,-17.090,-25.879,72.266,0.000
1713985915.480,-27.832,-20.996,-24.414,70.312,0.000
1713985915.484,-37.109,-40.527,-31.738,79.102,0.000
1713985915.488,-36.133,-37.598,-37.109,78.613,0.000
1713985915.491,-28.320,-26.367,-34.668,78.613,0.000
1713985915.496,-28.320,-22.949,-23.438,72.266,0.000
1713985915.500,-32.715,-32.715,-25.391,71.289,0.000
1713985915.504,-24.902,-39.062,-20.996,79.102,0.000
1713985915.508,-23.438,-25.879,-10.254,85.938,0.000
1713985915.512,-25.879,-21.973,-22.949,73.730,0.000
1713985915.516,-34.180,-27.344,-36.621,69.336,0.000
1713985915.520,-38.574,-27.344,-35.645,71.289,0.000
1713985915.523,-33.203,-27.344,-33.691,58.105,0.000
1713985915.527,-29.785,-29.297,-28.809,60.547,0.000
1713985915.531,-24.414,-33.203,-31.250,65.918,0.000
1713985915.535,-26.855,-25.391,-22.949,73.730,0.000
1713985915.539,-16.113,-24.902,-5.859,83.984,0.000
1713985915.543,-17.090,-45.410,-20.020,77.637,0.000
1713985915.547,-21.973,-33.691,-33.203,67.871,0.000
1713985915.551,-21.973,-8.301,-40.527,71.289,0.000
1713985915.555,-17.090,-6.836,-39.062,84.961,0.000
1713985915.559,-19.043,-19.043,-29.785,83.984,0.000
1713985915.563,-26.367,-35.156,-30.762,66.406,0.000
1713985915.567,-30.273,-38.086,-28.809,75.684,0.000
1713985915.571,-28.320,-43.457,-23.438,83.008,0.000
1713985915.575,-20.508,-43.457,-25.391,80.078,0.000
1713985915.579,-21.973,-23.926,-30.273,93.262,0.000
1713985915.583,-36.133,-20.996,-36.133,87.402,0.000
1713985915.586,-36.133,-22.949,-42.480,86.426,0.000
1713985915.591,-28.320,-25.879,-39.062,95.703,0.000
1713985915.594,-13.184,-27.344,-34.668,96.680,0.000
1713985915.598,-11.719,-27.344,-29.297,96.191,0.000
1713985915.602,-21.484,-31.738,-33.203,88.379,0.000
1713985915.606,-11.719,-26.367,-33.691,99.121,0.000
1713985915.610,-5.859,-26.367,-19.531,111.816,0.000
1713985915.614,-23.926,-29.785,-26.855,99.609,0.000
1713985915.618,-25.879,-30.762,-33.691,104.004,0.000
1713985915.622,-21.484,-41.016,-39.062,118.652,0.000
1713985915.626,-23.926,-43.457,-33.203,114.258,0.000
1713985915.630,-23.438,-25.391,-24.414,110.352,0.000
1713985915.634,-25.391,-9.277,-27.344,112.793,0.000
1713985915.637,-35.156,-18.066,-24.902,107.422,0.000
1713985915.641,-33.691,-23.438,-20.020,112.793,0.000
1713985915.645,-12.207,-19.043,-10.742,115.234,0.000
1713985915.649,-16.113,-32.715,-18.555,102.051,0.000
1713985915.653,-22.461,-40.527,-35.156,112.793,0.000
1713985915.657,-26.367,-34.180,-38.086,114.258,0.000
1713985915.661,-31.250,-24.414,-32.715,94.727,0.000
1713985915.665,-31.250,-14.160,-23.926,95.703,0.000
1713985915.669,-27.832,-18.066,-24.414,107.422,0.000
1713985915.673,-25.391,-31.738,-30.762,97.168,0.000
1713985915.677,-24.902,-39.551,-29.297,95.703,0.000
1713985915.680,-21.973,-35.156,-14.648,93.262,0.000
1713985915.684,-28.809,-30.273,-19.043,93.262,0.000
1713985915.688,-41.016,-41.016,-40.039,87.891,0.000
1713985915.692,-29.297,-27.344,-35.645,83.496,0.000
1713985915.696,-17.090,-6.836,-20.508,76.172,0.000
1713985915.700,-22.461,-9.766,-17.578,60.059,0.000
1713985915.704,-23.438,-11.230,-27.344,67.383,0.000
1713985915.708,-30.762,-16.113,-31.250,70.801,0.000
1713985915.711,-26.367,-24.902,-30.762,68.359,0.000
1713985915.715,-20.020,-21.484,-29.785,66.895,0.000
1713985915.719,-27.344,-21.973,-26.367,74.219,0.000
1713985915.723,-40.039,-25.879,-26.367,77.637,0.000
1713985915.727,-27.832,-20.996,-25.391,87.891,0.000
1713985915.731,-22.461,-27.344,-28.320,88.379,0.000
1713985915.735,-32.715,-26.855,-31.738,76.172,0.000
1713985915.739,-32.227,-23.926,-33.691,86.426,0.000
1713985915.742,-31.738,-21.973,-35.645,87.891,0.000
1713985915.746,-31.738,-21.484,-21.484,82.031,0.000
1713985915.750,-37.598,-28.320,-17.090,77.148,0.000
1713985915.754,-42.969,-30.273,-24.414,84.961,0.000
1713985915.758,-31.738,-12.207,-13.672,94.727,0.000
1713985915.762,-24.414,-8.301,0.488,83.496,0.000
1713985915.766,-21.484,-22.461,-14.160,78.125,0.000
1713985915.770,-22.949,-24.414,-22.949,89.844,0.000
1713985915.774,-29.785,-26.367,-23.438,89.844,0.000
1713985915.777,-29.785,-25.879,-22.461,73.730,0.000
1713985915.781,-24.902,-23.438,-17.090,64.941,0.000
1713985915.785,-29.297,-21.484,-28.320,62.500,0.000
1713985915.789,-35.156,-30.273,-22.461,53.223,0.000
1713985915.793,-31.738,-39.551,-10.254,43.457,0.000
1713985915.797,-29.297,-23.438,-13.672,39.551,0.000
1713985915.801,-33.203,-19.043,-31.250,44.434,0.000
1713985915.804,-38.086,-32.227,-32.715,36.133,0.000
1713985915.808,-30.762,-31.738,-20.020,17.090,0.000
1713985915.812,-25.391,-26.367,-21.484,22.949,0.000
1713985915.816,-20.020,-21.484,-19.043,20.020,0.000
1713985915.820,-22.949,-20.020,-13.672,22.461,0.000
1713985915.823,-29.785,-23.926,-18.066,18.555,0.000
1713985915.827,-21.973,-28.809,-19.043,13.672,0.000
1713985915.831,-24.902,-29.297,-27.832,5.371,0.000
1713985915.835,-29.785,-28.809,-34.668,0.000,0.000
1713985915.839,-30.762,-31.250,-25.391,0.977,0.000
1713985915.843,-31.738,-28.320,-21.973,-14.648,0.000
1713985915.847,-26.367,-28.809,-16.113,-14.160,0.000
1713985915.851,-30.273,-27.344,-20.508,0.000,0.000
1713985915.855,-28.320,-33.691,-21.484,16.113,0.000
1713985915.859,-20.020,-24.902,-19.531,24.414,0.000
1713985915.863,-21.484,-4.883,-17.090,23.926,0.000
1713985915.866,-30.273,-18.066,-23.438,24.902,0.000
1713985915.871,-26.855,-29.785,-26.367,38.086,0.000
1713985915.875,-19.531,-19.531,-17.578,48.340,0.000
1713985915.879,-24.902,-19.531,-13.672,38.574,0.000
1713985915.883,-23.926,-20.996,-16.113,46.875,0.000
1713985915.887,-19.531,-14.648,-17.090,57.617,0.000
1713985915.891,-24.414,-16.602,-22.949,53.223,0.000
1713985915.894,-30.273,-19.043,-25.391,48.340,0.000
1713985915.898,-34.180,-22.461,-31.250,39.062,0.000
1713985915.902,-33.203,-35.645,-36.133,39.551,0.000
1713985915.906,-31.738,-41.016,-30.273,58.105,0.000
1713985915.910,-26.855,-30.273,-24.902,48.828,0.000
1713985915.914,-36.621,-28.809,-32.715,11.230,0.000
1713985915.918,-43.457,-36.133,-42.480,16.602,0.000
1713985915.922,-37.598,-34.668,-23.438,37.109,0.000
1713985915.926,-34.180,-20.996,-13.184,41.504,0.000
1713985915.930,-32.227,-19.531,-33.203,34.180,0.000
1713985915.934,-28.809,-31.738,-45.898,43.945,0.000
1713985915.938,-22.949,-25.391,-35.156,57.129,0.000
1713985915.942,-21.484,-20.996,-25.391,44.922,0.000
1713985915.946,-16.602,-21.484,-15.625,48.828,0.000
1713985915.950,-23.926,-15.137,-11.719,51.758,0.000
1713985915.954,-24.902,-12.695,-18.066,59.570,0.000
1713985915.957,-14.648,-19.531,-14.160,65.918,0.000
1713985915.961,-21.484,-32.227,-18.066,60.547,0.000
1713985915.966,-27.344,-38.086,-32.227,57.617,0.000
1713985915.970,-23.438,-31.250,-28.320,71.777,0.000
1713985915.973,-25.391,-21.973,-37.598,65.430,0.000
1713985915.977,-27.344,-26.367,-46.387,41.016,0.000
1713985915.981,-24.902,-31.250,-31.738,48.828,0.000
1713985915.985,-19.531,-36.621,-25.391,63.477,0.000
1713985915.989,-20.508,-37.109,-22.949,67.383,0.000
1713985915.993,-25.391,-17.090,-10.254,63.477,0.000
1713985915.997,-17.090,-6.348,-7.324,59.570,0.000
1713985916.001,-16.602,-6.836,-26.367,67.871,0.000
1713985916.005,-27.344,-16.113,-41.016,67.383,0.000
1713985916.009,-20.508,-20.020,-30.273,68.359,0.000
1713985916.012,-16.113,-21.973,-21.484,67.383,0.000
1713985916.016,-28.320,-31.250,-26.367,54.199,0.000
1713985916.020,-31.250,-28.320,-37.598,43.945,0.000
1713985916.024,-27.832,-20.996,-30.273,43.945,0.000
1713985916.028,-16.113,-20.020,-1.465,42.480,0.000
1713985916.032,-20.020,-26.855,-6.836,34.180,0.000
1713985916.036,-31.250,-37.109,-23.926,33.203,0.000
1713985916.040,-31.738,-26.855,-33.691,30.273,0.000
1713985916.044,-31.250,-34.180,-39.062,27.832,0.000
1713985916.048,-21.484,-37.109,-36.621,28.809,0.000
1713985916.052,-23.438,-19.531,-30.273,20.020,0.000
1713985916.055,-29.297,-20.996,-21.973,18.066,0.000
1713985916.059,-22.461,-15.625,-12.695,22.949,0.000
1713985916.063,-11.230,-12.695,-12.207,14.648,0.000
1713985916.067,-18.066,-24.902,-19.531,9.766,0.000
1713985916.071,-24.414,-33.203,-34.180,21.973,0.000
1713985916.075,-20.996,-28.809,-39.551,32.715,0.000
1713985916.079,-23.438,-40.527,-31.250,25.391,0.000
1713985916.083,-22.949,-39.062,-27.832,13.672,0.000
1713985916.087,-25.391,-20.020,-26.367,22.461,0.000
1713985916.090,-18.066,-16.113,-4.395,43.457,0.000
1713985916.094,-9.277,-8.789,-5.371,33.691,0.000
1713985916.098,-18.066,-9.766,-23.926,16.113,0.000
1713985916.102,-27.832,-26.367,-25.391,11.719,0.000
1713985916.106,-30.273,-31.250,-25.879,21.973,0.000
1713985916.110,-36.133,-32.715,-29.785,22.461,0.000
1713985916.114,-32.715,-42.969,-30.273,9.766,0.000
1713985916.118,-33.691,-42.480,-23.438,2.441,0.000
1713985916.122,-31.738,-33.203,-25.879,9.766,0.000
1713985916.125,-28.320,-29.297,-16.602,23.926,0.000
1713985916.129,-24.902,-20.020,-10.254,22.949,0.000
1713985916.133,-28.809,-7.324,-34.668,7.324,0.000
1713985916.137,-36.621,-11.719,-37.109,15.625,0.000
1713985916.141,-35.156,-33.203,-34.668,24.414,0.000
1713985916.145,-39.062,-43.945,-41.016,14.648,0.000
1713985916.149,-36.133,-38.086,-33.203,14.648,0.000
1713985916.152,-29.297,-36.133,-30.273,29.785,0.000
1713985916.156,-29.297,-33.691,-17.578,47.363,0.000
1713985916.160,-26.367,-29.297,-8.301,44.434,0.000
1713985916.164,-25.879,-14.160,-11.719,34.180,0.000
1713985916.168,-35.156,-10.742,-16.113,38.574,0.000
1713985916.172,-37.598,-29.785,-30.762,48.340,0.000
1713985916.176,-34.180,-38.574,-36.621,45.898,0.000
1713985916.180,-28.320,-32.715,-28.809,46.387,0.000
1713985916.184,-26.855,-20.020,-21.973,40.039,0.000
1713985916.187,-30.762,-20.020,-20.020,41.504,0.000
1713985916.191,-32.227,-23.438,-18.555,46.387,0.000
1713985916.195,-30.273,-19.531,-12.695,27.344,0.000
1713985916.199,-32.227,-18.066,-18.066,24.414,0.000
1713985916.202,-32.715,-22.461,-30.273,24.414,0.000
1713985916.206,-24.902,-24.902,-23.926,28.320,0.000
1713985916.210,-27.344,-17.090,-16.113,37.598,0.000
1713985916.214,-30.273,-18.066,-28.809,32.715,0.000
1713985916.218,-34.180,-23.926,-44.434,35.156,0.000
1713985916.222,-35.645,-28.809,-33.691,39.062,0.000
1713985916.226,-33.691,-16.602,-34.668,24.414,0.000
1713985916.230,-33.203,-13.672,-32.715,18.066,0.000
1713985916.234,-33.203,-37.598,-22.949,23.438,0.000
1713985916.238,-36.621,-28.809,-21.973,33.691,0.000
1713985916.242,-36.621,-7.812,-20.020,38.574,0.000
1713985916.246,-33.203,-11.719,-18.555,31.250,0.000
1713985916.250,-31.738,-23.438,-22.461,32.715,0.000
1713985916.254,-28.320,-19.043,-16.602,31.250,0.000
1713985916.258,-34.668,-14.648,-27.344,21.973,0.000
1713985916.262,-32.715,-17.578,-39.062,16.113,0.000
1713985916.266,-41.504,-26.855,-33.203,15.137,0.000
1713985916.270,-45.410,-23.438,-26.855,39.062,0.000
1713985916.273,-32.715,-11.719,-25.391,35.645,0.000
1713985916.277,-31.250,-37.598,-30.762,22.461,0.000
1713985916.281,-30.273,-46.387,-30.273,32.227,0.000
1713985916.285,-31.738,-20.020,-21.973,32.227,0.000
1713985916.289,-32.715,-13.672,-21.484,33.203,0.000
1713985916.293,-32.715,-28.320,-25.879,39.062,0.000
1713985916.297,-40.527,-39.062,-33.691,26.855,0.000
1713985916.301,-46.875,-29.785,-38.574,23.438,0.000
1713985916.305,-45.410,-11.719,-26.367,29.785,0.000
1713985916.309,-38.574,-4.883,-6.836,27.832,0.000
1713985916.313,-52.246,-12.207,-9.766,16.602,0.000
1713985916.317,-76.172,-22.949,-29.297,-3.906,0.000
1713985916.321,-91.797,-12.207,-22.949,-20.996,0.000
1713985916.325,-104.004,-1.465,-1.953,-27.344,0.000
1713985916.329,-107.910,7.812,7.324,-29.297,0.000
1713985916.333,-128.418,5.371,19.531,-63.477,0.000
1713985916.336,-165.039,-11.230,29.785,-109.375,0.000
1713985916.341,-188.965,-4.395,32.227,-138.672,0.000
1713985916.344,-191.406,9.766,41.016,-148.438,0.000
1713985916.348,-194.336,14.160,51.758,-151.855,0.000
1713985916.352,-216.797,13.184,58.594,-166.504,0.000
1713985916.356,-225.098,6.836,62.988,-164.062,0.000
1713985916.360,-225.586,13.184,77.637,-152.832,0.000
1713985916.364,-223.633,26.367,89.844,-148.438,0.000
1713985916.368,-213.379,26.855,88.379,-128.906,0.000
1713985916.372,-201.660,35.156,84.473,-111.328,0.000
1713985916.376,-193.848,34.180,88.867,-107.422,0.000
1713985916.380,-188.965,19.043,87.891,-110.352,0.000
1713985916.384,-191.406,0.000,68.848,-113.281,0.000
1713985916.387,-186.035,-15.625,49.805,-102.051,0.000
1713985916.391,-162.598,-10.742,43.457,-80.566,0.000
1713985916.395,-138.184,-9.277,37.109,-55.176,0.000
1713985916.399,-120.117,-1.953,29.297,-35.645,0.000
1713985916.403,-102.539,-13.184,31.250,-7.324,0.000
1713985916.407,-85.449,-31.738,27.344,3.906,0.000
1713985916.411,-78.613,-38.086,17.090,-7.324,0.000
1713985916.415,-64.941,-41.992,4.883,6.836,0.000
1713985916.419,-68.359,-33.203,-8.789,14.648,0.000
1713985916.423,-62.012,-23.926,5.371,24.414,0.000
1713985916.427,-46.387,-25.879,2.441,35.156,0.000
1713985916.430,-51.758,-33.203,-16.113,18.555,0.000
1713985916.434,-56.641,-33.203,-16.602,9.277,0.000
1713985916.438,-71.777,-32.227,-20.996,-17.090,0.000
1713985916.442,-91.797,-19.531,6.836,-40.039,0.000
1713985916.446,-109.863,-6.348,20.020,-46.387,0.000
1713985916.450,-141.113,-5.859,2.930,-87.402,0.000
1713985916.454,-152.344,-6.348,13.672,-97.656,0.000
1713985916.458,-149.414,3.418,31.250,-94.238,0.000
1713985916.462,-158.203,6.836,36.133,-114.258,0.000
1713985916.465,-164.551,5.371,32.715,-125.977,0.000
1713985916.469,-152.344,3.418,36.621,-106.934,0.000
1713985916.473,-158.203,-0.488,40.527,-104.004,0.000
1713985916.477,-164.551,2.441,34.668,-118.164,0.000
1713985916.481,-148.438,20.020,36.133,-119.629,0.000
1713985916.485,-132.812,23.926,39.551,-100.098,0.000
1713985916.489,-121.582,16.113,36.133,-90.820,0.000
1713985916.493,-108.887,15.625,35.645,-83.496,0.000
1713985916.496,-93.750,8.789,31.250,-59.082,0.000
1713985916.500,-71.777,-4.883,14.648,-38.086,0.000
1713985916.504,-50.781,-12.695,-0.977,-12.207,0.000
1713985916.508,-42.480,-25.879,-14.160,0.488,0.000
1713985916.512,-34.180,-40.527,-19.043,7.812,0.000
1713985916.516,-20.020,-31.738,-20.508,23.438,0.000
1713985916.520,-1.465,-16.602,-30.273,44.434,0.000
1713985916.524,3.906,-16.602,-31.738,52.246,0.000
1713985916.527,13.184,-26.367,-33.691,57.129,0.000
1713985916.531,23.438,-41.992,-62.988,52.734,0.000
1713985916.535,24.902,-54.688,-83.984,47.852,0.000
1713985916.539,29.297,-51.270,-81.543,57.129,0.000
1713985916.543,29.785,-50.293,-76.660,62.500,0.000
1713985916.547,32.227,-55.176,-76.660,64.941,0.000
1713985916.551,40.039,-62.500,-81.055,74.219,0.000
1713985916.555,57.617,-46.387,-72.266,90.332,0.000
1713985916.558,61.035,-32.715,-83.008,90.820,0.000
1713985916.562,55.176,-46.387,-92.773,83.984,0.000
1713985916.566,70.312,-48.828,-95.215,82.031,0.000
1713985916.570,74.707,-51.270,-100.098,86.426,0.000
1713985916.573,68.359,-49.805,-101.562,88.867,0.000
1713985916.577,68.359,-48.340,-97.168,78.613,0.000
1713985916.581,74.707,-48.828,-85.938,81.055,0.000
1713985916.585,73.242,-57.617,-83.008,80.566,0.000
1713985916.589,71.289,-49.805,-83.984,81.055,0.000
1713985916.593,71.289,-35.156,-93.750,74.707,0.000
1713985916.597,66.406,-47.852,-101.074,63.477,0.000
1713985916.601,64.941,-47.852,-97.168,52.246,0.000
1713985916.605,76.660,-39.062,-99.121,58.594,0.000
1713985916.609,75.684,-37.598,-100.586,69.824,0.000
1713985916.612,81.055,-46.387,-93.750,61.523,0.000
1713985916.616,75.684,-57.617,-89.355,54.688,0.000
1713985916.621,56.152,-44.434,-93.750,53.223,0.000
1713985916.625,55.664,-29.297,-89.844,59.570,0.000
1713985916.629,65.918,-36.133,-77.637,66.895,0.000
1713985916.633,74.219,-33.203,-74.219,67.383,0.000
1713985916.637,68.359,-32.715,-83.496,68.359,0.000
1713985916.641,54.199,-56.641,-86.914,79.590,0.000
1713985916.644,54.199,-62.988,-81.543,87.891,0.000
1713985916.648,62.988,-51.758,-65.918,106.445,0.000
1713985916.652,56.641,-50.293,-67.383,128.906,0.000
1713985916.656,41.504,-46.387,-77.637,144.043,0.000
1713985916.660,37.598,-26.367,-79.590,139.648,0.000
1713985916.664,37.598,-25.391,-69.824,125.488,0.000
1713985916.668,41.504,-33.691,-67.383,128.418,0.000
1713985916.672,36.133,-35.156,-72.754,139.160,0.000
1713985916.676,39.551,-33.203,-66.895,142.090,0.000
1713985916.680,51.758,-27.344,-57.129,126.953,0.000
1713985916.684,45.898,-31.250,-59.082,121.582,0.000
1713985916.688,28.809,-42.480,-74.219,101.074,0.000
1713985916.692,22.461,-39.551,-75.684,68.359,0.000
1713985916.696,30.273,-33.203,-55.664,62.012,0.000
1713985916.700,30.273,-18.555,-50.293,65.430,0.000
1713985916.704,16.113,-28.320,-60.059,62.988,0.000
1713985916.707,13.184,-42.969,-59.082,50.781,0.000
1713985916.711,24.902,-26.367,-52.734,58.105,0.000
1713985916.715,21.484,-20.020,-42.480,76.172,0.000
1713985916.719,17.090,-22.949,-45.410,78.613,0.000
1713985916.723,12.695,-30.273,-59.082,94.238,0.000
1713985916.727,17.578,-35.645,-60.547,114.746,0.000
1713985916.731,16.602,-30.273,-53.711,115.723,0.000
1713985916.735,2.441,-23.926,-62.012,103.516,0.000
1713985916.739,0.488,-30.273,-58.594,97.168,0.000
1713985916.743,10.254,-33.203,-37.109,95.703,0.000
1713985916.747,15.137,-36.621,-35.645,102.051,0.000
1713985916.751,6.348,-34.180,-44.434,102.051,0.000
1713985916.755,-5.859,-39.551,-50.293,81.543,0.000
1713985916.758,3.418,-48.828,-56.152,72.266,0.000
1713985916.762,2.930,-29.785,-51.758,74.707,0.000
1713985916.766,-15.137,-26.855,-46.387,44.922,0.000
1713985916.770,-13.672,-36.133,-45.898,36.621,0.000
1713985916.774,-6.348,-13.184,-36.133,45.898,0.000
1713985916.778,-5.859,-9.766,-35.645,39.062,0.000
1713985916.782,-4.395,-26.855,-37.598,47.363,0.000
1713985916.786,-4.883,-27.344,-34.180,56.641,0.000
1713985916.790,-7.812,-28.809,-40.527,54.688,0.000
1713985916.794,-4.883,-27.832,-41.992,64.941,0.000
1713985916.798,-0.977,-24.902,-29.297,58.105,0.000
1713985916.801,-4.395,-29.297,-24.414,56.641,0.000
1713985916.805,-9.277,-19.043,-39.551,64.453,0.000
1713985916.809,-3.906,-27.832,-40.527,62.012,0.000
1713985916.813,-1.953,-47.363,-25.879,49.805,0.000
1713985916.817,-10.742,-41.992,-24.902,30.762,0.000
1713985916.821,-26.367,-27.344,-40.039,24.414,0.000
1713985916.825,-20.996,-18.066,-49.316,11.230,0.000
1713985916.829,-18.066,-21.484,-48.828,-3.418,0.000
1713985916.833,-15.625,-21.973,-37.598,7.324,0.000
1713985916.836,-14.648,-20.020,-31.250,15.137,0.000
1713985916.840,-21.484,-26.367,-28.320,19.531,0.000
1713985916.844,-17.578,-25.879,-26.855,-2.930,0.000
1713985916.848,-22.949,-26.855,-37.109,-24.414,0.000
1713985916.852,-32.227,-32.715,-34.668,-14.648,0.000
1713985916.856,-25.391,-38.086,-30.273,-3.418,0.000
1713985916.860,-18.555,-37.109,-30.273,-5.371,0.000
1713985916.864,-18.066,-34.180,-27.832,-14.160,0.000
1713985916.867,-37.109,-36.133,-39.062,-24.902,0.000
1713985916.871,-29.297,-34.668,-36.133,-9.277,0.000
1713985916.875,-12.695,-26.855,-24.902,-0.488,0.000
1713985916.879,-17.090,-21.484,-28.809,-18.066,0.000
1713985916.883,-21.484,-21.973,-28.320,-13.184,0.000
1713985916.887,-28.320,-19.043,-30.273,-18.555,0.000
1713985916.891,-17.090,-30.273,-25.879,-24.902,0.000
1713985916.895,-6.348,-34.668,-19.531,-13.672,0.000
1713985916.899,-17.578,-24.902,-24.414,-29.785,0.000
1713985916.902,-20.996,-19.043,-25.879,-44.434,0.000
1713985916.906,-25.391,-31.738,-24.902,-46.387,0.000
1713985916.910,-31.250,-32.715,-29.297,-54.199,0.000
1713985916.914,-25.391,-31.250,-24.902,-56.152,0.000
1713985916.918,-21.973,-25.879,-25.391,-35.645,0.000
1713985916.922,-23.438,-9.766,-29.785,-31.250,0.000
1713985916.926,-18.066,-10.742,-20.020,-35.645,0.000
1713985916.929,-20.020,-24.902,-21.484,-24.902,0.000
1713985916.933,-26.367,-42.480,-33.691,-35.156,0.000
1713985916.937,-20.996,-43.945,-26.855,-40.039,0.000
1713985916.941,-20.508,-33.203,-20.508,-48.828,0.000
1713985916.945,-27.344,-16.113,-27.832,-56.152,0.000
1713985916.950,-22.461,-16.602,-31.738,-54.199,0.000
1713985916.954,-17.578,-21.484,-25.391,-43.457,0.000
1713985916.958,-18.066,-29.297,-34.668,-45.410,0.000
1713985916.962,-12.695,-24.902,-33.691,-56.641,0.000
1713985916.965,-9.766,-20.508,-23.926,-53.223,0.000
1713985916.969,-8.301,-18.066,-22.461,-51.758,0.000
1713985916.973,-10.742,-17.090,-23.926,-56.641,0.000
1713985916.977,-16.602,-17.578,-28.320,-82.031,0.000
1713985916.981,-21.973,-29.785,-29.785,-91.309,0.000
1713985916.985,-21.484,-44.434,-34.180,-46.387,0.000
1713985916.989,-20.020,-36.621,-28.809,-17.090,0.000
1713985916.993,-28.320,-29.297,-20.996,-33.203,0.000
1713985916.996,-18.555,-25.879,-28.320,-48.340,0.000
1713985917.000,-14.160,-20.996,-27.832,-41.992,0.000
1713985917.004,-21.973,-23.926,-25.391,-41.016,0.000
1713985917.008,-19.531,-19.043,-30.762,-52.246,0.000
1713985917.011,-19.531,-10.742,-20.020,-62.500,0.000
1713985917.015,-17.090,-19.531,-14.648,-51.758,0.000
1713985917.019,-15.625,-32.715,-27.832,-43.945,0.000
1713985917.023,-13.184,-33.691,-28.809,-38.574,0.000
1713985917.027,-11.230,-23.926,-36.621,-28.320,0.000
1713985917.031,-18.555,-24.414,-42.969,-24.414,0.000
1713985917.035,-14.648,-26.855,-35.645,-19.531,0.000
1713985917.039,-8.789,-21.973,-34.668,-2.930,0.000
1713985917.043,-11.230,-21.484,-24.902,13.184,0.000
1713985917.047,-16.113,-20.020,-12.207,17.578,0.000
1713985917.051,-24.902,-22.461,-21.484,19.043,0.000
1713985917.055,-27.344,-33.203,-33.203,24.414,0.000
1713985917.059,-25.391,-28.809,-32.227,27.832,0.000
1713985917.063,-30.273,-23.926,-24.902,15.625,0.000
1713985917.067,-25.879,-22.949,-18.066,4.395,0.000
1713985917.071,-23.438,-22.949,-23.926,6.348,0.000
1713985917.074,-29.785,-28.320,-33.691,4.395,0.000
1713985917.078,-26.855,-27.832,-21.973,10.742,0.000
1713985917.082,-25.391,-28.320,-17.578,12.207,0.000
1713985917.086,-28.320,-33.203,-17.090,13.184,0.000
1713985917.090,-33.203,-30.762,-22.949,12.207,0.000
1713985917.094,-34.180,-25.879,-30.273,18.066,0.000
1713985917.098,-31.738,-29.297,-23.926,20.020,0.000
1713985917.102,-33.203,-36.133,-21.484,20.020,0.000
1713985917.106,-34.668,-42.969,-34.668,19.531,0.000
1713985917.110,-31.738,-35.156,-42.969,13.672,0.000
1713985917.114,-26.367,-22.949,-33.203,9.277,0.000
1713985917.118,-25.879,-20.020,-23.926,2.441,0.000
1713985917.122,-16.602,-23.926,-20.508,8.789,0.000
1713985917.126,-7.324,-17.578,-20.996,15.137,0.000
1713985917.129,-14.160,-14.648,-22.949,7.812,0.000
1713985917.133,-11.719,-17.578,-17.090,5.859,0.000
1713985917.137,-15.625,-19.531,-15.625,17.090,0.000
1713985917.141,-24.902,-20.996,-20.996,15.625,0.000
1713985917.145,-33.203,-17.578,-18.066,9.277,0.000
1713985917.149,-30.273,-8.789,-17.578,22.461,0.000
1713985917.153,-26.367,-10.742,-32.227,28.809,0.000
1713985917.157,-36.621,-20.996,-32.715,28.320,0.000
1713985917.161,-30.273,-31.738,-23.438,32.227,0.000
1713985917.165,-13.184,-30.273,-23.926,48.828,0.000
1713985917.169,-12.207,-19.531,-30.762,58.105,0.000
1713985917.173,-26.855,-20.996,-31.250,47.852,0.000
1713985917.176,-23.438,-30.762,-27.344,43.945,0.000
1713985917.180,-20.508,-35.645,-29.785,46.387,0.000
1713985917.184,-27.344,-29.785,-36.621,41.992,0.000
1713985917.188,-26.367,-24.414,-28.320,51.270,0.000
1713985917.192,-12.695,-19.531,-23.438,71.289,0.000
1713985917.196,-19.043,-7.324,-36.621,64.941,0.000
1713985917.200,-24.414,-10.742,-33.691,60.059,0.000
1713985917.204,-18.555,-20.508,-22.949,67.871,0.000
1713985917.208,-19.531,-25.879,-25.879,70.312,0.000
1713985917.212,-22.949,-43.457,-31.738,73.730,0.000
1713985917.215,-24.414,-36.621,-34.180,62.012,0.000
1713985917.219,-28.320,-21.973,-40.527,49.316,0.000
1713985917.223,-36.621,-27.344,-36.133,54.199,0.000
1713985917.227,-36.621,-30.762,-28.809,45.898,0.000
1713985917.231,-36.133,-27.344,-33.203,39.551,0.000
1713985917.235,-33.691,-21.973,-28.320,53.711,0.000
1713985917.239,-30.273,-12.695,-19.043,62.988,0.000
1713985917.242,-33.203,-11.230,-13.672,60.059,0.000
1713985917.246,-38.086,-19.531,-25.879,48.828,0.000
1713985917.250,-40.527,-24.902,-32.715,41.992,0.000
1713985917.254,-36.133,-26.367,-28.320,47.852,0.000
1713985917.258,-26.855,-21.973,-27.832,51.270,0.000
1713985917.262,-24.902,-18.555,-24.902,39.062,0.000
1713985917.266,-31.250,-20.508,-15.625,30.273,0.000
1713985917.270,-28.809,-20.020,-7.812,20.508,0.000
1713985917.274,-27.832,-16.602,-13.672,11.230,0.000
1713985917.277,-32.227,-19.043,-19.043,-8.301,0.000
1713985917.281,-33.691,-25.879,-18.555,-29.785,0.000
1713985917.285,-39.551,-26.855,-29.785,-44.434,0.000
1713985917.289,-40.527,-21.484,-35.645,-57.129,0.000
1713985917.293,-26.367,-20.508,-31.250,-45.898,0.000
1713985917.297,-14.160,-22.461,-28.809,-26.855,0.000
1713985917.301,-19.043,-19.043,-25.879,-21.484,0.000
1713985917.304,-25.391,-17.578,-20.508,-17.578,0.000
1713985917.308,-21.484,-17.578,-17.090,-15.625,0.000
1713985917.312,-18.066,-25.879,-19.531,-31.738,0.000
1713985917.316,-28.809,-39.062,-33.691,-45.410,0.000
1713985917.320,-31.250,-36.133,-42.480,-27.344,0.000
1713985917.323,-25.391,-24.414,-41.992,-4.883,0.000
1713985917.327,-29.297,-35.156,-34.180,6.836,0.000
1713985917.331,-34.180,-38.086,-31.250,15.625,0.000
1713985917.335,-22.461,-20.020,-27.344,22.461,0.000
1713985917.339,-17.578,-14.648,-17.090,11.230,0.000
1713985917.343,-28.809,-21.484,-20.020,-16.602,0.000
1713985917.347,-35.156,-28.320,-21.973,-31.738,0.000
1713985917.351,-34.668,-22.461,-21.973,-48.340,0.000
1713985917.355,-39.062,-21.973,-28.320,-61.035,0.000
1713985917.359,-32.227,-30.762,-22.461,-71.289,0.000
1713985917.362,-29.785,-35.645,-22.461,-86.426,0.000
1713985917.366,-37.109,-30.762,-38.574,-90.820,0.000
1713985917.371,-37.109,-24.414,-42.969,-72.754,0.000
1713985917.375,-29.297,-21.973,-30.762,-25.391,0.000
1713985917.379,-30.762,-18.066,-28.809,3.906,0.000
1713985917.383,-33.691,-17.578,-27.344,19.531,0.000
1713985917.387,-30.273,-34.668,-13.184,36.133,0.000
1713985917.390,-19.531,-35.645,-19.531,39.062,0.000
1713985917.394,-14.648,-29.785,-27.344,45.898,0.000
1713985917.398,-19.043,-24.414,-32.715,47.852,0.000
1713985917.402,-30.762,-25.391,-38.574,59.082,0.000
1713985917.406,-28.809,-35.645,-27.832,71.289,0.000
1713985917.410,-11.230,-11.230,-20.996,66.406,0.000
1713985917.414,-15.137,5.859,-30.273,52.246,0.000
1713985917.418,-33.691,-20.020,-37.109,21.484,0.000
1713985917.422,-24.414,-33.691,-24.902,15.137,0.000
1713985917.426,-7.812,-15.625,-16.113,36.133,0.000
1713985917.430,-22.949,-3.418,-34.668,30.273,0.000
1713985917.434,-41.992,-12.695,-43.945,16.113,0.000
1713985917.438,-41.016,-28.809,-46.387,15.625,0.000
1713985917.442,-27.832,-34.668,-41.504,1.953,0.000
1713985917.446,-16.113,-21.484,-26.367,-22.949,0.000
1713985917.450,-20.508,-11.230,-28.809,-37.109,0.000
1713985917.453,-24.902,-22.949,-29.297,-37.598,0.000
1713985917.457,-34.668,-26.367,-23.438,-37.109,0.000
1713985917.461,-35.645,-20.508,-30.273,-36.133,0.000
1713985917.465,-25.879,-31.250,-34.668,-16.602,0.000
1713985917.469,-30.762,-39.551,-33.691,16.113,0.000
1713985917.473,-25.391,-41.504,-31.738,40.527,0.000
1713985917.477,-20.996,-32.715,-30.273,60.059,0.000
1713985917.481,-32.715,-27.832,-39.551,38.086,0.000
1713985917.485,-31.250,-35.645,-40.527,-0.977,0.000
1713985917.489,-32.227,-44.922,-29.297,-12.207,0.000
1713985917.493,-32.227,-37.598,-22.949,-20.996,0.000
1713985917.497,-23.926,-33.691,-17.578,-10.254,0.000
1713985917.501,-29.297,-32.715,-13.184,20.020,0.000
1713985917.505,-37.598,-25.391,-26.855,50.293,0.000
1713985917.508,-28.320,-25.879,-24.414,75.684,0.000
1713985917.512,-20.996,-29.785,-14.160,82.031,0.000
1713985917.516,-27.344,-29.297,-20.996,66.895,0.000
1713985917.520,-33.203,-26.855,-26.855,55.176,0.000
1713985917.524,-35.645,-31.738,-26.367,39.062,0.000
1713985917.528,-35.645,-33.691,-22.949,6.348,0.000
1713985917.532,-36.133,-22.461,-12.207,-9.766,0.000
1713985917.536,-37.109,-20.508,-7.812,-20.508,0.000
1713985917.540,-33.691,-32.715,-19.043,-39.062,0.000
1713985917.544,-32.715,-34.180,-24.902,-34.668,0.000
1713985917.548,-40.039,-19.531,-22.949,-37.109,0.000
1713985917.551,-42.480,-16.602,-27.344,-30.273,0.000
1713985917.555,-44.922,-28.809,-26.367,-13.184,0.000
1713985917.559,-44.434,-38.574,-17.578,-7.324,0.000
1713985917.563,-34.180,-26.367,-17.578,-15.137,0.000
1713985917.567,-32.715,-17.578,-17.578,-25.879,0.000
1713985917.571,-38.086,-23.926,-23.926,-39.551,0.000
1713985917.575,-39.062,-23.438,-30.762,-51.758,0.000
1713985917.579,-44.434,-20.996,-22.949,-62.012,0.000
1713985917.583,-46.875,-19.043,-15.625,-71.289,0.000
1713985917.587,-57.129,-18.066,-12.207,-64.941,0.000
1713985917.590,-64.453,-19.043,-6.348,-69.336,0.000
1713985917.594,-62.988,-36.621,-5.859,-91.797,0.000
1713985917.598,-67.383,-34.180,-10.742,-104.980,0.000
1713985917.602,-67.383,-9.766,-6.836,-113.281,0.000
1713985917.606,-72.266,-3.906,-11.230,-135.254,0.000
1713985917.610,-76.660,-16.113,-28.320,-146.484,0.000
1713985917.614,-59.082,-20.020,-19.043,-140.137,0.000
1713985917.617,-49.316,-16.113,-0.977,-146.484,0.000
1713985917.621,-51.758,-6.348,0.000,-146.484,0.000
1713985917.625,-59.570,2.930,-4.395,-146.973,0.000
1713985917.629,-71.777,-9.277,-5.859,-152.344,0.000
1713985917.633,-97.656,-31.250,-8.789,-161.133,0.000
1713985917.637,-126.465,-24.902,-4.395,-164.551,0.000
1713985917.641,-149.414,-13.184,11.719,-168.945,0.000
1713985917.645,-172.852,-19.043,23.926,-189.453,0.000
1713985917.649,-190.430,-13.184,42.969,-237.305,0.000
1713985917.652,-217.285,-0.977,54.688,-281.738,0.000
1713985917.656,-245.605,5.371,51.758,-283.203,0.000
1713985917.660,-253.906,17.090,61.523,-268.555,0.000
1713985917.664,-260.742,16.113,70.801,-272.461,0.000
1713985917.668,-259.766,6.836,66.895,-270.020,0.000
1713985917.672,-256.836,23.926,69.824,-252.930,0.000
1713985917.676,-253.906,42.969,78.613,-235.840,0.000
1713985917.680,-231.934,39.062,80.078,-209.473,0.000
1713985917.683,-213.379,41.504,74.219,-176.270,0.000
1713985917.687,-195.801,34.668,72.266,-151.367,0.000
1713985917.691,-159.668,24.414,63.965,-112.793,0.000
1713985917.695,-131.836,6.348,34.668,-95.215,0.000
1713985917.699,-122.559,-16.113,19.531,-103.516,0.000
1713985917.702,-100.098,-19.531,15.137,-68.359,0.000
1713985917.706,-76.660,-1.953,3.418,-18.555,0.000
1713985917.710,-59.082,-5.371,-12.207,-2.930,0.000
1713985917.714,-43.945,-30.273,-20.996,-16.602,0.000
1713985917.718,-41.016,-39.062,-20.508,-35.645,0.000
1713985917.722,-28.809,-38.086,-26.367,-29.297,0.000
1713985917.726,-13.184,-37.109,-31.738,-29.297,0.000
1713985917.730,-20.020,-43.457,-33.691,-33.691,0.000
1713985917.734,-6.348,-43.457,-40.527,-1.953,0.000
1713985917.738,1.465,-38.086,-53.223,22.949,0.000
1713985917.742,7.324,-47.363,-57.129,42.480,0.000
1713985917.745,21.973,-65.918,-63.965,56.152,0.000
1713985917.749,24.414,-62.012,-76.660,40.039,0.000
1713985917.753,27.832,-52.246,-58.105,20.508,0.000
1713985917.756,34.180,-62.012,-48.340,20.508,0.000
1713985917.760,34.180,-58.105,-68.359,7.812,0.000
1713985917.764,43.945,-41.016,-73.242,5.371,0.000
1713985917.768,49.805,-37.598,-57.129,14.648,0.000
1713985917.772,50.781,-42.480,-56.152,-3.906,0.000
1713985917.776,53.711,-43.945,-68.359,-28.809,0.000
1713985917.780,48.828,-41.016,-66.895,-25.879,0.000
1713985917.784,52.246,-33.691,-61.035,-17.578,0.000
1713985917.788,57.129,-37.598,-66.895,-19.531,0.000
1713985917.792,50.293,-43.945,-80.566,-14.160,0.000
1713985917.796,37.598,-43.457,-89.355,-11.230,0.000
1713985917.800,38.574,-43.457,-85.938,-5.859,0.000
1713985917.804,38.574,-32.715,-85.449,0.000,0.000
1713985917.808,37.109,-37.598,-83.008,3.906,0.000
1713985917.812,46.875,-51.270,-72.754,9.277,0.000
1713985917.816,43.457,-36.621,-74.219,3.906,0.000
1713985917.819,34.180,-32.715,-79.102,-0.977,0.000
1713985917.823,40.039,-34.180,-70.312,-0.488,0.000
1713985917.827,44.922,-38.574,-66.895,12.695,0.000
1713985917.831,32.227,-42.969,-76.172,29.785,0.000
1713985917.835,31.250,-30.762,-72.754,44.922,0.000
1713985917.839,36.621,-33.203,-57.617,65.918,0.000
1713985917.843,39.551,-38.086,-58.105,92.285,0.000
1713985917.847,37.109,-36.621,-67.871,92.773,0.000
1713985917.851,28.320,-30.273,-70.801,85.449,0.000
1713985917.855,28.320,-31.250,-64.941,101.074,0.000
1713985917.859,23.438,-39.551,-54.688,95.215,0.000
1713985917.863,26.367,-34.180,-55.664,69.336,0.000
1713985917.867,25.879,-29.785,-61.523,63.477,0.000
1713985917.871,20.020,-30.273,-63.965,68.359,0.000
1713985917.875,20.996,-27.832,-62.500,64.941,0.000
1713985917.879,20.508,-32.715,-65.918,47.852,0.000
1713985917.882,18.066,-41.992,-67.383,42.969,0.000
1713985917.887,16.602,-39.062,-53.711,42.969,0.000
1713985917.890,20.996,-28.809,-36.133,49.316,0.000
1713985917.894,18.066,-34.668,-36.133,56.641,0.000
1713985917.898,9.766,-43.457,-46.387,59.082,0.000
1713985917.902,-0.488,-39.551,-51.758,50.781,0.000
1713985917.906,-0.488,-35.156,-55.664,42.969,0.000
1713985917.910,4.883,-33.691,-59.082,46.387,0.000
1713985917.914,-5.859,-32.715,-56.641,41.992,0.000
1713985917.918,-4.395,-27.832,-48.828,55.664,0.000
1713985917.922,-0.977,-30.273,-49.805,59.082,0.000
1713985917.926,1.953,-34.668,-42.480,49.805,0.000
1713985917.930,4.395,-26.855,-19.531,58.105,0.000
1713985917.933,-2.441,-21.484,-23.926,55.664,0.000
1713985917.937,-5.859,-33.203,-40.527,47.852,0.000
1713985917.941,-9.766,-37.109,-47.852,31.738,0.000
1713985917.945,-12.207,-26.367,-55.176,14.648,0.000
1713985917.949,-6.348,-19.531,-51.758,31.250,0.000
1713985917.953,-8.301,-33.691,-44.434,36.133,0.000
1713985917.957,-8.301,-42.969,-35.645,25.391,0.000
1713985917.961,-6.836,-37.598,-34.668,6.348,0.000
1713985917.965,-10.254,-39.062,-28.809,0.000,0.000
1713985917.969,-12.695,-32.715,-16.602,4.395,0.000
1713985917.972,-16.113,-20.020,-30.273,2.441,0.000
1713985917.976,-21.484,-22.461,-46.875,12.207,0.000
1713985917.980,-20.508,-27.832,-39.551,28.809,0.000
1713985917.984,-15.137,-30.273,-37.598,51.270,0.000
1713985917.988,-16.602,-35.156,-41.504,70.801,0.000
1713985917.992,-16.113,-35.645,-34.668,79.590,0.000
1713985917.996,-14.160,-41.504,-28.809,88.379,0.000
1713985918.000,-12.207,-36.133,-20.996,82.520,0.000
1713985918.003,-15.137,-17.578,-18.555,78.613,0.000
1713985918.007,-16.602,-20.996,-28.809,101.074,0.000
1713985918.011,-19.531,-28.809,-33.691,104.004,0.000
1713985918.015,-22.461,-28.320,-38.574,95.703,0.000
1713985918.019,-17.578,-18.555,-37.109,89.844,0.000
1713985918.023,-17.090,-22.461,-38.574,66.406,0.000
1713985918.027,-9.277,-27.832,-35.645,40.527,0.000
1713985918.030,-16.113,-20.020,-27.344,4.883,0.000
1713985918.034,-21.973,-23.438,-22.461,-10.742,0.000
1713985918.038,-22.461,-35.645,-24.902,-8.789,0.000
1713985918.042,-23.926,-32.227,-21.484,-18.555,0.000
1713985918.046,-22.461,-23.438,-24.902,-22.461,0.000
1713985918.050,-26.367,-30.273,-42.480,-20.996,0.000
1713985918.054,-26.855,-26.855,-36.133,5.371,0.000
1713985918.058,-12.695,-13.672,-29.785,17.090,0.000
1713985918.062,-10.254,-24.902,-36.621,14.160,0.000
1713985918.066,-28.320,-47.363,-35.645,2.441,0.000
1713985918.070,-29.297,-41.992,-25.391,9.277,0.000
1713985918.074,-19.531,-32.227,-22.461,25.391,0.000
1713985918.078,-6.836,-39.551,-22.461,26.855,0.000
1713985918.082,-14.648,-35.645,-32.715,14.160,0.000
1713985918.086,-26.367,-24.414,-35.156,12.695,0.000
1713985918.090,-17.090,-19.531,-31.250,8.789,0.000
1713985918.094,-8.789,-24.414,-29.785,-14.648,0.000
1713985918.098,-17.578,-45.410,-20.508,-15.137,0.000
1713985918.102,-23.926,-43.945,-14.160,-3.418,0.000
1713985918.106,-24.414,-38.086,-20.020,0.977,0.000
1713985918.109,-19.531,-30.762,-23.926,0.000,0.000
1713985918.113,-14.648,-16.602,-27.344,0.488,0.000
1713985918.117,-25.391,-22.949,-31.738,0.000,0.000
1713985918.120,-31.738,-31.738,-30.273,-0.977,0.000
1713985918.124,-23.438,-30.273,-25.879,16.113,0.000
1713985918.128,-23.926,-23.438,-23.926,25.391,0.000
1713985918.132,-22.461,-35.645,-23.926,26.855,0.000
1713985918.136,-21.484,-40.039,-21.484,31.250,0.000
1713985918.140,-22.461,-34.180,-18.555,36.621,0.000
1713985918.144,-22.461,-36.133,-9.766,39.062,0.000
1713985918.148,-24.414,-42.969,-17.090,32.715,0.000
1713985918.152,-29.785,-37.598,-36.133,25.391,0.000
1713985918.156,-22.461,-35.156,-26.855,42.969,0.000
1713985918.159,-14.160,-35.156,-17.090,51.270,0.000
1713985918.163,-23.438,-24.902,-31.250,41.992,0.000
1713985918.168,-25.391,-16.113,-30.762,44.922,0.000
1713985918.172,-19.043,-21.484,-30.762,33.203,0.000
1713985918.176,-19.531,-32.715,-36.133,27.832,0.000
1713985918.180,-11.719,-28.809,-20.996,52.734,0.000
1713985918.183,-5.859,-30.273,-21.973,62.012,0.000
1713985918.187,-15.137,-35.156,-24.414,63.477,0.000
1713985918.191,-17.090,-24.902,-26.855,59.570,0.000
1713985918.195,-19.043,-36.621,-34.180,44.922,0.000
1713985918.199,-32.715,-55.176,-40.039,31.250,0.000
1713985918.203,-33.691,-41.992,-43.945,31.738,0.000
1713985918.207,-25.391,-25.879,-33.691,35.645,0.000
1713985918.211,-24.414,-22.461,-24.414,28.809,0.000
1713985918.215,-17.578,-31.738,-20.996,26.855,0.000
1713985918.219,-17.090,-29.785,-16.602,33.691,0.000
1713985918.223,-13.184,-26.855,-12.695,53.711,0.000
1713985918.227,-8.301,-27.344,-14.160,61.035,0.000
1713985918.231,-13.184,-24.414,-19.043,48.828,0.000
1713985918.235,-22.949,-34.180,-26.367,49.805,0.000
1713985918.238,-25.391,-37.109,-27.344,26.855,0.000
1713985918.242,-25.391,-28.809,-16.602,0.977,0.000
1713985918.246,-31.250,-26.855,-21.973,-24.902,0.000
1713985918.250,-32.715,-29.785,-29.297,-60.059,0.000
1713985918.254,-30.273,-24.902,-25.879,-82.031,0.000
1713985918.258,-28.809,-29.297,-25.391,-90.820,0.000
