timestamps,TP9,AF7,AF8,TP10,Right AUX
1714026851.355,-24.414,-27.832,-21.973,-20.020,0.000
1714026851.359,-27.832,-31.250,-31.738,-25.879,0.000
1714026851.362,-30.762,-31.738,-35.645,-26.367,0.000
1714026851.366,-25.879,-16.602,-33.203,-20.508,0.000
1714026851.370,-24.902,-14.160,-28.320,-25.879,0.000
1714026851.374,-28.320,-24.902,-30.273,-26.367,0.000
1714026851.378,-21.973,-23.438,-36.133,-14.648,0.000
1714026851.382,-21.484,-18.555,-24.414,-19.531,0.000
1714026851.386,-23.926,-23.926,-22.949,-24.902,0.000
1714026851.390,-20.996,-28.320,-35.156,-26.367,0.000
1714026851.394,-15.625,-27.344,-29.297,-25.391,0.000
1714026851.398,-18.066,-29.297,-27.344,-18.066,0.000
1714026851.402,-23.438,-23.926,-35.645,-17.578,0.000
1714026851.405,-23.438,-16.113,-33.203,-21.973,0.000
1714026851.409,-20.996,-23.926,-26.855,-19.043,0.000
1714026851.413,-18.555,-26.367,-24.902,-14.648,0.000
1714026851.417,-21.484,-27.344,-33.203,-21.484,0.000
1714026851.421,-23.438,-34.668,-32.715,-22.949,0.000
1714026851.425,-20.508,-27.832,-30.273,-20.996,0.000
1714026851.429,-22.461,-24.902,-30.762,-14.648,0.000
1714026851.433,-25.879,-22.949,-28.320,-11.230,0.000
1714026851.437,-24.414,-20.508,-32.227,-21.484,0.000
1714026851.441,-23.438,-25.391,-34.180,-25.879,0.000
1714026851.444,-26.855,-31.250,-26.367,-21.484,0.000
1714026851.448,-28.320,-32.715,-23.926,-16.602,0.000
1714026851.452,-33.203,-31.250,-30.762,-21.484,0.000
1714026851.456,-35.645,-29.785,-28.320,-26.855,0.000
1714026851.460,-28.809,-30.762,-27.832,-23.926,0.000
1714026851.464,-25.879,-30.762,-32.715,-24.902,0.000
1714026851.468,-30.762,-34.180,-34.180,-30.273,0.000
1714026851.472,-28.320,-33.691,-31.738,-32.227,0.000
1714026851.476,-25.391,-26.855,-27.344,-26.367,0.000
1714026851.480,-29.297,-27.344,-23.926,-24.414,0.000
1714026851.484,-32.227,-39.062,-31.250,-24.414,0.000
1714026851.487,-33.691,-33.691,-32.227,-25.879,0.000
1714026851.491,-32.715,-23.926,-30.762,-25.391,0.000
1714026851.495,-28.320,-27.344,-34.668,-21.484,0.000
1714026851.499,-26.855,-30.273,-26.855,-19.043,0.000
1714026851.503,-23.926,-25.879,-29.297,-21.484,0.000
1714026851.507,-20.996,-26.367,-39.062,-23.438,0.000
1714026851.511,-21.484,-30.762,-32.227,-19.531,0.000
1714026851.515,-23.438,-24.902,-31.738,-21.973,0.000
1714026851.519,-26.855,-28.809,-27.832,-28.320,0.000
1714026851.523,-29.297,-33.203,-13.672,-25.391,0.000
1714026851.527,-29.785,-24.414,-15.137,-15.137,0.000
1714026851.530,-30.762,-26.367,-20.020,-13.672,0.000
1714026851.534,-28.809,-25.879,-20.020,-26.367,0.000
1714026851.538,-32.715,-22.461,-29.297,-34.668,0.000
1714026851.542,-33.203,-24.902,-35.645,-22.461,0.000
1714026851.546,-22.949,-31.738,-27.832,-15.625,0.000
1714026851.550,-22.461,-30.762,-33.691,-22.461,0.000
1714026851.554,-24.902,-22.949,-45.410,-28.320,0.000
1714026851.558,-26.367,-24.414,-33.691,-29.297,0.000
1714026851.562,-28.320,-29.785,-27.344,-23.926,0.000
1714026851.566,-26.367,-20.508,-42.969,-25.879,0.000
1714026851.570,-24.414,-17.578,-46.875,-31.250,0.000
1714026851.573,-27.344,-25.879,-32.715,-28.809,0.000
1714026851.577,-30.273,-25.879,-25.391,-25.879,0.000
1714026851.581,-32.715,-22.461,-33.691,-29.297,0.000
1714026851.585,-29.297,-20.996,-35.156,-28.320,0.000
1714026851.589,-32.227,-31.250,-27.344,-33.203,0.000
1714026851.593,-40.039,-39.062,-27.832,-36.133,0.000
1714026851.597,-36.621,-34.180,-28.320,-29.785,0.000
1714026851.601,-37.598,-32.227,-38.086,-37.598,0.000
1714026851.605,-41.504,-25.391,-46.387,-39.062,0.000
1714026851.609,-37.109,-22.949,-41.016,-34.668,0.000
1714026851.612,-37.598,-25.391,-35.156,-35.645,0.000
1714026851.616,-38.574,-33.691,-36.621,-27.344,0.000
1714026851.620,-35.156,-38.574,-44.434,-28.809,0.000
1714026851.624,-30.273,-23.438,-44.922,-38.086,0.000
1714026851.628,-28.809,-21.484,-44.434,-32.227,0.000
1714026851.632,-30.762,-24.414,-35.645,-31.738,0.000
1714026851.636,-34.180,-24.414,-23.926,-36.133,0.000
1714026851.640,-35.156,-30.273,-22.949,-32.715,0.000
1714026851.644,-35.156,-31.738,-28.320,-28.320,0.000
1714026851.648,-39.551,-30.273,-38.574,-35.645,0.000
1714026851.652,-36.133,-29.297,-41.016,-42.969,0.000
1714026851.655,-31.738,-30.273,-41.016,-41.016,0.000
1714026851.659,-28.320,-31.250,-41.016,-28.320,0.000
1714026851.663,-26.855,-33.691,-33.691,-18.555,0.000
1714026851.667,-27.832,-31.738,-25.879,-24.902,0.000
1714026851.671,-22.949,-32.715,-29.785,-25.391,0.000
1714026851.675,-27.344,-35.156,-33.691,-26.855,0.000
1714026851.679,-38.086,-39.062,-38.574,-36.621,0.000
1714026851.683,-33.203,-37.598,-41.992,-38.086,0.000
1714026851.687,-25.879,-28.320,-37.109,-36.621,0.000
1714026851.691,-24.414,-31.250,-32.227,-32.715,0.000
1714026851.695,-22.949,-33.203,-34.180,-29.785,0.000
1714026851.698,-27.344,-26.367,-30.273,-29.785,0.000
1714026851.702,-23.926,-22.949,-27.832,-26.855,0.000
1714026851.706,-22.949,-28.809,-41.016,-26.367,0.000
1714026851.710,-34.180,-34.668,-45.898,-27.344,0.000
1714026851.714,-33.691,-26.855,-34.180,-25.391,0.000
1714026851.718,-29.785,-26.367,-23.438,-28.809,0.000
1714026851.722,-36.133,-25.391,-22.461,-36.133,0.000
1714026851.726,-35.645,-12.207,-23.438,-27.832,0.000
1714026851.730,-31.738,-15.625,-23.438,-21.484,0.000
1714026851.734,-32.715,-30.273,-25.879,-27.832,0.000
1714026851.737,-29.297,-30.762,-37.109,-30.273,0.000
1714026851.741,-37.109,-28.320,-48.340,-39.551,0.000
1714026851.745,-34.180,-23.926,-32.227,-39.551,0.000
1714026851.749,-27.832,-22.949,-16.602,-33.691,0.000
1714026851.753,-37.598,-28.809,-23.438,-40.527,0.000
1714026851.757,-39.551,-28.809,-23.926,-40.527,0.000
1714026851.761,-31.250,-27.344,-21.973,-34.180,0.000
1714026851.765,-27.832,-21.484,-30.273,-35.156,0.000
1714026851.769,-35.645,-21.484,-33.691,-36.133,0.000
1714026851.773,-35.156,-27.344,-27.344,-31.250,0.000
1714026851.777,-29.297,-29.785,-24.414,-17.578,0.000
1714026851.780,-32.227,-25.879,-30.762,-12.695,0.000
1714026851.784,-33.203,-23.438,-34.668,-26.855,0.000
1714026851.788,-31.250,-20.996,-32.227,-32.227,0.000
1714026851.792,-31.250,-23.926,-32.227,-27.832,0.000
1714026851.796,-29.785,-29.297,-34.668,-20.996,0.000
1714026851.800,-27.832,-31.250,-34.180,-21.484,0.000
1714026851.804,-27.832,-26.855,-29.297,-27.832,0.000
1714026851.808,-26.367,-17.578,-27.832,-34.180,0.000
1714026851.812,-26.855,-22.461,-27.344,-29.785,0.000
1714026851.816,-26.367,-29.297,-26.855,-26.855,0.000
1714026851.819,-25.879,-24.414,-27.344,-34.668,0.000
1714026851.823,-28.320,-33.203,-34.668,-33.203,0.000
1714026851.827,-27.344,-34.668,-33.203,-23.926,0.000
1714026851.831,-21.484,-21.973,-19.531,-19.531,0.000
1714026851.835,-20.996,-25.879,-18.555,-22.461,0.000
1714026851.839,-27.832,-30.762,-22.949,-29.297,0.000
1714026851.843,-29.297,-27.832,-28.809,-31.738,0.000
1714026851.847,-28.320,-25.391,-31.250,-27.344,0.000
1714026851.851,-24.414,-28.809,-29.297,-28.809,0.000
1714026851.855,-23.438,-38.086,-36.133,-24.902,0.000
1714026851.859,-24.414,-32.227,-46.387,-17.578,0.000
1714026851.862,-21.973,-26.855,-35.156,-18.555,0.000
1714026851.866,-24.902,-33.203,-25.391,-25.391,0.000
1714026851.870,-28.320,-31.738,-35.645,-36.133,0.000
1714026851.874,-29.297,-38.086,-36.133,-38.086,0.000
1714026851.878,-27.832,-38.574,-28.809,-30.273,0.000
1714026851.882,-27.344,-34.180,-34.668,-25.391,0.000
1714026851.886,-22.949,-26.367,-31.250,-29.297,0.000
1714026851.890,-19.531,-21.973,-23.438,-27.344,0.000
1714026851.894,-22.461,-24.902,-29.297,-25.391,0.000
1714026851.898,-24.414,-21.973,-30.273,-28.320,0.000
1714026851.902,-30.273,-24.902,-24.902,-26.367,0.000
1714026851.905,-28.809,-26.855,-21.973,-25.391,0.000
1714026851.909,-25.879,-21.484,-21.973,-31.738,0.000
1714026851.913,-28.809,-25.879,-23.438,-28.320,0.000
1714026851.917,-25.391,-27.832,-24.414,-24.414,0.000
1714026851.921,-26.367,-29.297,-30.762,-26.855,0.000
1714026851.925,-34.668,-34.180,-37.598,-32.227,0.000
1714026851.929,-35.156,-32.227,-38.574,-31.738,0.000
1714026851.933,-29.785,-33.203,-31.250,-22.949,0.000
1714026851.937,-24.902,-33.691,-30.762,-26.855,0.000
1714026851.941,-27.832,-33.691,-35.645,-30.762,0.000
1714026851.945,-31.250,-35.156,-35.156,-26.855,0.000
1714026851.948,-28.809,-30.273,-39.551,-20.508,0.000
1714026851.952,-24.414,-21.973,-30.762,-22.461,0.000
1714026851.956,-23.926,-22.949,-28.809,-29.785,0.000
1714026851.960,-25.879,-33.203,-38.086,-30.273,0.000
1714026851.964,-14.160,-32.715,-36.133,-20.508,0.000
1714026851.968,-11.719,-26.367,-21.484,-17.578,0.000
1714026851.972,-26.367,-21.484,-17.090,-28.320,0.000
1714026851.976,-28.809,-23.926,-25.391,-29.297,0.000
1714026851.980,-25.879,-31.738,-25.879,-25.391,0.000
1714026851.984,-28.320,-27.832,-28.320,-37.109,0.000
1714026851.987,-23.926,-21.973,-29.297,-38.574,0.000
1714026851.991,-20.508,-26.367,-25.391,-30.762,0.000
1714026851.995,-20.996,-30.762,-25.391,-26.367,0.000
1714026851.999,-13.184,-31.250,-24.414,-24.414,0.000
1714026852.003,-10.742,-28.320,-20.020,-27.832,0.000
1714026852.007,-12.207,-29.785,-21.973,-30.762,0.000
1714026852.011,-15.625,-29.785,-31.738,-27.832,0.000
1714026852.015,-20.020,-17.578,-33.203,-21.973,0.000
1714026852.019,-18.555,-15.625,-19.531,-20.020,0.000
1714026852.023,-26.855,-23.438,-14.648,-21.484,0.000
1714026852.027,-28.320,-32.227,-26.855,-16.113,0.000
1714026852.030,-24.902,-33.203,-30.273,-12.207,0.000
1714026852.034,-29.785,-23.438,-25.879,-16.602,0.000
1714026852.038,-27.832,-18.555,-22.461,-14.160,0.000
1714026852.042,-29.785,-22.949,-16.602,-16.602,0.000
1714026852.046,-39.551,-34.668,-22.461,-24.902,0.000
1714026852.050,-41.504,-29.785,-23.926,-28.320,0.000
1714026852.054,-38.574,-20.508,-21.973,-28.809,0.000
1714026852.058,-38.574,-28.320,-32.715,-25.391,0.000
1714026852.062,-38.086,-27.832,-41.016,-23.438,0.000
1714026852.066,-39.062,-29.297,-40.039,-33.691,0.000
1714026852.069,-37.598,-36.621,-33.691,-32.715,0.000
1714026852.073,-35.645,-27.344,-30.273,-27.344,0.000
1714026852.077,-34.668,-25.879,-31.250,-25.879,0.000
1714026852.081,-30.762,-32.227,-31.250,-19.043,0.000
1714026852.085,-32.227,-25.391,-27.832,-15.137,0.000
1714026852.089,-37.598,-17.578,-23.926,-25.391,0.000
1714026852.093,-33.691,-24.414,-17.578,-28.320,0.000
1714026852.097,-27.344,-30.273,-13.184,-23.438,0.000
1714026852.101,-30.762,-29.297,-10.742,-26.367,0.000
1714026852.105,-33.203,-28.320,-15.625,-31.738,0.000
1714026852.109,-33.203,-33.203,-33.203,-35.156,0.000
1714026852.112,-26.367,-30.273,-31.250,-29.297,0.000
1714026852.116,-17.578,-27.344,-25.391,-26.855,0.000
1714026852.120,-24.414,-34.180,-34.180,-31.250,0.000
1714026852.124,-28.320,-34.668,-27.832,-30.762,0.000
1714026852.128,-25.879,-27.344,-18.555,-23.926,0.000
1714026852.132,-27.344,-25.879,-22.461,-30.762,0.000
1714026852.136,-26.367,-32.715,-26.855,-34.668,0.000
1714026852.140,-24.902,-32.715,-31.250,-28.809,0.000
1714026852.144,-25.879,-31.738,-34.668,-25.391,0.000
1714026852.148,-22.949,-25.879,-25.879,-24.902,0.000
1714026852.152,-16.113,-20.996,-22.949,-24.414,0.000
1714026852.155,-12.695,-18.555,-29.785,-20.996,0.000
1714026852.159,-18.555,-21.484,-29.297,-25.879,0.000
1714026852.163,-21.973,-22.949,-35.645,-23.926,0.000
1714026852.167,-19.043,-29.297,-45.898,-25.879,0.000
1714026852.171,-20.996,-30.762,-43.945,-32.715,0.000
1714026852.175,-24.414,-27.344,-29.785,-28.320,0.000
1714026852.179,-23.926,-26.367,-20.508,-26.367,0.000
1714026852.183,-21.973,-22.949,-26.855,-31.250,0.000
1714026852.187,-25.879,-28.320,-33.691,-21.484,0.000
1714026852.191,-26.367,-25.879,-42.969,-19.043,0.000
1714026852.194,-26.855,-24.902,-51.270,-24.902,0.000
1714026852.198,-26.367,-30.762,-49.805,-20.508,0.000
1714026852.202,-26.855,-31.250,-45.410,-29.785,0.000
1714026852.206,-25.879,-27.832,-35.156,-35.156,0.000
1714026852.210,-22.461,-33.203,-19.043,-26.367,0.000
1714026852.214,-21.973,-40.039,-16.602,-26.367,0.000
1714026852.218,-20.020,-32.715,-27.832,-23.926,0.000
1714026852.222,-22.461,-25.391,-39.551,-27.344,0.000
1714026852.226,-24.902,-21.973,-41.992,-34.180,0.000
1714026852.230,-27.832,-28.809,-38.086,-35.645,0.000
1714026852.234,-31.250,-36.621,-42.480,-39.551,0.000
1714026852.237,-24.414,-32.227,-31.738,-36.621,0.000
1714026852.241,-27.832,-25.391,-16.602,-30.762,0.000
1714026852.245,-35.156,-24.902,-20.020,-24.902,0.000
1714026852.249,-26.855,-22.949,-24.414,-23.926,0.000
1714026852.253,-27.832,-24.902,-32.715,-30.273,0.000
1714026852.257,-31.250,-24.414,-33.691,-30.273,0.000
1714026852.261,-33.691,-22.461,-30.273,-22.461,0.000
1714026852.265,-32.715,-24.414,-25.391,-27.344,0.000
1714026852.269,-27.344,-22.461,-19.531,-30.762,0.000
1714026852.273,-28.320,-26.367,-25.879,-31.250,0.000
1714026852.277,-22.461,-36.621,-39.062,-26.855,0.000
1714026852.280,-21.973,-28.809,-40.527,-27.832,0.000
1714026852.284,-24.902,-19.531,-34.668,-40.527,0.000
1714026852.288,-25.879,-30.762,-35.156,-44.434,0.000
1714026852.292,-30.762,-24.902,-38.086,-41.016,0.000
1714026852.296,-30.273,-15.137,-24.414,-31.738,0.000
1714026852.300,-34.668,-21.973,-21.484,-38.086,0.000
1714026852.304,-39.062,-25.879,-41.992,-45.898,0.000
1714026852.308,-39.551,-28.320,-44.434,-44.922,0.000
1714026852.312,-37.109,-27.832,-36.621,-37.109,0.000
1714026852.316,-41.504,-30.273,-43.945,-37.109,0.000
1714026852.319,-38.086,-29.785,-39.062,-26.855,0.000
1714026852.323,-34.180,-27.344,-35.645,-20.996,0.000
1714026852.327,-36.621,-18.555,-37.598,-34.180,0.000
1714026852.331,-26.855,-19.531,-29.785,-29.297,0.000
1714026852.335,-31.738,-27.344,-33.203,-29.785,0.000
1714026852.339,-39.551,-29.785,-40.039,-39.551,0.000
1714026852.343,-38.574,-27.832,-40.039,-42.969,0.000
1714026852.347,-42.480,-24.414,-38.086,-35.645,0.000
1714026852.351,-41.504,-22.461,-29.785,-30.762,0.000
1714026852.355,-36.621,-21.973,-23.438,-31.738,0.000
1714026852.359,-35.645,-23.926,-26.855,-29.297,0.000
1714026852.362,-35.645,-25.391,-30.273,-32.227,0.000
1714026852.366,-31.250,-22.949,-27.832,-26.855,0.000
1714026852.370,-28.320,-16.602,-31.250,-25.391,0.000
1714026852.374,-34.180,-20.020,-35.645,-28.809,0.000
1714026852.378,-35.156,-22.949,-32.715,-32.715,0.000
1714026852.382,-29.785,-25.391,-30.762,-38.574,0.000
1714026852.386,-33.691,-35.156,-31.250,-43.945,0.000
1714026852.390,-37.598,-37.598,-25.391,-46.875,0.000
1714026852.394,-31.738,-28.809,-21.973,-36.133,0.000
1714026852.398,-31.738,-31.250,-33.691,-35.156,0.000
1714026852.402,-31.738,-32.715,-39.062,-41.504,0.000
1714026852.405,-30.273,-28.809,-27.832,-40.039,0.000
1714026852.409,-30.762,-29.297,-29.785,-34.180,0.000
1714026852.413,-32.227,-32.227,-35.645,-30.273,0.000
1714026852.417,-31.738,-35.645,-25.391,-34.668,0.000
1714026852.421,-28.320,-35.645,-18.555,-37.109,0.000
1714026852.425,-28.320,-34.668,-33.203,-34.668,0.000
1714026852.429,-26.855,-37.598,-30.273,-26.855,0.000
1714026852.433,-33.203,-37.109,-25.391,-27.832,0.000
1714026852.437,-38.086,-30.762,-28.809,-38.086,0.000
1714026852.441,-33.691,-28.809,-23.926,-35.156,0.000
1714026852.444,-33.203,-29.785,-28.809,-29.297,0.000
1714026852.448,-29.297,-20.508,-30.273,-21.973,0.000
1714026852.452,-26.855,-18.555,-32.715,-18.555,0.000
1714026852.456,-27.832,-27.344,-35.645,-19.531,0.000
1714026852.460,-26.855,-32.715,-31.738,-15.625,0.000
1714026852.464,-30.762,-32.227,-35.156,-17.578,0.000
1714026852.468,-33.203,-26.855,-40.527,-23.926,0.000
1714026852.472,-35.645,-33.203,-35.156,-31.738,0.000
1714026852.476,-34.668,-40.527,-30.273,-32.715,0.000
1714026852.480,-28.809,-32.715,-27.832,-33.203,0.000
1714026852.484,-25.879,-29.785,-27.832,-35.645,0.000
1714026852.487,-24.902,-30.273,-24.902,-30.273,0.000
1714026852.491,-28.320,-30.762,-32.227,-28.320,0.000
1714026852.495,-30.762,-36.133,-39.551,-28.320,0.000
1714026852.499,-25.391,-38.574,-29.297,-27.344,0.000
1714026852.503,-21.973,-36.133,-26.367,-26.367,0.000
1714026852.507,-22.461,-31.250,-19.531,-23.926,0.000
1714026852.511,-28.320,-24.414,-20.508,-24.414,0.000
1714026852.515,-30.762,-26.367,-34.180,-21.484,0.000
1714026852.519,-27.344,-28.809,-36.133,-22.461,0.000
1714026852.523,-34.180,-28.320,-35.645,-28.320,0.000
1714026852.527,-36.621,-26.367,-37.109,-30.273,0.000
1714026852.530,-30.762,-26.855,-31.738,-29.297,0.000
1714026852.534,-27.344,-25.391,-29.785,-32.715,0.000
1714026852.538,-25.391,-23.926,-24.414,-32.227,0.000
1714026852.542,-23.438,-29.297,-22.949,-21.973,0.000
1714026852.546,-21.973,-27.344,-21.484,-13.672,0.000
1714026852.550,-20.996,-20.020,-26.367,-16.113,0.000
1714026852.554,-21.484,-21.973,-34.668,-25.879,0.000
1714026852.558,-22.949,-27.832,-31.250,-30.273,0.000
1714026852.562,-24.902,-29.785,-29.297,-25.879,0.000
1714026852.566,-22.461,-21.484,-27.832,-17.090,0.000
1714026852.569,-23.926,-22.949,-33.691,-23.438,0.000
1714026852.573,-28.320,-27.832,-31.738,-26.855,0.000
1714026852.577,-26.367,-27.344,-20.508,-16.602,0.000
1714026852.581,-25.391,-22.949,-24.414,-19.531,0.000
1714026852.585,-28.320,-20.996,-25.391,-26.367,0.000
1714026852.589,-33.203,-32.227,-26.855,-30.762,0.000
1714026852.593,-32.715,-34.668,-32.227,-33.203,0.000
1714026852.597,-28.320,-27.344,-16.602,-22.461,0.000
1714026852.601,-21.973,-22.949,-10.254,-15.625,0.000
1714026852.605,-20.996,-16.602,-19.531,-21.973,0.000
1714026852.609,-27.344,-21.973,-23.438,-24.414,0.000
1714026852.612,-27.832,-28.320,-29.785,-29.297,0.000
1714026852.616,-28.809,-22.949,-31.738,-33.203,0.000
1714026852.620,-25.879,-23.926,-29.297,-30.762,0.000
1714026852.624,-22.461,-22.949,-28.320,-31.250,0.000
1714026852.628,-20.508,-16.113,-21.484,-27.832,0.000
1714026852.632,-26.367,-21.973,-18.066,-31.250,0.000
1714026852.636,-31.250,-29.297,-22.949,-34.668,0.000
1714026852.640,-34.180,-32.715,-27.832,-31.250,0.000
1714026852.644,-37.109,-34.668,-30.762,-21.973,0.000
1714026852.648,-35.156,-34.668,-33.203,-18.555,0.000
1714026852.652,-30.273,-35.156,-37.598,-23.926,0.000
1714026852.655,-27.832,-34.180,-32.227,-22.461,0.000
1714026852.659,-24.902,-24.902,-20.020,-23.926,0.000
1714026852.663,-18.555,-27.344,-24.902,-22.461,0.000
1714026852.667,-19.043,-31.738,-36.133,-20.508,0.000
1714026852.671,-19.043,-20.996,-34.180,-22.461,0.000
1714026852.675,-20.508,-24.414,-31.250,-22.949,0.000
1714026852.679,-28.320,-24.902,-34.668,-20.996,0.000
1714026852.683,-33.691,-22.949,-29.785,-25.391,0.000
1714026852.687,-33.691,-31.250,-33.203,-27.832,0.000
1714026852.691,-31.738,-31.738,-24.414,-24.902,0.000
1714026852.694,-31.738,-31.738,-17.090,-21.973,0.000
1714026852.698,-28.320,-33.203,-32.715,-20.508,0.000
1714026852.702,-30.762,-27.832,-37.598,-28.320,0.000
1714026852.706,-40.527,-23.926,-34.668,-31.250,0.000
1714026852.710,-39.551,-23.926,-31.250,-21.973,0.000
1714026852.714,-27.344,-17.090,-26.855,-13.184,0.000
1714026852.718,-22.949,-15.625,-23.438,-17.578,0.000
1714026852.722,-18.555,-25.879,-22.949,-23.926,0.000
1714026852.726,-18.066,-29.297,-28.320,-22.461,0.000
1714026852.730,-21.484,-25.391,-32.715,-14.648,0.000
1714026852.734,-21.973,-20.996,-33.203,-14.160,0.000
1714026852.737,-25.391,-23.438,-29.297,-28.320,0.000
1714026852.741,-27.344,-30.273,-23.926,-24.902,0.000
1714026852.745,-30.762,-32.715,-26.855,-23.926,0.000
1714026852.749,-33.203,-27.832,-17.578,-36.621,0.000
1714026852.753,-36.621,-24.902,-16.602,-39.551,0.000
1714026852.757,-37.109,-30.762,-26.367,-39.062,0.000
1714026852.761,-36.133,-40.527,-26.367,-37.598,0.000
1714026852.765,-38.574,-30.762,-23.926,-36.621,0.000
1714026852.769,-35.156,-20.996,-29.297,-33.691,0.000
1714026852.773,-37.109,-24.902,-36.133,-28.809,0.000
1714026852.777,-39.062,-24.414,-27.832,-29.297,0.000
1714026852.780,-37.598,-27.344,-24.902,-30.762,0.000
1714026852.784,-35.156,-28.320,-34.180,-28.320,0.000
1714026852.788,-35.156,-24.414,-40.039,-27.344,0.000
1714026852.792,-36.133,-24.902,-28.320,-27.344,0.000
1714026852.796,-30.273,-25.391,-20.996,-24.902,0.000
1714026852.800,-28.320,-20.020,-21.973,-30.762,0.000
1714026852.804,-26.367,-15.625,-20.508,-27.832,0.000
1714026852.808,-25.391,-18.066,-26.855,-22.461,0.000
1714026852.812,-25.879,-19.531,-35.156,-24.902,0.000
1714026852.816,-24.414,-22.461,-29.297,-23.438,0.000
1714026852.819,-28.320,-27.832,-30.762,-22.461,0.000
1714026852.823,-27.344,-25.879,-35.645,-18.555,0.000
1714026852.827,-25.879,-24.902,-28.320,-20.508,0.000
1714026852.831,-23.438,-29.297,-14.160,-12.207,0.000
1714026852.835,-21.973,-22.949,-7.324,-12.207,0.000
1714026852.839,-21.484,-22.949,-21.973,-28.809,0.000
1714026852.843,-22.949,-24.902,-29.785,-25.391,0.000
1714026852.847,-23.926,-13.184,-20.020,-27.344,0.000
1714026852.851,-23.926,-20.996,-18.066,-38.086,0.000
1714026852.855,-23.438,-21.484,-24.414,-40.039,0.000
1714026852.859,-17.578,-13.184,-22.461,-41.504,0.000
1714026852.862,-11.230,-13.184,-14.160,-36.133,0.000
1714026852.866,-8.789,-11.719,-21.484,-31.738,0.000
1714026852.870,-15.137,-17.090,-33.691,-35.156,0.000
1714026852.874,-17.578,-15.625,-26.855,-28.320,0.000
1714026852.878,-21.973,-22.949,-14.648,-21.484,0.000
1714026852.882,-35.156,-34.180,-21.973,-30.273,0.000
1714026852.886,-36.621,-26.367,-26.367,-34.180,0.000
1714026852.890,-34.180,-22.949,-21.973,-25.391,0.000
1714026852.894,-34.668,-26.367,-16.602,-15.137,0.000
1714026852.898,-35.645,-26.367,-21.973,-20.996,0.000
1714026852.902,-34.668,-28.320,-30.762,-30.762,0.000
1714026852.905,-32.227,-28.809,-24.414,-33.203,0.000
1714026852.909,-27.832,-22.949,-21.484,-28.320,0.000
1714026852.913,-32.227,-27.344,-29.297,-25.879,0.000
1714026852.917,-38.574,-36.621,-28.320,-33.691,0.000
1714026852.921,-38.086,-37.598,-28.320,-36.133,0.000
1714026852.925,-43.457,-35.156,-42.969,-36.133,0.000
1714026852.929,-44.434,-37.109,-46.387,-35.645,0.000
1714026852.933,-34.668,-37.109,-36.621,-35.156,0.000
1714026852.937,-39.062,-38.574,-33.203,-38.574,0.000
1714026852.941,-46.875,-29.297,-32.715,-41.504,0.000
1714026852.944,-45.898,-24.414,-29.785,-38.574,0.000
1714026852.948,-39.062,-30.762,-22.461,-25.879,0.000
1714026852.952,-36.621,-30.273,-18.066,-28.809,0.000
1714026852.956,-40.039,-27.832,-25.391,-41.016,0.000
1714026852.960,-41.504,-29.297,-33.203,-40.039,0.000
1714026852.964,-35.645,-26.855,-24.902,-29.785,0.000
1714026852.968,-30.762,-28.809,-20.508,-19.531,0.000
1714026852.972,-32.715,-32.227,-32.227,-21.484,0.000
1714026852.976,-33.691,-26.855,-26.855,-22.949,0.000
1714026852.980,-29.297,-37.598,-19.043,-17.578,0.000
1714026852.984,-25.879,-43.945,-29.785,-16.113,0.000
1714026852.987,-25.879,-25.879,-17.090,-19.531,0.000
1714026852.991,-23.438,-22.461,-13.184,-19.531,0.000
1714026852.995,-23.926,-24.902,-31.250,-21.973,0.000
1714026852.999,-21.484,-26.855,-24.902,-22.461,0.000
1714026853.003,-21.973,-22.461,-14.160,-22.461,0.000
1714026853.007,-26.367,-20.996,-18.066,-23.438,0.000
1714026853.011,-28.809,-22.461,-27.344,-26.367,0.000
1714026853.015,-27.832,-20.020,-25.879,-30.762,0.000
1714026853.019,-30.762,-28.320,-18.555,-31.738,0.000
1714026853.023,-35.645,-29.785,-21.973,-31.738,0.000
1714026853.026,-32.715,-27.344,-24.902,-26.855,0.000
1714026853.030,-27.832,-22.949,-20.996,-23.926,0.000
1714026853.034,-20.508,-17.090,-16.113,-23.926,0.000
1714026853.038,-21.973,-18.555,-25.879,-30.273,0.000
1714026853.042,-34.668,-28.809,-34.180,-43.945,0.000
1714026853.046,-34.180,-32.227,-23.438,-42.969,0.000
1714026853.050,-21.484,-28.320,-20.020,-36.133,0.000
1714026853.054,-22.461,-29.297,-28.320,-41.992,0.000
1714026853.058,-25.391,-27.832,-28.809,-37.109,0.000
1714026853.062,-22.949,-18.066,-16.602,-31.738,0.000
1714026853.066,-21.973,-12.695,-13.672,-36.133,0.000
1714026853.069,-20.508,-10.742,-28.809,-37.598,0.000
1714026853.073,-32.227,-14.160,-28.809,-42.480,0.000
1714026853.077,-32.715,-21.973,-21.484,-42.969,0.000
1714026853.081,-30.762,-25.879,-35.645,-36.621,0.000
1714026853.085,-30.762,-23.926,-35.645,-38.574,0.000
1714026853.089,-35.645,-17.090,-19.531,-50.781,0.000
1714026853.093,-42.480,-12.207,0.000,-54.688,0.000
1714026853.097,-63.477,-21.973,-10.742,-68.359,0.000
1714026853.101,-84.473,-33.203,-26.367,-87.402,0.000
1714026853.105,-88.867,-30.273,-23.438,-99.609,0.000
1714026853.109,-97.168,-31.250,-28.809,-108.887,0.000
1714026853.112,-106.934,-32.227,-29.785,-115.234,0.000
1714026853.116,-127.930,-28.809,-27.344,-132.812,0.000
1714026853.120,-137.207,-12.695,-24.902,-143.555,0.000
1714026853.124,-125.000,2.441,-12.695,-140.137,0.000
1714026853.128,-124.023,-8.789,0.000,-140.625,0.000
1714026853.132,-125.488,1.953,-9.277,-148.438,0.000
1714026853.136,-111.328,21.484,-27.344,-141.602,0.000
1714026853.140,-99.121,18.066,-41.016,-130.859,0.000
1714026853.144,-83.008,19.531,-46.387,-109.375,0.000
1714026853.148,-70.801,20.996,-41.504,-95.215,0.000
1714026853.152,-67.871,17.090,-40.527,-93.750,0.000
1714026853.155,-50.781,13.184,-55.176,-80.078,0.000
1714026853.159,-42.480,4.883,-58.594,-70.312,0.000
1714026853.163,-25.391,-0.488,-61.035,-53.223,0.000
1714026853.167,-9.766,3.906,-68.359,-52.734,0.000
1714026853.171,-18.555,1.953,-71.289,-62.988,0.000
1714026853.175,-4.883,-3.906,-75.684,-46.875,0.000
1714026853.179,4.883,-8.301,-69.336,-31.738,0.000
1714026853.183,7.324,-10.254,-66.406,-22.461,0.000
1714026853.187,23.438,-12.207,-66.895,-7.324,0.000
1714026853.191,27.832,-16.113,-59.082,-0.488,0.000
1714026853.194,22.949,-16.602,-51.758,6.348,0.000
1714026853.198,12.207,-18.066,-55.664,3.906,0.000
1714026853.202,15.137,-17.578,-62.012,2.930,0.000
1714026853.206,22.949,-21.484,-62.500,10.742,0.000
1714026853.210,22.461,-24.414,-55.176,15.137,0.000
1714026853.214,23.438,-21.973,-53.223,8.301,0.000
1714026853.218,21.973,-23.438,-54.688,6.836,0.000
1714026853.222,23.926,-25.391,-43.945,11.230,0.000
1714026853.226,20.508,-25.879,-42.969,10.742,0.000
1714026853.230,20.020,-32.715,-44.922,10.254,0.000
1714026853.234,21.484,-35.156,-44.922,12.207,0.000
1714026853.237,21.973,-27.832,-49.316,14.160,0.000
1714026853.241,20.020,-25.879,-47.852,17.090,0.000
1714026853.245,13.672,-24.902,-47.363,12.207,0.000
1714026853.249,12.207,-29.297,-52.734,5.859,0.000
1714026853.253,9.766,-31.738,-45.898,14.648,0.000
1714026853.257,8.301,-31.250,-36.133,8.789,0.000
1714026853.261,2.441,-28.809,-41.016,4.883,0.000
1714026853.265,0.977,-28.320,-35.156,7.812,0.000
1714026853.269,7.324,-30.762,-30.762,4.395,0.000
1714026853.273,7.324,-25.391,-38.574,4.883,0.000
1714026853.276,3.418,-22.949,-41.504,3.906,0.000
1714026853.280,4.395,-22.461,-38.086,4.883,0.000
1714026853.284,5.859,-17.090,-29.297,1.953,0.000
1714026853.288,4.883,-17.090,-30.762,-3.418,0.000
1714026853.292,-0.977,-22.461,-40.527,-0.488,0.000
1714026853.296,-2.441,-27.832,-41.016,9.766,0.000
1714026853.300,0.488,-24.902,-34.668,8.789,0.000
1714026853.304,0.000,-24.902,-36.621,-4.883,0.000
1714026853.308,0.488,-28.320,-43.457,-5.859,0.000
1714026853.312,4.395,-22.461,-35.156,4.395,0.000
1714026853.315,0.000,-20.508,-35.645,4.395,0.000
1714026853.319,-6.836,-22.461,-41.016,-0.977,0.000
1714026853.323,-6.348,-26.367,-31.738,-6.348,0.000
1714026853.327,-5.859,-35.156,-34.668,11.230,0.000
1714026853.331,-10.254,-30.762,-38.574,8.789,0.000
1714026853.335,-12.695,-23.438,-40.039,-14.160,0.000
1714026853.339,-9.277,-22.949,-39.062,-11.230,0.000
1714026853.343,-7.324,-22.949,-26.367,-1.953,0.000
1714026853.347,-7.812,-23.438,-23.438,1.465,0.000
1714026853.351,-16.113,-25.391,-34.180,-19.531,0.000
1714026853.355,-21.484,-29.785,-34.668,-24.414,0.000
1714026853.358,-22.461,-33.203,-27.832,-17.090,0.000
1714026853.362,-25.391,-30.273,-26.367,-17.578,0.000
1714026853.366,-23.926,-27.832,-27.832,-16.113,0.000
1714026853.370,-18.066,-24.414,-26.855,-19.043,0.000
1714026853.374,-18.555,-24.414,-27.832,-20.020,0.000
1714026853.378,-18.066,-27.832,-23.926,-18.066,0.000
1714026853.382,-16.602,-32.715,-18.066,-20.020,0.000
1714026853.386,-17.090,-33.691,-18.555,-17.090,0.000
1714026853.390,-18.066,-34.180,-20.020,-18.555,0.000
1714026853.394,-17.578,-32.715,-25.879,-21.484,0.000
1714026853.398,-23.438,-23.926,-25.879,-26.855,0.000
1714026853.401,-25.879,-24.414,-26.367,-27.344,0.000
1714026853.405,-26.367,-25.879,-24.902,-27.344,0.000
1714026853.409,-29.297,-21.973,-28.320,-32.227,0.000
1714026853.413,-27.832,-18.066,-34.668,-27.344,0.000
1714026853.417,-27.344,-18.555,-28.809,-27.832,0.000
1714026853.421,-28.809,-22.461,-24.414,-28.320,0.000
1714026853.425,-22.461,-28.809,-21.973,-22.949,0.000
1714026853.429,-24.414,-33.203,-27.344,-17.578,0.000
1714026853.433,-16.602,-30.273,-23.926,-10.742,0.000
1714026853.437,-14.648,-24.414,-20.996,-19.043,0.000
1714026853.441,-37.109,-16.113,-29.785,-36.133,0.000
1714026853.444,-43.945,-16.602,-32.715,-34.668,0.000
1714026853.448,-39.062,-26.855,-37.109,-24.414,0.000
1714026853.452,-32.715,-24.414,-29.297,-28.320,0.000
1714026853.456,-29.785,-18.066,-22.949,-37.598,0.000
1714026853.460,-31.738,-20.508,-31.738,-37.598,0.000
1714026853.464,-26.367,-20.508,-43.457,-30.762,0.000
1714026853.468,-19.531,-20.996,-39.551,-25.879,0.000
1714026853.472,-20.996,-22.949,-29.785,-27.832,0.000
1714026853.476,-30.273,-25.391,-35.645,-36.621,0.000
1714026853.480,-32.715,-28.320,-33.203,-39.062,0.000
1714026853.483,-32.715,-37.109,-32.227,-34.668,0.000
1714026853.487,-33.691,-41.992,-32.227,-35.156,0.000
1714026853.491,-30.273,-37.598,-28.320,-27.344,0.000
1714026853.495,-25.879,-30.762,-26.367,-21.973,0.000
1714026853.499,-23.926,-30.273,-21.484,-30.762,0.000
1714026853.503,-24.414,-31.250,-22.949,-35.645,0.000
1714026853.507,-25.391,-22.949,-30.762,-35.645,0.000
1714026853.511,-23.926,-23.926,-30.762,-31.250,0.000
1714026853.515,-24.902,-26.367,-27.832,-27.832,0.000
1714026853.519,-27.344,-30.273,-34.668,-31.738,0.000
1714026853.523,-28.320,-26.367,-32.715,-28.809,0.000
1714026853.526,-28.320,-19.531,-20.508,-23.438,0.000
1714026853.530,-23.438,-21.484,-27.832,-23.926,0.000
1714026853.534,-19.531,-21.973,-29.297,-20.020,0.000
1714026853.538,-16.602,-23.438,-24.414,-12.207,0.000
1714026853.542,-18.555,-28.320,-30.762,-12.207,0.000
1714026853.546,-21.973,-28.809,-30.762,-18.066,0.000
1714026853.550,-24.414,-28.320,-33.691,-29.785,0.000
1714026853.554,-27.344,-19.531,-47.852,-39.062,0.000
1714026853.558,-17.578,-18.555,-38.086,-22.461,0.000
1714026853.562,-24.414,-21.973,-22.949,-24.902,0.000
1714026853.565,-47.852,-19.043,-21.973,-53.711,0.000
1714026853.569,-57.617,-24.414,-22.461,-62.988,0.000
1714026853.573,-64.941,-27.832,-25.391,-74.219,0.000
1714026853.577,-76.660,-27.832,-16.113,-78.125,0.000
1714026853.581,-103.027,-25.391,-7.812,-91.797,0.000
1714026853.585,-117.188,-25.391,0.977,-106.934,0.000
1714026853.589,-126.465,-27.832,7.324,-124.023,0.000
1714026853.593,-138.672,-26.855,17.090,-131.348,0.000
1714026853.597,-148.926,-31.250,25.879,-133.301,0.000
1714026853.601,-158.691,-36.133,22.461,-136.719,0.000
1714026853.605,-150.879,-37.109,22.949,-134.277,0.000
1714026853.608,-166.504,-47.363,25.391,-149.414,0.000
1714026853.612,-180.664,-48.828,20.508,-158.691,0.000
1714026853.616,-169.922,-45.898,31.738,-146.973,0.000
1714026853.620,-165.039,-44.922,47.852,-137.695,0.000
1714026853.624,-155.762,-49.316,41.504,-129.395,0.000
1714026853.628,-156.738,-58.105,40.527,-133.789,0.000
1714026853.632,-139.160,-57.617,40.039,-122.070,0.000
1714026853.636,-119.141,-53.223,35.156,-105.957,0.000
1714026853.640,-125.977,-52.246,22.949,-110.352,0.000
1714026853.644,-112.793,-48.828,19.043,-93.750,0.000
1714026853.647,-96.191,-42.969,27.832,-83.984,0.000
1714026853.651,-99.121,-48.828,20.020,-92.285,0.000
1714026853.655,-87.891,-57.617,7.812,-87.402,0.000
1714026853.659,-83.008,-53.223,8.789,-78.125,0.000
1714026853.663,-84.961,-47.363,6.348,-68.359,0.000
1714026853.667,-61.523,-46.875,6.348,-45.898,0.000
1714026853.671,-55.176,-52.246,5.859,-38.574,0.000
1714026853.675,-66.406,-55.664,-13.184,-43.457,0.000
1714026853.679,-56.641,-44.922,-16.113,-32.715,0.000
1714026853.683,-50.293,-43.457,-11.719,-28.809,0.000
1714026853.686,-51.270,-47.363,-5.371,-29.785,0.000
1714026853.690,-47.363,-41.992,-3.418,-31.250,0.000
1714026853.694,-37.598,-31.250,-4.883,-27.344,0.000
1714026853.698,-37.598,-39.062,-13.184,-31.738,0.000
1714026853.702,-41.016,-51.758,-9.277,-40.527,0.000
1714026853.706,-49.316,-44.434,-4.883,-44.922,0.000
1714026853.710,-56.152,-37.109,-8.789,-53.223,0.000
1714026853.714,-43.945,-36.133,-5.371,-41.992,0.000
1714026853.718,-45.898,-34.180,-14.160,-46.875,0.000
1714026853.722,-65.918,-31.250,-11.230,-69.336,0.000
1714026853.726,-76.172,-21.973,-8.301,-71.289,0.000
1714026853.729,-85.449,-23.926,0.000,-70.312,0.000
1714026853.733,-92.285,-36.621,7.324,-75.195,0.000
1714026853.737,-94.238,-32.227,8.789,-86.426,0.000
1714026853.741,-101.562,-29.785,11.719,-95.215,0.000
1714026853.745,-102.051,-30.762,16.602,-86.914,0.000
1714026853.749,-96.191,-36.621,25.391,-75.684,0.000
1714026853.753,-90.332,-32.227,24.902,-77.148,0.000
1714026853.757,-78.613,-13.184,19.531,-73.730,0.000
1714026853.761,-70.312,-17.578,21.484,-59.570,0.000
1714026853.765,-68.359,-28.809,10.254,-50.293,0.000
1714026853.769,-67.383,-24.902,-5.371,-52.734,0.000
1714026853.772,-56.641,-24.902,0.000,-45.898,0.000
1714026853.776,-50.293,-35.156,-1.465,-32.227,0.000
1714026853.780,-43.945,-45.898,-5.859,-25.879,0.000
1714026853.784,-33.203,-46.875,-13.184,-24.414,0.000
1714026853.788,-29.785,-37.109,-33.203,-22.461,0.000
1714026853.792,-21.484,-33.203,-29.785,-11.230,0.000
1714026853.796,-9.766,-29.785,-30.273,-3.418,0.000
1714026853.800,-4.395,-32.227,-36.133,-0.977,0.000
1714026853.804,-2.930,-41.016,-32.715,0.977,0.000
1714026853.808,-4.395,-37.598,-46.387,2.441,0.000
1714026853.812,-3.418,-33.203,-58.594,3.418,0.000
1714026853.815,0.977,-39.551,-57.617,8.789,0.000
1714026853.819,5.859,-46.387,-59.082,10.254,0.000
1714026853.823,11.719,-44.922,-62.988,17.090,0.000
1714026853.827,15.137,-33.203,-55.176,21.484,0.000
1714026853.831,23.926,-28.320,-41.016,24.902,0.000
1714026853.835,24.902,-38.086,-45.410,27.832,0.000
1714026853.839,16.602,-38.086,-54.688,20.508,0.000
1714026853.843,23.438,-32.227,-52.734,24.902,0.000
1714026853.847,25.391,-31.250,-53.711,20.996,0.000
1714026853.851,16.113,-30.273,-53.223,10.742,0.000
1714026853.855,24.414,-26.367,-49.805,17.578,0.000
1714026853.858,30.273,-20.020,-47.852,22.461,0.000
1714026853.862,22.949,-22.461,-49.805,25.879,0.000
1714026853.866,21.484,-22.949,-49.805,34.180,0.000
1714026853.870,21.484,-23.926,-44.434,32.227,0.000
1714026853.874,17.578,-26.367,-44.434,21.484,0.000
1714026853.878,13.672,-24.414,-46.875,22.949,0.000
1714026853.882,12.695,-22.949,-47.852,26.367,0.000
1714026853.886,15.137,-21.484,-55.176,22.461,0.000
1714026853.890,16.602,-20.996,-56.152,18.555,0.000
1714026853.894,16.602,-19.531,-42.969,22.949,0.000
1714026853.897,9.766,-18.066,-43.945,20.508,0.000
1714026853.901,6.836,-18.555,-45.410,15.625,0.000
1714026853.905,11.719,-20.996,-41.992,12.207,0.000
1714026853.909,11.230,-19.531,-36.621,13.184,0.000
1714026853.913,10.742,-16.602,-34.180,16.113,0.000
1714026853.917,6.348,-13.184,-36.133,6.348,0.000
1714026853.921,7.324,-11.230,-35.645,1.953,0.000
1714026853.925,13.672,-20.996,-37.598,8.789,0.000
1714026853.929,9.766,-25.879,-47.363,9.766,0.000
1714026853.933,0.000,-21.973,-51.758,-1.465,0.000
1714026853.937,-4.883,-21.973,-52.734,-8.789,0.000
1714026853.940,-3.418,-22.461,-42.480,-2.930,0.000
1714026853.944,-0.488,-19.531,-37.109,5.859,0.000
1714026853.948,-1.953,-21.973,-40.527,4.883,0.000
1714026853.952,0.977,-22.461,-35.645,1.953,0.000
1714026853.956,4.883,-21.484,-35.156,10.254,0.000
1714026853.960,-1.465,-23.438,-45.410,0.977,0.000
1714026853.964,-6.836,-23.926,-46.875,-10.254,0.000
1714026853.968,-8.789,-22.461,-41.504,-5.859,0.000
1714026853.972,-7.812,-20.508,-39.062,-4.883,0.000
1714026853.976,-8.789,-25.879,-38.574,-5.371,0.000
1714026853.979,-4.395,-24.414,-27.832,-1.465,0.000
1714026853.983,0.488,-28.320,-23.438,1.953,0.000
1714026853.987,0.000,-34.180,-33.691,-4.883,0.000
1714026853.991,-3.418,-27.344,-40.039,-11.719,0.000
1714026853.995,-8.301,-24.902,-41.016,-10.254,0.000
1714026853.999,-11.719,-28.809,-43.457,-10.254,0.000
1714026854.003,-13.184,-30.762,-38.086,-9.766,0.000
1714026854.007,-12.207,-27.344,-35.156,-7.812,0.000
1714026854.011,-7.324,-26.367,-39.551,-5.859,0.000
1714026854.015,-1.465,-23.926,-27.832,-4.395,0.000
1714026854.018,-6.348,-20.996,-29.297,-10.742,0.000
1714026854.022,-11.230,-21.973,-34.668,-15.625,0.000
1714026854.026,-8.301,-17.578,-36.133,-11.230,0.000
1714026854.030,-7.324,-14.648,-33.203,-6.348,0.000
1714026854.034,-3.906,-15.137,-23.438,-7.324,0.000
1714026854.038,-7.812,-16.113,-25.391,-12.695,0.000
1714026854.042,-10.254,-17.578,-24.902,-11.230,0.000
1714026854.046,-9.277,-24.902,-27.832,-13.672,0.000
1714026854.050,-11.719,-26.367,-29.297,-19.531,0.000
1714026854.054,-11.719,-20.996,-23.438,-20.020,0.000
1714026854.058,-17.578,-22.461,-20.020,-20.996,0.000
1714026854.061,-20.508,-30.762,-28.809,-18.555,0.000
1714026854.065,-21.484,-32.715,-32.227,-16.602,0.000
1714026854.069,-29.785,-22.949,-26.367,-24.414,0.000
1714026854.073,-29.297,-24.414,-24.902,-26.855,0.000
1714026854.077,-27.832,-31.738,-23.926,-25.879,0.000
1714026854.081,-33.691,-32.715,-24.414,-28.809,0.000
1714026854.085,-31.738,-25.879,-34.668,-32.715,0.000
1714026854.089,-30.273,-20.020,-40.039,-37.109,0.000
1714026854.093,-28.320,-27.344,-34.668,-32.715,0.000
1714026854.097,-31.250,-36.621,-34.668,-30.762,0.000
1714026854.101,-34.180,-34.668,-37.109,-38.574,0.000
1714026854.104,-30.273,-36.133,-37.109,-37.598,0.000
1714026854.108,-25.879,-39.062,-32.715,-26.855,0.000
1714026854.112,-29.785,-37.598,-26.367,-27.344,0.000
1714026854.116,-29.297,-32.715,-33.203,-29.785,0.000
1714026854.120,-26.367,-31.250,-40.039,-27.832,0.000
1714026854.124,-28.809,-35.156,-28.809,-21.484,0.000
1714026854.128,-25.879,-34.668,-18.555,-19.043,0.000
1714026854.132,-20.508,-35.645,-30.273,-19.043,0.000
1714026854.136,-19.531,-35.645,-35.645,-23.926,0.000
1714026854.140,-18.555,-25.879,-26.367,-26.367,0.000
1714026854.144,-15.137,-25.879,-24.902,-22.949,0.000
1714026854.147,-19.043,-30.762,-33.691,-26.855,0.000
1714026854.151,-21.973,-28.809,-38.086,-18.555,0.000
1714026854.155,-17.578,-24.414,-38.574,-12.207,0.000
1714026854.159,-15.625,-18.555,-36.621,-15.137,0.000
1714026854.163,-12.695,-16.113,-30.762,-12.207,0.000
1714026854.167,-10.254,-19.531,-31.250,-14.160,0.000
1714026854.171,-17.578,-19.531,-37.109,-20.996,0.000
1714026854.175,-18.555,-17.578,-44.434,-22.949,0.000
1714026854.179,-15.137,-24.902,-37.598,-12.207,0.000
1714026854.183,-19.531,-27.832,-35.156,-13.672,0.000
1714026854.187,-20.508,-24.414,-46.875,-20.508,0.000
1714026854.190,-12.695,-19.043,-31.250,-16.602,0.000
1714026854.194,-12.207,-15.137,-19.531,-13.672,0.000
1714026854.198,-14.648,-20.020,-23.438,-11.719,0.000
1714026854.202,-16.602,-21.973,-28.809,-12.695,0.000
1714026854.206,-19.043,-19.043,-37.598,-21.484,0.000
1714026854.210,-15.625,-19.531,-29.297,-19.531,0.000
1714026854.214,-16.113,-23.438,-22.461,-20.508,0.000
1714026854.218,-19.531,-34.180,-31.250,-26.855,0.000
1714026854.222,-18.555,-28.320,-35.645,-27.832,0.000
1714026854.226,-24.902,-18.555,-36.133,-27.832,0.000
1714026854.230,-35.156,-24.902,-39.551,-23.926,0.000
1714026854.233,-24.414,-31.738,-41.016,-16.113,0.000
1714026854.237,-12.207,-32.227,-36.621,-10.254,0.000
1714026854.241,-19.043,-27.832,-33.203,-10.742,0.000
1714026854.245,-31.250,-30.762,-26.855,-21.484,0.000
1714026854.249,-34.668,-30.273,-37.598,-30.273,0.000
1714026854.253,-40.039,-26.855,-53.223,-37.109,0.000
1714026854.257,-43.945,-36.133,-50.293,-39.551,0.000
1714026854.261,-34.668,-33.203,-44.434,-28.320,0.000
1714026854.265,-36.621,-28.320,-33.691,-25.391,0.000
1714026854.269,-41.504,-34.668,-29.297,-32.715,0.000
1714026854.272,-36.133,-34.668,-34.180,-33.691,0.000
1714026854.276,-39.062,-38.086,-31.738,-33.203,0.000
1714026854.280,-45.898,-43.457,-30.762,-34.668,0.000
1714026854.284,-42.969,-35.645,-30.762,-33.203,0.000
1714026854.288,-41.992,-28.320,-38.086,-27.344,0.000
1714026854.292,-36.133,-30.273,-34.668,-28.320,0.000
1714026854.296,-28.809,-35.156,-28.320,-23.438,0.000
1714026854.300,-27.832,-27.832,-31.738,-17.578,0.000
1714026854.304,-31.250,-26.367,-26.367,-19.043,0.000
1714026854.308,-39.062,-33.691,-28.809,-20.508,0.000
1714026854.312,-36.621,-26.855,-36.621,-16.602,0.000
1714026854.315,-27.832,-23.926,-42.480,-12.207,0.000
1714026854.319,-25.391,-27.344,-37.109,-13.672,0.000
1714026854.323,-26.855,-30.273,-29.297,-16.113,0.000
1714026854.327,-24.902,-29.785,-34.668,-18.555,0.000
1714026854.331,-18.066,-30.273,-38.086,-12.207,0.000
1714026854.335,-16.602,-27.344,-36.621,-12.207,0.000
1714026854.339,-11.719,-26.367,-28.809,-15.625,0.000
1714026854.343,-15.625,-27.344,-30.762,-15.137,0.000
1714026854.347,-24.902,-27.832,-28.809,-15.625,0.000
1714026854.351,-19.531,-28.320,-17.578,-6.836,0.000
1714026854.355,-21.484,-28.320,-25.879,-7.324,0.000
1714026854.358,-29.785,-25.879,-33.203,-13.672,0.000
1714026854.362,-25.879,-15.137,-29.785,-11.719,0.000
1714026854.366,-26.367,-13.184,-30.762,-11.230,0.000
1714026854.370,-32.715,-32.227,-27.344,-18.555,0.000
1714026854.374,-31.250,-47.852,-30.273,-25.879,0.000
1714026854.378,-32.227,-32.227,-43.945,-25.879,0.000
1714026854.382,-32.227,-15.137,-35.156,-23.926,0.000
1714026854.386,-30.762,-23.438,-24.902,-36.621,0.000
1714026854.390,-32.227,-30.273,-31.250,-40.039,0.000
1714026854.394,-23.926,-21.973,-30.273,-23.926,0.000
1714026854.397,-18.066,-19.043,-33.203,-18.555,0.000
1714026854.401,-26.855,-33.691,-38.086,-34.180,0.000
1714026854.405,-31.738,-36.133,-38.086,-42.480,0.000
1714026854.409,-30.762,-23.926,-42.969,-37.598,0.000
1714026854.413,-33.203,-23.926,-43.457,-33.691,0.000
1714026854.417,-30.762,-24.414,-33.691,-30.762,0.000
1714026854.421,-28.320,-20.508,-26.367,-27.344,0.000
1714026854.425,-33.203,-23.438,-38.086,-36.621,0.000
1714026854.429,-33.691,-24.414,-44.922,-40.527,0.000
1714026854.433,-30.273,-22.461,-37.109,-36.133,0.000
1714026854.436,-33.203,-19.531,-39.062,-28.809,0.000
1714026854.440,-33.691,-21.484,-42.480,-26.855,0.000
1714026854.444,-30.762,-33.203,-35.156,-29.785,0.000
1714026854.448,-28.809,-29.785,-27.344,-23.438,0.000
1714026854.452,-27.344,-19.531,-28.320,-24.414,0.000
1714026854.456,-31.738,-22.461,-31.738,-30.762,0.000
1714026854.460,-34.668,-24.414,-26.367,-27.832,0.000
1714026854.464,-29.297,-22.949,-24.902,-18.066,0.000
1714026854.468,-30.273,-22.461,-37.598,-17.090,0.000
1714026854.472,-36.621,-27.832,-41.504,-30.762,0.000
1714026854.476,-39.062,-28.320,-27.344,-32.227,0.000
1714026854.479,-32.715,-24.414,-22.949,-20.996,0.000
1714026854.483,-27.832,-25.879,-40.039,-19.531,0.000
1714026854.487,-32.715,-26.367,-32.227,-29.297,0.000
1714026854.491,-35.156,-11.719,-14.648,-37.109,0.000
1714026854.495,-37.109,-5.371,-14.160,-34.668,0.000
1714026854.499,-42.480,-20.996,-23.438,-36.133,0.000
1714026854.503,-54.688,-17.090,-26.367,-51.758,0.000
1714026854.507,-51.758,-16.602,-19.531,-48.340,0.000
1714026854.511,-49.805,-23.438,-21.484,-48.828,0.000
1714026854.515,-68.848,-21.973,-21.484,-62.988,0.000
1714026854.519,-75.684,-19.531,-12.695,-74.219,0.000
1714026854.522,-91.309,-22.949,0.977,-87.402,0.000
1714026854.526,-111.328,-33.691,1.953,-93.262,0.000
1714026854.530,-119.629,-36.621,0.000,-103.027,0.000
1714026854.534,-125.488,-32.715,2.930,-114.258,0.000
1714026854.538,-129.883,-34.180,7.324,-121.094,0.000
1714026854.542,-133.301,-34.180,21.973,-132.324,0.000
1714026854.546,-137.695,-34.668,23.926,-137.207,0.000
1714026854.550,-137.207,-34.180,27.832,-129.395,0.000
1714026854.554,-126.953,-37.109,41.504,-120.117,0.000
1714026854.558,-124.023,-44.922,37.109,-114.746,0.000
1714026854.562,-125.000,-42.969,29.297,-107.910,0.000
1714026854.565,-111.816,-33.691,32.715,-97.168,0.000
1714026854.569,-98.145,-29.297,30.273,-93.750,0.000
1714026854.573,-99.121,-30.273,14.160,-89.844,0.000
1714026854.577,-89.844,-25.879,2.930,-81.055,0.000
1714026854.581,-75.195,-29.297,4.883,-69.824,0.000
1714026854.585,-69.824,-32.715,13.184,-67.383,0.000
1714026854.589,-68.359,-32.715,6.836,-65.430,0.000
1714026854.593,-61.523,-34.180,-4.883,-54.199,0.000
1714026854.597,-53.711,-34.180,-12.207,-45.410,0.000
1714026854.601,-44.434,-32.227,-26.855,-34.180,0.000
1714026854.605,-35.645,-32.227,-32.715,-38.574,0.000
1714026854.608,-34.668,-34.668,-30.273,-40.527,0.000
1714026854.612,-25.391,-26.855,-39.062,-31.738,0.000
1714026854.616,-15.137,-23.438,-42.480,-25.879,0.000
1714026854.620,-11.230,-25.391,-32.227,-25.879,0.000
1714026854.624,-2.441,-27.832,-20.996,-24.902,0.000
1714026854.628,0.488,-29.785,-37.109,-14.160,0.000
1714026854.632,6.348,-23.926,-47.852,-10.254,0.000
1714026854.636,8.301,-20.996,-40.039,-14.648,0.000
1714026854.640,3.418,-16.602,-44.434,-17.578,0.000
1714026854.644,3.418,-17.090,-38.574,-6.836,0.000
1714026854.647,-0.977,-20.508,-40.527,-0.488,0.000
1714026854.651,-1.465,-25.879,-41.016,1.953,0.000
1714026854.655,-3.418,-29.785,-34.180,0.488,0.000
1714026854.659,-1.953,-28.809,-36.133,-1.465,0.000
1714026854.663,1.465,-28.809,-37.598,4.395,0.000
1714026854.667,-3.418,-19.043,-31.738,-3.418,0.000
1714026854.671,-1.953,-19.043,-36.133,-9.766,0.000
1714026854.675,-17.578,-34.668,-49.316,-22.949,0.000
1714026854.679,-32.715,-35.645,-44.922,-33.691,0.000
1714026854.683,-35.645,-29.297,-24.414,-41.504,0.000
1714026854.687,-40.039,-20.996,-26.367,-49.316,0.000
1714026854.690,-55.176,-24.414,-41.504,-65.430,0.000
1714026854.694,-69.824,-30.762,-36.133,-77.148,0.000
1714026854.698,-77.637,-29.297,-25.879,-79.590,0.000
1714026854.702,-96.191,-31.738,-14.160,-95.703,0.000
1714026854.706,-106.934,-35.156,-7.812,-101.074,0.000
1714026854.710,-102.051,-35.156,-3.906,-98.633,0.000
1714026854.714,-106.445,-28.809,12.207,-110.352,0.000
1714026854.718,-102.539,-27.344,12.207,-108.398,0.000
1714026854.722,-94.238,-21.484,2.930,-104.492,0.000
1714026854.726,-100.098,-20.020,3.906,-104.980,0.000
1714026854.729,-98.633,-25.391,1.953,-96.191,0.000
1714026854.733,-91.309,-25.879,-1.953,-90.332,0.000
1714026854.737,-85.449,-34.180,-13.184,-93.750,0.000
1714026854.741,-80.566,-32.715,-19.531,-95.215,0.000
1714026854.745,-66.895,-20.508,-18.066,-77.148,0.000
1714026854.749,-49.805,-20.020,-12.207,-54.199,0.000
1714026854.753,-45.410,-35.645,-14.648,-51.270,0.000
1714026854.757,-41.016,-32.227,-30.273,-51.270,0.000
1714026854.761,-28.809,-18.555,-25.879,-38.086,0.000
1714026854.765,-19.531,-17.578,-14.648,-29.785,0.000
1714026854.768,-16.602,-20.996,-16.602,-27.832,0.000
1714026854.772,-16.113,-20.508,-27.344,-23.926,0.000
1714026854.776,-12.695,-25.391,-32.227,-18.066,0.000
1714026854.780,-11.230,-31.738,-41.992,-9.277,0.000
1714026854.784,-11.719,-35.645,-49.805,-3.906,0.000
1714026854.788,-3.418,-30.762,-43.457,-2.441,0.000
1714026854.792,-2.441,-27.344,-45.410,0.488,0.000
1714026854.796,1.953,-29.297,-46.387,12.695,0.000
1714026854.800,19.043,-26.855,-34.180,24.902,0.000
1714026854.804,20.996,-31.250,-36.133,20.020,0.000
1714026854.808,17.578,-31.738,-44.922,16.602,0.000
1714026854.811,20.996,-18.555,-41.016,25.879,0.000
1714026854.815,18.066,-22.461,-43.945,27.344,0.000
1714026854.819,16.113,-31.738,-47.852,19.531,0.000
1714026854.823,17.090,-27.344,-52.246,13.184,0.000
1714026854.827,24.902,-16.602,-49.805,27.344,0.000
1714026854.831,27.832,-17.578,-43.945,40.527,0.000
1714026854.835,29.785,-28.809,-47.852,29.297,0.000
1714026854.839,32.715,-26.855,-43.457,25.879,0.000
1714026854.843,27.832,-24.902,-41.504,27.832,0.000
1714026854.847,26.367,-20.996,-41.992,31.250,0.000
1714026854.851,23.926,-22.461,-39.551,29.785,0.000
1714026854.854,22.949,-26.367,-46.875,26.367,0.000
1714026854.858,20.508,-25.879,-51.758,30.273,0.000
1714026854.862,12.695,-22.949,-40.527,34.180,0.000
1714026854.866,15.625,-18.066,-37.109,33.691,0.000
1714026854.870,12.695,-25.879,-45.410,24.902,0.000
1714026854.874,2.930,-34.668,-53.223,19.043,0.000
1714026854.878,7.324,-29.297,-52.734,24.414,0.000
1714026854.882,14.160,-29.297,-50.293,26.367,0.000
1714026854.886,11.719,-31.250,-43.457,19.043,0.000
1714026854.890,8.789,-30.762,-45.410,10.742,0.000
1714026854.894,5.371,-34.180,-42.969,12.207,0.000
1714026854.897,-1.465,-29.297,-40.039,10.254,0.000
1714026854.901,-4.395,-28.809,-47.363,5.371,0.000
1714026854.905,-8.301,-31.250,-42.969,0.488,0.000
1714026854.909,-5.859,-26.855,-40.527,-2.441,0.000
1714026854.913,-7.324,-28.809,-46.387,0.977,0.000
1714026854.917,-10.254,-34.668,-48.340,0.977,0.000
1714026854.921,3.906,-21.973,-35.156,11.230,0.000
1714026854.925,4.395,-25.879,-39.062,10.742,0.000
1714026854.929,-2.930,-39.551,-55.176,-0.977,0.000
1714026854.933,1.465,-26.855,-54.688,3.418,0.000
1714026854.937,1.465,-13.184,-48.828,3.906,0.000
1714026854.940,1.465,-14.160,-38.086,0.488,0.000
1714026854.944,0.000,-20.996,-35.645,6.836,0.000
1714026854.948,-0.977,-19.531,-40.527,15.625,0.000
1714026854.952,2.441,-14.648,-41.992,9.277,0.000
1714026854.956,1.953,-15.625,-34.668,-0.488,0.000
1714026854.960,1.465,-17.578,-30.762,-0.488,0.000
1714026854.964,4.395,-20.020,-33.691,3.906,0.000
1714026854.968,5.859,-21.973,-35.156,1.465,0.000
1714026854.972,-1.465,-21.973,-37.598,-7.812,0.000
1714026854.976,-7.324,-20.996,-29.785,-3.906,0.000
1714026854.979,-5.371,-12.207,-17.090,5.371,0.000
1714026854.983,-4.395,-10.254,-21.484,1.465,0.000
1714026854.987,-2.930,-14.160,-31.738,-5.371,0.000
1714026854.991,-12.695,-19.531,-38.086,-0.977,0.000
1714026854.995,-20.020,-18.066,-33.691,-2.930,0.000
1714026854.999,-11.719,-14.648,-28.809,-13.184,0.000
1714026855.003,-10.742,-17.090,-24.414,-17.090,0.000
1714026855.007,-15.137,-22.461,-27.832,-19.531,0.000
1714026855.011,-15.137,-24.902,-37.598,-18.555,0.000
1714026855.015,-13.672,-21.973,-32.227,-12.695,0.000
1714026855.019,-14.160,-28.809,-32.227,-14.160,0.000
1714026855.022,-24.414,-30.762,-39.551,-23.926,0.000
1714026855.026,-27.344,-21.484,-45.898,-25.391,0.000
1714026855.030,-24.902,-24.902,-51.758,-28.320,0.000
1714026855.034,-27.344,-29.785,-54.688,-33.203,0.000
1714026855.038,-22.949,-24.414,-45.410,-26.855,0.000
1714026855.042,-15.625,-23.926,-23.438,-18.555,0.000
1714026855.046,-22.461,-27.344,-25.391,-26.367,0.000
1714026855.050,-27.344,-34.180,-38.086,-25.879,0.000
1714026855.054,-23.926,-34.668,-36.133,-23.926,0.000
1714026855.058,-24.902,-29.297,-32.227,-28.809,0.000
1714026855.062,-26.367,-36.133,-30.273,-24.902,0.000
1714026855.065,-24.902,-38.574,-35.156,-29.297,0.000
1714026855.069,-27.344,-29.785,-39.062,-37.598,0.000
1714026855.073,-24.902,-22.461,-21.973,-33.203,0.000
1714026855.077,-22.461,-26.855,-22.461,-26.855,0.000
1714026855.081,-26.367,-35.645,-45.410,-27.832,0.000
1714026855.085,-29.297,-36.621,-42.480,-37.598,0.000
1714026855.089,-33.691,-28.809,-32.227,-38.574,0.000
1714026855.093,-34.668,-31.738,-38.086,-31.250,0.000
1714026855.097,-28.809,-31.250,-38.574,-28.320,0.000
1714026855.101,-23.438,-16.602,-36.133,-25.391,0.000
1714026855.104,-21.484,-7.324,-27.344,-28.320,0.000
1714026855.108,-26.367,-12.207,-20.508,-27.344,0.000
1714026855.112,-22.949,-20.020,-19.531,-9.766,0.000
1714026855.116,-9.277,-23.438,-17.578,-3.906,0.000
1714026855.120,-14.160,-28.320,-24.414,-10.254,0.000
1714026855.124,-16.602,-20.996,-27.832,-14.160,0.000
1714026855.128,-18.066,-16.602,-32.227,-10.254,0.000
1714026855.132,-17.578,-9.766,-29.297,-8.301,0.000
1714026855.136,-14.648,-10.742,-22.949,-18.066,0.000
1714026855.140,-23.926,-20.508,-23.926,-24.902,0.000
1714026855.143,-22.461,-20.996,-24.414,-25.391,0.000
1714026855.147,-20.996,-24.902,-23.926,-20.508,0.000
1714026855.151,-26.855,-24.414,-29.297,-23.438,0.000
1714026855.155,-27.344,-17.578,-36.621,-27.832,0.000
1714026855.159,-29.785,-21.973,-30.273,-22.949,0.000
1714026855.163,-26.855,-26.367,-23.926,-20.020,0.000
1714026855.167,-26.367,-26.855,-27.344,-26.855,0.000
1714026855.171,-35.645,-27.344,-36.621,-34.668,0.000
1714026855.175,-36.621,-28.809,-42.480,-36.621,0.000
1714026855.179,-30.762,-30.273,-35.645,-26.367,0.000
1714026855.183,-32.715,-36.621,-31.250,-24.414,0.000
1714026855.186,-30.762,-34.180,-31.738,-28.809,0.000
1714026855.190,-29.297,-28.809,-39.062,-27.832,0.000
1714026855.194,-27.832,-20.020,-48.340,-27.344,0.000
1714026855.198,-25.391,-17.578,-42.969,-18.555,0.000
1714026855.202,-23.926,-20.020,-32.715,-18.066,0.000
1714026855.206,-22.949,-18.066,-30.273,-30.762,0.000
1714026855.210,-26.855,-20.508,-30.762,-36.133,0.000
1714026855.214,-24.414,-19.043,-33.203,-30.762,0.000
1714026855.218,-23.926,-26.367,-33.203,-29.297,0.000
1714026855.222,-25.879,-32.715,-31.250,-26.855,0.000
1714026855.226,-23.926,-21.973,-31.250,-19.531,0.000
1714026855.229,-24.414,-20.020,-30.762,-12.207,0.000
1714026855.233,-19.531,-26.367,-33.691,-7.324,0.000
1714026855.237,-15.625,-22.461,-41.016,-12.207,0.000
1714026855.241,-22.949,-24.414,-45.898,-20.020,0.000
1714026855.245,-28.320,-29.785,-39.551,-18.555,0.000
1714026855.249,-30.273,-27.832,-27.344,-24.414,0.000
1714026855.253,-30.273,-26.855,-35.156,-35.645,0.000
1714026855.257,-23.926,-24.902,-37.109,-30.273,0.000
1714026855.261,-27.344,-29.785,-28.809,-21.973,0.000
1714026855.265,-32.715,-37.109,-30.273,-22.949,0.000
1714026855.269,-25.879,-28.320,-38.574,-26.367,0.000
1714026855.272,-25.879,-18.555,-42.969,-31.250,0.000
1714026855.276,-26.855,-18.555,-34.180,-23.438,0.000
1714026855.280,-25.391,-25.879,-27.832,-21.973,0.000
1714026855.284,-27.832,-31.250,-33.203,-31.738,0.000
1714026855.288,-33.203,-30.273,-38.086,-35.156,0.000
1714026855.292,-33.203,-28.320,-38.086,-36.133,0.000
1714026855.296,-31.738,-30.273,-40.039,-32.715,0.000
1714026855.300,-36.621,-35.645,-43.457,-31.738,0.000
1714026855.304,-42.480,-37.109,-38.574,-34.180,0.000
1714026855.308,-36.133,-30.273,-30.273,-26.855,0.000
1714026855.312,-35.156,-26.367,-45.410,-31.250,0.000
1714026855.315,-39.062,-28.809,-39.551,-39.062,0.000
1714026855.319,-39.062,-36.133,-29.297,-38.574,0.000
1714026855.323,-37.598,-32.227,-36.621,-34.668,0.000
1714026855.327,-35.645,-24.902,-33.691,-36.621,0.000
1714026855.331,-32.227,-25.391,-31.250,-34.668,0.000
1714026855.335,-27.832,-29.297,-26.855,-27.832,0.000
1714026855.339,-29.297,-32.227,-33.203,-27.832,0.000
1714026855.343,-30.273,-28.809,-39.551,-29.785,0.000
1714026855.347,-36.133,-29.785,-31.738,-31.250,0.000
1714026855.351,-35.645,-31.738,-23.926,-34.180,0.000
1714026855.354,-33.691,-27.832,-24.414,-41.016,0.000
1714026855.358,-31.250,-20.996,-23.926,-36.621,0.000
1714026855.362,-25.879,-23.926,-28.320,-25.879,0.000
1714026855.366,-26.367,-30.273,-30.273,-16.602,0.000
1714026855.370,-27.344,-27.344,-26.367,-20.020,0.000
1714026855.374,-26.367,-25.879,-32.715,-28.320,0.000
1714026855.378,-27.832,-35.156,-33.691,-20.508,0.000
1714026855.382,-31.250,-38.574,-31.738,-23.438,0.000
1714026855.386,-30.273,-33.203,-35.645,-35.156,0.000
1714026855.390,-25.879,-29.297,-33.691,-31.250,0.000
1714026855.394,-25.879,-28.320,-30.762,-23.926,0.000
1714026855.397,-28.809,-31.738,-36.133,-25.391,0.000
1714026855.401,-27.832,-33.203,-42.969,-28.809,0.000
1714026855.405,-23.926,-30.273,-40.039,-27.344,0.000
1714026855.409,-30.273,-32.715,-35.156,-31.250,0.000
1714026855.413,-34.668,-34.668,-33.691,-28.809,0.000
1714026855.417,-28.809,-26.367,-33.203,-27.344,0.000
1714026855.421,-28.809,-25.879,-30.762,-36.133,0.000
1714026855.425,-30.762,-27.344,-28.809,-31.738,0.000
1714026855.429,-27.344,-23.438,-27.832,-22.949,0.000
1714026855.433,-26.855,-25.391,-32.715,-21.484,0.000
1714026855.437,-28.320,-21.973,-38.574,-21.484,0.000
1714026855.440,-29.297,-21.973,-34.668,-20.020,0.000
1714026855.444,-31.250,-28.809,-27.344,-20.508,0.000
1714026855.448,-30.762,-25.879,-28.320,-17.578,0.000
1714026855.452,-32.227,-23.438,-34.668,-24.414,0.000
1714026855.456,-35.645,-30.762,-28.809,-28.809,0.000
1714026855.460,-41.504,-35.645,-28.320,-30.273,0.000
1714026855.464,-39.062,-29.785,-28.809,-34.180,0.000
1714026855.468,-31.738,-29.297,-31.738,-29.297,0.000
1714026855.472,-30.762,-23.926,-35.156,-23.926,0.000
1714026855.476,-31.250,-23.438,-29.297,-21.973,0.000
1714026855.479,-35.645,-28.809,-34.180,-19.531,0.000
1714026855.483,-30.273,-27.344,-34.668,-17.578,0.000
1714026855.487,-27.344,-27.344,-23.926,-21.484,0.000
1714026855.491,-33.203,-23.926,-21.973,-25.391,0.000
1714026855.495,-34.180,-17.578,-42.480,-25.879,0.000
1714026855.499,-30.762,-17.578,-42.969,-21.973,0.000
1714026855.503,-30.273,-26.855,-33.691,-21.484,0.000
1714026855.507,-28.320,-28.809,-27.344,-25.879,0.000
1714026855.511,-23.926,-17.578,-23.926,-24.414,0.000
1714026855.515,-20.996,-19.043,-26.855,-21.484,0.000
1714026855.518,-27.832,-28.809,-18.555,-23.926,0.000
1714026855.522,-33.691,-32.715,-23.926,-34.180,0.000
1714026855.526,-24.414,-27.344,-32.227,-33.203,0.000
1714026855.530,-16.602,-18.066,-29.297,-26.367,0.000
1714026855.534,-20.996,-21.973,-27.344,-35.645,0.000
1714026855.538,-14.648,-20.996,-28.320,-37.109,0.000
1714026855.542,-10.742,-20.020,-34.668,-25.391,0.000
1714026855.546,-13.672,-30.762,-34.180,-22.461,0.000
1714026855.550,-13.672,-29.785,-20.996,-25.879,0.000
1714026855.554,-20.020,-28.320,-21.484,-35.645,0.000
1714026855.558,-22.949,-32.227,-32.227,-32.715,0.000
1714026855.561,-25.391,-31.738,-31.250,-19.531,0.000
1714026855.565,-32.227,-32.227,-24.414,-19.531,0.000
1714026855.569,-32.227,-30.273,-20.020,-20.996,0.000
1714026855.573,-27.344,-26.367,-21.484,-13.184,0.000
1714026855.577,-24.902,-22.949,-22.461,-11.719,0.000
1714026855.581,-26.367,-25.879,-29.297,-9.766,0.000
1714026855.585,-28.809,-27.344,-36.621,-10.742,0.000
1714026855.589,-30.273,-24.414,-33.203,-14.648,0.000
1714026855.593,-27.344,-26.367,-25.391,-15.625,0.000
1714026855.597,-27.344,-30.273,-18.555,-20.020,0.000
1714026855.600,-27.832,-27.832,-17.578,-22.461,0.000
1714026855.604,-18.066,-17.578,-20.020,-20.508,0.000
1714026855.608,-17.090,-17.090,-29.785,-18.066,0.000
1714026855.612,-30.762,-28.809,-35.156,-24.902,0.000
1714026855.616,-27.832,-30.762,-32.715,-30.762,0.000
1714026855.620,-24.414,-23.926,-33.203,-30.273,0.000
1714026855.624,-30.273,-25.391,-32.715,-34.180,0.000
1714026855.628,-34.180,-30.762,-30.762,-34.668,0.000
1714026855.632,-33.203,-31.738,-25.879,-30.273,0.000
1714026855.636,-28.320,-32.227,-27.832,-35.156,0.000
1714026855.640,-28.809,-31.250,-24.414,-33.203,0.000
1714026855.643,-33.203,-29.785,-20.020,-26.367,0.000
1714026855.647,-36.621,-27.344,-22.949,-30.762,0.000
1714026855.651,-35.645,-28.320,-27.832,-21.484,0.000
1714026855.655,-36.621,-29.297,-24.414,-18.066,0.000
1714026855.659,-35.156,-24.414,-19.531,-21.973,0.000
1714026855.663,-30.762,-26.855,-20.996,-16.602,0.000
1714026855.667,-30.273,-27.832,-20.508,-13.672,0.000
1714026855.671,-34.180,-25.879,-24.902,-20.996,0.000
1714026855.675,-34.180,-29.785,-32.715,-24.902,0.000
1714026855.679,-28.320,-30.762,-29.785,-16.602,0.000
1714026855.683,-22.461,-25.879,-26.855,-11.719,0.000
1714026855.686,-18.555,-24.414,-24.414,-15.137,0.000
1714026855.690,-20.996,-20.020,-16.602,-13.672,0.000
1714026855.694,-19.531,-16.113,-17.090,-11.230,0.000
1714026855.698,-28.320,-19.531,-26.855,-15.137,0.000
1714026855.702,-35.645,-23.926,-31.250,-24.902,0.000
1714026855.706,-27.344,-26.367,-27.344,-24.902,0.000
1714026855.710,-20.020,-22.461,-27.832,-13.672,0.000
1714026855.714,-16.113,-21.973,-25.391,-11.719,0.000
1714026855.718,-19.043,-26.367,-22.949,-19.531,0.000
1714026855.722,-25.879,-29.297,-30.273,-29.297,0.000
1714026855.726,-26.855,-20.508,-33.203,-25.391,0.000
1714026855.729,-26.855,-20.508,-29.785,-20.996,0.000
1714026855.733,-25.391,-26.367,-31.250,-22.949,0.000
1714026855.737,-25.391,-22.949,-34.668,-26.367,0.000
1714026855.741,-29.785,-23.438,-40.527,-21.484,0.000
1714026855.745,-35.645,-25.879,-36.621,-20.508,0.000
1714026855.749,-34.180,-22.949,-24.902,-26.855,0.000
1714026855.753,-32.715,-20.508,-28.809,-29.297,0.000
1714026855.757,-35.645,-26.855,-34.180,-38.086,0.000
1714026855.761,-30.273,-23.438,-26.367,-34.180,0.000
1714026855.765,-25.391,-17.578,-27.344,-28.809,0.000
1714026855.768,-20.508,-15.625,-33.691,-30.762,0.000
1714026855.772,-19.043,-23.438,-32.715,-30.762,0.000
1714026855.776,-19.531,-28.809,-30.762,-27.832,0.000
1714026855.780,-17.090,-19.531,-32.227,-21.973,0.000
1714026855.784,-20.020,-18.066,-28.809,-23.438,0.000
1714026855.788,-25.879,-22.949,-24.902,-28.320,0.000
1714026855.792,-24.414,-19.531,-21.973,-35.156,0.000
1714026855.796,-21.484,-19.531,-17.090,-37.598,0.000
1714026855.800,-23.438,-24.902,-17.090,-29.297,0.000
1714026855.804,-24.902,-24.902,-22.461,-22.461,0.000
1714026855.808,-23.926,-20.508,-24.902,-18.066,0.000
1714026855.811,-29.785,-21.484,-32.715,-20.508,0.000
1714026855.815,-28.809,-25.879,-36.133,-27.832,0.000
1714026855.819,-24.414,-34.668,-38.086,-28.320,0.000
1714026855.823,-22.461,-34.668,-41.504,-23.926,0.000
1714026855.827,-21.484,-26.855,-24.902,-17.578,0.000
1714026855.831,-27.344,-32.715,-22.949,-14.648,0.000
1714026855.835,-31.250,-31.738,-18.066,-15.625,0.000
1714026855.839,-31.738,-23.438,-12.695,-20.508,0.000
1714026855.843,-37.598,-27.344,-23.438,-22.949,0.000
1714026855.847,-40.527,-21.973,-23.926,-19.531,0.000
1714026855.850,-38.086,-19.043,-19.531,-23.926,0.000
1714026855.854,-37.598,-28.320,-24.414,-32.715,0.000
1714026855.858,-35.645,-28.320,-26.855,-32.227,0.000
1714026855.862,-34.668,-28.809,-18.555,-24.414,0.000
1714026855.866,-28.809,-22.461,-8.789,-16.602,0.000
1714026855.870,-22.949,-15.625,-18.555,-18.555,0.000
1714026855.874,-31.250,-20.996,-32.227,-26.367,0.000
1714026855.878,-36.621,-29.785,-31.250,-17.578,0.000
1714026855.882,-26.367,-27.832,-28.809,-15.137,0.000
1714026855.886,-21.484,-27.832,-20.996,-24.902,0.000
1714026855.890,-34.180,-32.715,-19.531,-25.879,0.000
1714026855.893,-32.715,-24.414,-19.043,-19.531,0.000
1714026855.897,-27.832,-26.855,-20.508,-17.090,0.000
1714026855.901,-34.668,-37.109,-30.762,-31.738,0.000
1714026855.905,-44.434,-34.180,-34.668,-37.598,0.000
1714026855.909,-43.945,-30.273,-41.016,-29.785,0.000
1714026855.913,-33.691,-31.738,-39.551,-30.273,0.000
1714026855.917,-35.645,-32.227,-26.855,-36.133,0.000
1714026855.921,-41.016,-31.250,-21.973,-33.691,0.000
1714026855.925,-37.109,-30.273,-25.879,-29.297,0.000
1714026855.929,-35.156,-28.320,-30.762,-24.902,0.000
1714026855.932,-34.180,-32.227,-26.855,-24.414,0.000
1714026855.936,-30.273,-40.527,-29.297,-24.414,0.000
1714026855.940,-31.250,-36.133,-32.715,-28.320,0.000
1714026855.944,-33.203,-20.508,-29.785,-26.367,0.000
1714026855.948,-26.855,-16.602,-24.414,-15.625,0.000
1714026855.952,-25.879,-22.949,-23.438,-28.809,0.000
1714026855.956,-30.273,-27.344,-35.156,-40.527,0.000
1714026855.960,-29.297,-31.250,-37.598,-36.133,0.000
1714026855.964,-29.297,-31.738,-32.715,-33.203,0.000
1714026855.968,-28.809,-28.320,-33.203,-33.203,0.000
1714026855.972,-24.902,-31.738,-31.738,-31.738,0.000
1714026855.975,-24.902,-26.855,-21.484,-20.996,0.000
1714026855.979,-27.832,-20.508,-25.391,-15.137,0.000
1714026855.983,-29.297,-31.738,-42.969,-22.949,0.000
1714026855.987,-36.621,-39.551,-37.598,-34.668,0.000
1714026855.991,-40.039,-36.133,-24.414,-41.504,0.000
1714026855.995,-35.156,-30.273,-19.531,-35.156,0.000
1714026855.999,-27.344,-27.344,-24.902,-22.949,0.000
1714026856.003,-28.809,-25.879,-33.691,-32.227,0.000
1714026856.007,-31.250,-29.297,-27.832,-34.668,0.000
1714026856.011,-27.832,-26.855,-23.926,-22.461,0.000
1714026856.015,-28.320,-25.879,-29.297,-28.809,0.000
1714026856.018,-27.832,-31.738,-26.367,-33.691,0.000
1714026856.022,-30.273,-28.320,-21.973,-31.738,0.000
1714026856.026,-31.250,-24.902,-26.855,-26.367,0.000
1714026856.030,-33.691,-17.090,-31.738,-22.461,0.000
1714026856.034,-28.809,-13.184,-22.949,-29.785,0.000
1714026856.038,-23.438,-18.066,-13.672,-34.668,0.000
1714026856.042,-31.250,-23.438,-16.113,-32.715,0.000
1714026856.046,-31.738,-21.973,-27.832,-29.297,0.000
1714026856.050,-30.762,-20.508,-31.738,-28.320,0.000
1714026856.054,-33.203,-25.391,-22.461,-31.250,0.000
1714026856.058,-27.344,-22.949,-22.949,-32.715,0.000
1714026856.061,-30.273,-20.020,-35.645,-32.227,0.000
1714026856.065,-38.574,-22.461,-37.109,-39.062,0.000
1714026856.069,-31.738,-25.391,-29.297,-34.180,0.000
1714026856.073,-24.414,-32.227,-22.949,-19.043,0.000
1714026856.077,-32.715,-35.156,-17.578,-26.855,0.000
1714026856.081,-35.645,-28.809,-28.809,-36.621,0.000
1714026856.085,-32.715,-29.785,-41.016,-27.832,0.000
1714026856.089,-36.621,-29.297,-31.738,-29.297,0.000
1714026856.093,-36.621,-28.809,-21.484,-30.762,0.000
1714026856.097,-33.203,-31.738,-20.020,-30.762,0.000
1714026856.100,-24.902,-26.855,-26.367,-29.785,0.000
1714026856.104,-19.531,-27.832,-33.203,-24.902,0.000
1714026856.108,-32.715,-36.133,-22.461,-27.832,0.000
1714026856.112,-46.875,-33.203,-21.484,-36.621,0.000
1714026856.116,-39.551,-27.344,-36.621,-29.297,0.000
1714026856.120,-30.273,-36.621,-27.832,-20.508,0.000
1714026856.124,-41.504,-39.062,-19.043,-36.133,0.000
1714026856.128,-40.039,-37.598,-22.461,-30.762,0.000
1714026856.132,-31.738,-41.016,-19.531,-20.996,0.000
1714026856.136,-36.621,-37.598,-23.438,-29.785,0.000
1714026856.140,-35.645,-31.738,-26.855,-37.598,0.000
1714026856.143,-32.227,-38.086,-31.250,-36.621,0.000
1714026856.147,-33.203,-38.086,-31.738,-29.297,0.000
1714026856.151,-29.297,-32.715,-22.461,-27.344,0.000
1714026856.155,-28.809,-31.738,-27.344,-30.273,0.000
1714026856.159,-33.203,-33.691,-28.320,-29.785,0.000
1714026856.163,-37.598,-33.691,-24.902,-27.832,0.000
1714026856.167,-36.133,-35.156,-25.879,-29.785,0.000
1714026856.171,-31.250,-34.668,-26.367,-27.344,0.000
1714026856.175,-33.203,-26.367,-25.879,-23.438,0.000
1714026856.179,-32.227,-26.855,-22.949,-22.949,0.000
1714026856.183,-22.461,-25.391,-22.461,-20.508,0.000
1714026856.186,-21.484,-25.879,-22.461,-17.578,0.000
1714026856.190,-23.438,-29.297,-17.090,-20.996,0.000
1714026856.194,-25.879,-30.273,-23.438,-25.879,0.000
1714026856.198,-30.273,-31.250,-31.250,-24.902,0.000
1714026856.202,-35.156,-35.645,-27.832,-34.180,0.000
1714026856.206,-41.504,-36.133,-28.320,-33.203,0.000
1714026856.210,-40.039,-28.809,-33.203,-25.879,0.000
1714026856.214,-39.551,-28.320,-30.762,-32.227,0.000
1714026856.218,-38.086,-30.762,-27.344,-28.320,0.000
1714026856.222,-34.180,-32.715,-29.785,-27.832,0.000
1714026856.225,-29.297,-34.180,-27.832,-31.250,0.000
1714026856.229,-26.367,-26.855,-26.855,-31.250,0.000
1714026856.233,-33.203,-28.320,-27.832,-25.391,0.000
1714026856.237,-31.250,-33.691,-20.996,-14.648,0.000
1714026856.241,-23.926,-26.367,-13.184,-12.695,0.000
1714026856.245,-25.391,-19.531,-16.602,-16.602,0.000
1714026856.249,-28.320,-23.438,-25.391,-22.461,0.000
1714026856.253,-31.250,-27.832,-34.180,-27.832,0.000
1714026856.257,-26.367,-26.855,-25.391,-20.508,0.000
1714026856.261,-29.297,-25.391,-20.020,-21.484,0.000
1714026856.264,-39.551,-28.320,-27.832,-29.785,0.000
1714026856.268,-32.715,-27.832,-33.203,-24.414,0.000
1714026856.272,-26.855,-20.996,-27.344,-22.461,0.000
1714026856.276,-29.785,-23.926,-12.207,-22.461,0.000
1714026856.280,-32.227,-28.320,-9.277,-19.531,0.000
1714026856.284,-34.668,-27.344,-17.090,-21.973,0.000
1714026856.288,-36.133,-32.227,-17.578,-26.855,0.000
1714026856.292,-37.109,-29.297,-19.043,-24.902,0.000
1714026856.296,-31.738,-32.715,-25.879,-16.113,0.000
1714026856.300,-27.832,-40.039,-31.738,-16.602,0.000
1714026856.304,-30.762,-36.133,-33.203,-22.949,0.000
1714026856.307,-31.250,-36.621,-31.250,-25.879,0.000
1714026856.311,-28.320,-29.785,-25.879,-19.531,0.000
1714026856.315,-27.344,-26.367,-20.996,-15.137,0.000
1714026856.319,-31.738,-33.691,-20.020,-26.855,0.000
1714026856.323,-37.109,-29.297,-24.902,-34.180,0.000
1714026856.327,-36.621,-22.461,-27.832,-29.297,0.000
1714026856.331,-30.273,-20.996,-24.414,-26.367,0.000
1714026856.335,-28.320,-24.414,-29.297,-30.273,0.000
1714026856.339,-32.715,-31.738,-33.691,-34.668,0.000
1714026856.343,-28.320,-31.250,-27.344,-26.367,0.000
1714026856.346,-26.855,-22.949,-25.391,-23.438,0.000
1714026856.350,-35.156,-20.508,-29.297,-33.691,0.000
1714026856.354,-34.668,-28.809,-35.156,-31.250,0.000
1714026856.358,-21.973,-29.785,-32.715,-16.602,0.000
1714026856.362,-18.066,-27.344,-25.879,-20.508,0.000
1714026856.366,-29.297,-25.391,-27.344,-38.574,0.000
1714026856.370,-32.227,-19.043,-35.156,-42.969,0.000
1714026856.374,-27.344,-14.648,-35.645,-36.621,0.000
1714026856.378,-20.508,-13.672,-22.461,-30.762,0.000
1714026856.382,-23.926,-21.973,-26.855,-32.227,0.000
1714026856.386,-24.902,-29.785,-34.668,-36.133,0.000
1714026856.389,-18.066,-26.367,-34.180,-32.227,0.000
1714026856.393,-15.625,-20.996,-36.133,-32.715,0.000
1714026856.397,-9.277,-18.555,-36.133,-29.297,0.000
1714026856.401,-5.859,-22.461,-27.832,-20.020,0.000
1714026856.405,-17.090,-23.438,-31.738,-25.879,0.000
1714026856.409,-24.414,-19.531,-29.785,-23.926,0.000
1714026856.413,-22.949,-30.273,-23.438,-23.926,0.000
1714026856.417,-26.855,-33.203,-25.879,-30.273,0.000
1714026856.421,-26.855,-21.973,-24.414,-31.738,0.000
1714026856.425,-27.344,-21.973,-27.832,-29.297,0.000
1714026856.429,-31.738,-27.344,-25.879,-23.438,0.000
1714026856.432,-29.785,-21.973,-24.414,-27.832,0.000
1714026856.436,-27.832,-25.391,-30.762,-32.227,0.000
1714026856.440,-33.203,-26.855,-32.227,-29.785,0.000
1714026856.444,-35.156,-19.531,-28.320,-26.855,0.000
1714026856.448,-38.086,-26.855,-28.809,-23.926,0.000
1714026856.452,-38.086,-30.762,-30.762,-27.832,0.000
1714026856.456,-30.762,-25.879,-29.297,-27.344,0.000
1714026856.460,-30.273,-29.785,-18.066,-21.484,0.000
1714026856.464,-33.203,-38.086,-15.137,-20.508,0.000
1714026856.468,-28.809,-32.227,-19.531,-18.066,0.000
1714026856.472,-29.297,-24.414,-13.184,-18.066,0.000
1714026856.475,-29.785,-21.973,-12.695,-14.160,0.000
1714026856.479,-27.832,-28.809,-18.066,-11.719,0.000
1714026856.483,-26.367,-30.762,-17.578,-14.160,0.000
1714026856.487,-23.926,-31.250,-14.160,-20.020,0.000
1714026856.491,-18.555,-35.156,-15.625,-17.090,0.000
1714026856.495,-14.648,-28.320,-22.461,-15.625,0.000
1714026856.499,-20.508,-20.996,-26.367,-19.043,0.000
1714026856.503,-25.391,-20.508,-29.297,-24.902,0.000
1714026856.507,-22.461,-20.020,-23.926,-28.809,0.000
1714026856.511,-18.555,-20.020,-20.508,-20.996,0.000
1714026856.514,-15.625,-20.508,-26.855,-18.555,0.000
1714026856.518,-17.578,-23.926,-40.039,-19.531,0.000
1714026856.522,-20.996,-25.879,-33.691,-21.973,0.000
1714026856.526,-17.578,-20.508,-20.020,-19.043,0.000
1714026856.530,-19.531,-24.902,-29.297,-24.902,0.000
1714026856.534,-26.367,-25.391,-39.551,-29.297,0.000
1714026856.538,-21.484,-21.973,-34.180,-20.020,0.000
1714026856.542,-19.043,-27.832,-22.949,-21.484,0.000
1714026856.546,-20.996,-27.832,-23.926,-22.461,0.000
1714026856.550,-23.438,-21.484,-23.438,-19.043,0.000
1714026856.554,-26.855,-19.531,-18.555,-21.484,0.000
1714026856.557,-25.391,-21.484,-27.344,-25.879,0.000
1714026856.561,-25.391,-26.367,-30.273,-24.902,0.000
1714026856.565,-30.762,-27.344,-26.855,-20.020,0.000
1714026856.569,-27.832,-20.020,-21.973,-16.113,0.000
1714026856.573,-23.926,-22.461,-24.414,-18.555,0.000
1714026856.577,-27.832,-28.809,-31.250,-29.785,0.000
1714026856.581,-18.066,-26.855,-32.715,-25.391,0.000
1714026856.585,-19.531,-27.344,-35.156,-20.996,0.000
1714026856.589,-27.344,-21.973,-34.668,-27.832,0.000
1714026856.593,-25.391,-20.996,-39.062,-23.926,0.000
1714026856.596,-29.297,-25.391,-39.551,-21.973,0.000
1714026856.600,-28.809,-25.391,-36.133,-26.855,0.000
1714026856.604,-24.902,-17.578,-28.809,-31.250,0.000
1714026856.608,-28.320,-12.207,-26.855,-27.832,0.000
1714026856.612,-33.691,-21.973,-28.809,-24.902,0.000
1714026856.616,-35.156,-24.902,-25.879,-32.227,0.000
1714026856.620,-37.109,-26.367,-26.367,-40.527,0.000
1714026856.624,-36.621,-27.344,-24.902,-36.133,0.000
1714026856.628,-33.203,-17.578,-19.043,-25.391,0.000
1714026856.632,-31.250,-22.461,-19.043,-29.297,0.000
1714026856.636,-30.762,-31.250,-21.484,-41.504,0.000
1714026856.639,-26.855,-26.367,-24.902,-38.574,0.000
1714026856.643,-29.297,-19.043,-23.926,-35.156,0.000
1714026856.647,-35.645,-17.090,-24.902,-35.645,0.000
1714026856.651,-31.250,-24.902,-29.297,-39.551,0.000
1714026856.655,-33.203,-28.320,-18.555,-40.039,0.000
1714026856.659,-34.668,-26.367,-6.836,-32.227,0.000
1714026856.663,-32.715,-24.902,-16.602,-33.691,0.000
1714026856.667,-35.645,-20.996,-35.156,-45.410,0.000
1714026856.671,-41.992,-20.996,-37.598,-46.387,0.000
1714026856.675,-41.992,-24.414,-29.297,-41.992,0.000
1714026856.678,-37.109,-29.297,-22.949,-45.898,0.000
1714026856.682,-38.574,-32.715,-14.160,-46.387,0.000
1714026856.686,-35.645,-26.367,-9.277,-35.645,0.000
1714026856.690,-34.180,-22.461,-18.555,-33.691,0.000
1714026856.694,-34.668,-26.855,-28.809,-38.574,0.000
1714026856.698,-33.203,-32.715,-27.344,-31.250,0.000
1714026856.702,-31.250,-31.738,-24.414,-30.273,0.000
1714026856.706,-34.180,-26.855,-34.180,-40.039,0.000
1714026856.710,-34.668,-18.066,-34.668,-34.668,0.000
1714026856.714,-30.762,-14.648,-22.949,-23.438,0.000
1714026856.718,-34.668,-23.438,-18.066,-29.297,0.000
1714026856.721,-36.133,-20.020,-16.113,-33.691,0.000
1714026856.725,-35.156,-16.602,-12.207,-35.156,0.000
1714026856.729,-34.668,-19.043,-15.137,-31.250,0.000
1714026856.733,-37.598,-22.461,-29.297,-20.996,0.000
1714026856.737,-38.086,-31.738,-33.691,-28.809,0.000
1714026856.741,-36.133,-32.715,-39.551,-35.645,0.000
1714026856.745,-39.062,-29.785,-40.039,-26.367,0.000
1714026856.749,-36.621,-33.691,-26.367,-22.949,0.000
1714026856.753,-38.086,-35.156,-26.367,-27.344,0.000
1714026856.757,-41.016,-32.715,-28.320,-29.297,0.000
1714026856.761,-32.715,-24.902,-31.250,-21.973,0.000
1714026856.764,-32.715,-27.344,-35.156,-19.043,0.000
1714026856.768,-41.016,-32.227,-33.691,-25.879,0.000
1714026856.772,-44.434,-32.715,-37.598,-32.715,0.000
1714026856.776,-41.504,-29.297,-34.668,-24.902,0.000
1714026856.780,-38.574,-24.902,-31.738,-20.996,0.000
1714026856.784,-36.621,-28.809,-32.715,-25.879,0.000
1714026856.788,-31.250,-30.273,-20.996,-20.996,0.000
1714026856.792,-33.203,-30.762,-20.508,-27.344,0.000
1714026856.796,-27.832,-26.855,-23.438,-22.461,0.000
1714026856.800,-23.438,-25.391,-21.484,-13.184,0.000
1714026856.804,-32.227,-32.715,-31.250,-24.902,0.000
1714026856.807,-33.203,-30.273,-28.320,-26.367,0.000
1714026856.811,-34.180,-30.273,-28.320,-20.996,0.000
1714026856.815,-33.691,-32.227,-36.621,-21.484,0.000
1714026856.819,-31.738,-30.273,-30.762,-27.832,0.000
1714026856.823,-27.832,-30.762,-29.297,-23.926,0.000
1714026856.827,-27.832,-31.250,-23.438,-15.137,0.000
1714026856.831,-32.715,-35.156,-32.227,-22.461,0.000
1714026856.835,-26.855,-30.762,-43.457,-26.855,0.000
1714026856.839,-28.320,-25.879,-34.180,-32.715,0.000
1714026856.843,-30.273,-25.879,-29.297,-35.645,0.000
1714026856.846,-25.879,-22.949,-20.020,-21.484,0.000
1714026856.850,-23.438,-25.391,-12.695,-20.020,0.000
1714026856.854,-27.832,-32.227,-16.113,-32.715,0.000
1714026856.858,-30.273,-30.762,-21.484,-30.273,0.000
1714026856.862,-23.438,-22.461,-19.531,-22.461,0.000
1714026856.866,-18.555,-19.531,-16.602,-16.602,0.000
1714026856.870,-17.578,-22.461,-26.855,-20.020,0.000
1714026856.874,-19.531,-18.555,-27.344,-29.785,0.000
1714026856.878,-18.066,-20.996,-20.996,-27.832,0.000
1714026856.882,-14.648,-27.832,-26.367,-24.414,0.000
1714026856.886,-19.531,-26.367,-24.902,-27.344,0.000
1714026856.889,-17.578,-21.484,-14.648,-28.320,0.000
1714026856.893,-18.066,-26.855,-21.484,-25.879,0.000
1714026856.897,-21.484,-35.645,-20.996,-24.414,0.000
1714026856.901,-21.484,-36.133,-16.113,-28.320,0.000
1714026856.905,-28.809,-30.273,-28.320,-36.621,0.000
1714026856.909,-33.691,-38.574,-40.527,-38.574,0.000
1714026856.913,-29.297,-44.434,-35.156,-31.250,0.000
1714026856.917,-27.832,-26.367,-20.508,-25.391,0.000
1714026856.921,-27.832,-13.184,-17.090,-26.367,0.000
1714026856.925,-30.273,-15.625,-17.090,-33.203,0.000
1714026856.928,-29.297,-20.996,-10.742,-26.367,0.000
1714026856.932,-31.250,-25.391,-15.625,-22.949,0.000
1714026856.936,-34.668,-27.832,-31.738,-27.832,0.000
1714026856.940,-27.832,-26.855,-35.645,-26.855,0.000
1714026856.944,-33.203,-28.809,-34.668,-25.879,0.000
1714026856.948,-33.691,-25.879,-38.086,-20.996,0.000
1714026856.952,-32.227,-25.879,-40.039,-20.020,0.000
1714026856.956,-34.180,-25.879,-47.852,-20.020,0.000
1714026856.960,-29.785,-25.879,-42.480,-18.555,0.000
1714026856.964,-30.762,-32.715,-20.996,-20.996,0.000
1714026856.968,-31.738,-30.762,-20.020,-22.949,0.000
1714026856.971,-29.785,-28.809,-36.621,-27.832,0.000
1714026856.975,-32.227,-30.273,-39.551,-28.809,0.000
1714026856.979,-29.785,-23.438,-32.227,-19.043,0.000
1714026856.983,-27.832,-26.367,-37.109,-21.484,0.000
1714026856.987,-31.250,-32.227,-33.203,-28.320,0.000
1714026856.991,-27.832,-25.391,-27.832,-26.367,0.000
1714026856.995,-21.484,-23.438,-32.227,-21.484,0.000
1714026856.999,-23.438,-21.973,-34.180,-19.531,0.000
1714026857.003,-22.461,-22.949,-30.762,-17.578,0.000
1714026857.007,-22.461,-28.809,-36.133,-26.855,0.000
1714026857.010,-27.832,-27.344,-40.527,-30.273,0.000
1714026857.014,-31.250,-28.809,-35.645,-23.926,0.000
1714026857.018,-26.855,-39.551,-34.668,-23.438,0.000
1714026857.022,-24.414,-34.180,-29.785,-20.508,0.000
1714026857.026,-19.043,-21.973,-32.715,-16.602,0.000
1714026857.030,-19.531,-24.414,-40.527,-17.090,0.000
1714026857.034,-34.180,-24.414,-40.039,-26.855,0.000
1714026857.038,-27.832,-20.020,-37.109,-30.762,0.000
1714026857.042,-10.742,-19.531,-35.645,-16.602,0.000
1714026857.046,-19.043,-25.391,-38.086,-12.207,0.000
1714026857.050,-31.250,-28.320,-32.715,-24.414,0.000
1714026857.053,-36.621,-29.297,-26.855,-32.227,0.000
1714026857.057,-37.109,-31.250,-31.738,-33.691,0.000
1714026857.061,-25.879,-27.832,-28.809,-20.996,0.000
1714026857.065,-24.414,-25.879,-25.879,-16.113,0.000
1714026857.069,-24.414,-26.367,-28.320,-19.531,0.000
1714026857.073,-28.320,-25.879,-28.809,-20.996,0.000
1714026857.077,-27.344,-20.996,-24.414,-16.602,0.000
1714026857.081,-20.508,-21.484,-20.996,-16.602,0.000
1714026857.085,-26.367,-27.832,-26.855,-29.297,0.000
1714026857.089,-28.809,-27.344,-28.809,-31.738,0.000
1714026857.093,-25.879,-28.809,-24.902,-27.344,0.000
1714026857.096,-21.973,-26.367,-23.926,-16.113,0.000
1714026857.100,-20.508,-22.949,-21.484,-11.719,0.000
1714026857.104,-23.926,-21.484,-26.855,-16.602,0.000
1714026857.108,-23.926,-27.832,-28.320,-13.672,0.000
1714026857.112,-26.367,-35.156,-24.414,-15.137,0.000
1714026857.116,-24.902,-29.785,-29.297,-21.484,0.000
1714026857.120,-15.137,-25.879,-37.109,-28.320,0.000
1714026857.124,-17.090,-32.227,-32.715,-27.832,0.000
1714026857.128,-19.531,-28.320,-20.020,-24.902,0.000
1714026857.132,-17.578,-16.113,-20.508,-17.090,0.000
1714026857.136,-20.996,-15.137,-29.785,-22.949,0.000
1714026857.139,-25.879,-20.508,-36.133,-31.250,0.000
1714026857.143,-25.879,-35.156,-35.156,-27.344,0.000
1714026857.147,-22.949,-33.691,-27.832,-24.414,0.000
1714026857.151,-23.438,-20.996,-31.738,-21.484,0.000
1714026857.155,-23.438,-21.973,-35.645,-24.902,0.000
1714026857.159,-22.949,-30.762,-25.879,-27.344,0.000
1714026857.163,-24.414,-34.180,-21.973,-23.926,0.000
1714026857.167,-26.367,-30.273,-28.809,-29.297,0.000
1714026857.171,-18.066,-32.227,-36.621,-33.203,0.000
1714026857.175,-13.672,-28.320,-37.109,-33.203,0.000
1714026857.179,-17.578,-19.043,-29.297,-27.344,0.000
1714026857.182,-22.949,-21.484,-24.414,-23.438,0.000
1714026857.186,-25.879,-28.809,-20.508,-20.996,0.000
1714026857.190,-23.926,-29.785,-21.484,-22.461,0.000
1714026857.194,-23.926,-30.762,-30.762,-24.902,0.000
1714026857.198,-17.090,-26.855,-29.785,-11.230,0.000
1714026857.202,-19.043,-18.555,-21.484,-19.043,0.000
1714026857.206,-23.926,-19.043,-20.996,-33.691,0.000
1714026857.210,-15.625,-23.438,-25.879,-26.855,0.000
1714026857.214,0.000,-20.996,-21.484,-23.438,0.000
1714026857.218,0.000,-16.602,-21.973,-23.926,0.000
1714026857.221,0.000,-21.973,-36.133,-29.785,0.000
1714026857.225,0.000,-29.785,-37.109,-33.691,0.000
1714026857.229,0.000,-27.344,-25.391,-26.367,0.000
1714026857.233,0.000,-21.484,-19.531,-23.926,0.000
1714026857.237,0.000,-20.020,-23.926,-24.414,0.000
1714026857.241,0.000,-22.949,-31.250,-18.066,0.000
1714026857.245,0.000,-22.949,-29.297,-19.043,0.000
1714026857.249,0.000,-15.137,-28.320,-30.273,0.000
1714026857.253,0.000,-17.090,-22.949,-29.785,0.000
1714026857.257,0.000,-22.461,-21.484,-27.832,0.000
1714026857.261,-8.789,-26.367,-30.273,-28.320,0.000
1714026857.264,-6.836,-29.785,-34.180,-20.996,0.000
1714026857.268,-9.766,-24.414,-35.156,-18.066,0.000
1714026857.272,-17.578,-22.461,-34.180,-17.578,0.000
1714026857.276,-17.578,-28.320,-34.668,-16.113,0.000
1714026857.280,-20.020,-27.344,-27.344,-15.137,0.000
1714026857.284,-23.926,-24.902,-16.602,-15.137,0.000
1714026857.288,-30.762,-21.484,-13.672,-12.695,0.000
1714026857.292,-30.762,-18.066,-18.555,-18.555,0.000
1714026857.296,-24.902,-21.484,-26.367,-24.902,0.000
1714026857.300,-24.414,-31.738,-28.320,-21.973,0.000
1714026857.303,-30.762,-40.039,-35.156,-24.902,0.000
1714026857.307,-29.297,-36.621,-39.062,-31.250,0.000
1714026857.311,-28.809,-29.785,-31.738,-28.809,0.000
1714026857.315,-27.832,-20.996,-20.996,-19.043,0.000
1714026857.319,-23.926,-17.578,-20.508,-23.438,0.000
1714026857.323,-25.879,-26.367,-29.785,-29.785,0.000
1714026857.327,-22.949,-29.297,-29.297,-31.738,0.000
1714026857.331,-20.020,-29.785,-36.621,-30.273,0.000
1714026857.335,-18.555,-29.297,-36.133,-25.879,0.000
1714026857.339,-25.391,-21.973,-25.879,-34.180,0.000
1714026857.343,-25.879,-24.902,-21.973,-31.738,0.000
1714026857.346,-23.438,-30.273,-22.461,-27.832,0.000
1714026857.350,-25.879,-25.879,-24.414,-27.344,0.000
1714026857.354,-20.508,-26.367,-25.879,-23.438,0.000
1714026857.358,-22.461,-26.367,-31.250,-26.855,0.000
1714026857.362,-22.461,-27.832,-43.457,-35.156,0.000
1714026857.366,-18.555,-29.785,-26.855,-36.133,0.000
1714026857.370,-17.090,-28.809,-13.184,-33.203,0.000
1714026857.374,-14.160,-28.320,-25.879,-32.715,0.000
1714026857.378,-18.066,-29.297,-32.715,-25.391,0.000
1714026857.382,-20.996,-28.320,-37.598,-28.320,0.000
1714026857.385,-19.531,-24.414,-36.621,-35.156,0.000
1714026857.389,-28.320,-20.508,-43.457,-41.016,0.000
1714026857.393,-28.809,-22.461,-46.875,-37.109,0.000
1714026857.397,-21.973,-26.855,-33.203,-28.809,0.000
1714026857.401,-18.555,-21.484,-22.461,-26.855,0.000
1714026857.405,-14.648,-21.973,-17.090,-24.414,0.000
1714026857.409,-20.020,-25.879,-29.297,-29.297,0.000
1714026857.413,-25.879,-28.320,-44.922,-31.250,0.000
1714026857.417,-23.926,-26.855,-42.480,-28.809,0.000
1714026857.421,-24.414,-25.391,-37.109,-29.785,0.000
1714026857.425,-25.879,-25.391,-31.250,-26.855,0.000
1714026857.428,-23.438,-27.344,-23.438,-27.344,0.000
1714026857.432,-27.344,-30.273,-23.926,-30.273,0.000
1714026857.436,-25.879,-26.855,-22.949,-29.785,0.000
1714026857.440,-26.367,-27.832,-18.555,-30.762,0.000
1714026857.444,-28.320,-28.809,-24.902,-32.227,0.000
1714026857.448,-18.066,-26.855,-30.762,-33.203,0.000
1714026857.452,-20.508,-21.484,-29.785,-34.668,0.000
1714026857.456,-24.902,-13.184,-22.949,-30.273,0.000
1714026857.460,-26.855,-17.578,-19.043,-25.879,0.000
1714026857.464,-24.414,-21.973,-22.949,-27.344,0.000
1714026857.467,-18.066,-23.438,-27.832,-24.414,0.000
1714026857.471,-19.531,-24.414,-29.785,-22.949,0.000
1714026857.475,-25.879,-28.320,-25.879,-29.297,0.000
1714026857.479,-27.344,-30.762,-22.461,-26.367,0.000
1714026857.483,-28.320,-32.715,-21.973,-19.531,0.000
1714026857.487,-29.297,-31.250,-24.902,-22.949,0.000
1714026857.491,-18.066,-26.855,-28.320,-27.344,0.000
1714026857.495,-16.113,-26.855,-33.203,-29.297,0.000
1714026857.499,-20.996,-27.832,-32.227,-29.785,0.000
1714026857.503,-17.578,-29.785,-22.461,-36.133,0.000
1714026857.507,-19.531,-34.668,-21.973,-41.016,0.000
1714026857.510,-27.832,-35.645,-29.297,-40.039,0.000
1714026857.514,-25.391,-33.691,-26.855,-36.621,0.000
1714026857.518,-21.484,-30.273,-21.973,-33.691,0.000
1714026857.522,-18.555,-20.020,-24.902,-34.180,0.000
1714026857.526,-20.020,-19.531,-29.785,-25.391,0.000
1714026857.530,-21.973,-25.391,-30.762,-19.531,0.000
1714026857.534,-19.531,-23.926,-31.250,-27.832,0.000
1714026857.538,-22.949,-24.414,-40.039,-29.297,0.000
1714026857.542,-29.785,-33.203,-41.992,-30.273,0.000
1714026857.546,-39.062,-39.551,-37.109,-31.250,0.000
1714026857.550,-39.551,-33.691,-34.180,-27.344,0.000
1714026857.553,-40.527,-28.809,-31.250,-27.832,0.000
1714026857.557,-44.434,-32.715,-28.809,-24.902,0.000
1714026857.561,-32.227,-30.273,-23.438,-19.043,0.000
1714026857.565,-28.320,-22.461,-21.973,-26.367,0.000
1714026857.569,-27.832,-26.367,-30.273,-30.273,0.000
1714026857.573,-10.742,-29.785,-25.879,-8.301,0.000
1714026857.577,-10.254,-23.926,-20.996,-11.230,0.000
1714026857.581,-29.785,-19.043,-34.668,-38.086,0.000
1714026857.585,-27.832,-13.672,-33.691,-37.109,0.000
1714026857.589,-22.949,-15.625,-20.996,-31.738,0.000
1714026857.593,-24.902,-19.531,-32.715,-32.715,0.000
1714026857.596,-29.297,-25.391,-45.898,-31.738,0.000
1714026857.600,-29.785,-28.320,-37.109,-37.109,0.000
1714026857.604,-30.273,-26.855,-31.250,-39.062,0.000
1714026857.608,-37.109,-28.320,-28.809,-36.621,0.000
1714026857.612,-40.039,-31.250,-27.344,-38.574,0.000
1714026857.616,-39.062,-32.227,-24.414,-31.250,0.000
1714026857.620,-36.133,-29.297,-18.555,-29.297,0.000
1714026857.624,-34.180,-31.250,-23.926,-33.203,0.000
1714026857.628,-29.297,-33.691,-29.297,-28.320,0.000
1714026857.632,-28.320,-33.203,-30.762,-25.391,0.000
1714026857.635,-30.762,-29.785,-39.062,-29.297,0.000
1714026857.639,-30.762,-23.438,-40.039,-36.621,0.000
1714026857.643,-27.832,-17.578,-35.156,-32.227,0.000
1714026857.647,-21.973,-18.555,-20.996,-22.461,0.000
1714026857.651,-24.414,-24.902,-16.602,-21.973,0.000
1714026857.655,-27.832,-31.250,-33.691,-28.320,0.000
1714026857.659,-30.273,-32.227,-40.039,-34.668,0.000
1714026857.663,-29.297,-35.645,-39.062,-29.785,0.000
1714026857.667,-27.832,-26.367,-50.293,-32.227,0.000
1714026857.671,-27.832,-16.113,-48.828,-36.621,0.000
1714026857.675,-25.391,-21.484,-35.156,-31.738,0.000
1714026857.678,-20.996,-22.461,-22.461,-21.973,0.000
1714026857.682,-17.578,-15.625,-16.602,-20.508,0.000
1714026857.686,-14.160,-19.043,-16.602,-22.949,0.000
1714026857.690,-13.184,-21.973,-23.926,-20.020,0.000
1714026857.694,-14.648,-14.648,-33.203,-18.555,0.000
1714026857.698,-14.648,-11.719,-26.367,-13.184,0.000
1714026857.702,-12.695,-18.066,-27.832,-14.160,0.000
1714026857.706,-11.230,-23.438,-38.574,-11.719,0.000
1714026857.710,-16.113,-28.809,-25.391,-9.766,0.000
1714026857.714,-11.230,-30.273,-14.160,-13.672,0.000
1714026857.717,-11.719,-30.273,-28.320,-17.578,0.000
1714026857.721,-19.043,-29.785,-38.086,-27.344,0.000
1714026857.725,-17.090,-30.762,-35.645,-30.762,0.000
1714026857.729,-15.137,-32.715,-32.227,-31.250,0.000
1714026857.733,-19.043,-28.320,-32.715,-33.691,0.000
1714026857.737,-20.508,-23.926,-26.855,-32.715,0.000
1714026857.741,-14.648,-21.484,-23.926,-25.879,0.000
1714026857.745,-17.578,-22.461,-27.832,-27.344,0.000
1714026857.749,-20.020,-21.484,-32.227,-25.391,0.000
1714026857.753,-14.648,-26.367,-28.320,-15.625,0.000
1714026857.757,-20.508,-32.715,-26.855,-26.367,0.000
1714026857.760,-23.926,-26.855,-33.203,-25.879,0.000
1714026857.764,-18.066,-25.879,-27.344,-14.648,0.000
1714026857.768,-15.137,-27.832,-24.902,-23.438,0.000
1714026857.772,-19.043,-23.926,-23.926,-25.879,0.000
1714026857.776,-23.438,-21.973,-21.973,-24.414,0.000
1714026857.780,-23.926,-25.391,-26.367,-31.250,0.000
1714026857.784,-21.484,-29.785,-26.855,-30.273,0.000
1714026857.788,-18.555,-36.621,-33.691,-28.809,0.000
1714026857.792,-20.508,-30.762,-28.320,-28.320,0.000
1714026857.796,-19.531,-30.762,-20.508,-21.484,0.000
1714026857.799,-18.066,-35.645,-17.578,-21.484,0.000
1714026857.803,-17.578,-26.855,-12.207,-25.391,0.000
1714026857.807,-17.090,-27.344,-20.020,-27.832,0.000
1714026857.811,-23.926,-37.109,-23.926,-24.414,0.000
1714026857.815,-23.926,-41.016,-17.578,-20.996,0.000
1714026857.819,-16.113,-36.621,-17.090,-27.344,0.000
1714026857.823,-15.625,-24.414,-24.902,-35.645,0.000
1714026857.827,-18.555,-18.066,-22.949,-32.227,0.000
1714026857.831,-15.137,-17.578,-16.602,-22.461,0.000
1714026857.835,-19.531,-20.020,-22.461,-27.832,0.000
1714026857.839,-19.531,-21.484,-16.113,-25.391,0.000
1714026857.842,-16.113,-24.902,-6.348,-19.531,0.000
1714026857.846,-25.391,-22.949,-20.996,-29.785,0.000
1714026857.850,-26.855,-21.973,-34.668,-33.691,0.000
1714026857.854,-22.461,-21.973,-33.691,-32.715,0.000
1714026857.858,-27.344,-23.926,-31.738,-33.203,0.000
1714026857.862,-35.156,-30.762,-27.832,-32.227,0.000
1714026857.866,-37.598,-35.156,-22.461,-33.203,0.000
1714026857.870,-33.203,-27.344,-20.020,-31.250,0.000
1714026857.874,-35.156,-22.949,-26.367,-34.180,0.000
1714026857.878,-35.645,-27.344,-31.738,-30.762,0.000
1714026857.882,-33.691,-28.320,-32.715,-26.367,0.000
1714026857.885,-33.691,-32.227,-40.527,-34.668,0.000
1714026857.889,-29.785,-30.762,-41.992,-29.785,0.000
1714026857.893,-23.926,-23.438,-33.691,-19.043,0.000
1714026857.897,-23.438,-23.438,-21.484,-16.602,0.000
1714026857.901,-22.949,-27.344,-12.207,-22.949,0.000
1714026857.905,-17.578,-20.508,-21.484,-29.297,0.000
1714026857.909,-16.602,-14.160,-31.738,-27.344,0.000
1714026857.913,-18.066,-18.066,-35.645,-28.809,0.000
1714026857.917,-14.160,-20.020,-33.203,-30.762,0.000
1714026857.921,-9.766,-20.508,-29.785,-29.785,0.000
1714026857.925,-19.531,-22.949,-26.855,-34.668,0.000
1714026857.928,-20.508,-19.043,-16.113,-31.738,0.000
1714026857.932,-13.672,-16.113,-12.207,-23.438,0.000
1714026857.936,-23.438,-25.391,-20.996,-28.320,0.000
1714026857.940,-30.273,-32.227,-27.344,-40.039,0.000
1714026857.944,-24.414,-31.738,-31.250,-29.785,0.000
1714026857.948,-21.973,-36.621,-31.738,-20.508,0.000
1714026857.952,-27.344,-39.062,-22.949,-33.691,0.000
1714026857.956,-27.832,-36.621,-24.902,-40.039,0.000
1714026857.960,-24.414,-33.203,-23.438,-39.551,0.000
1714026857.964,-22.461,-30.273,-14.160,-31.250,0.000
1714026857.967,-20.508,-27.832,-21.973,-30.273,0.000
1714026857.971,-24.414,-30.762,-28.809,-38.574,0.000
1714026857.975,-31.738,-38.574,-34.668,-41.992,0.000
1714026857.979,-25.391,-38.086,-36.621,-38.574,0.000
1714026857.983,-22.461,-32.715,-33.203,-37.598,0.000
1714026857.987,-25.879,-36.133,-27.832,-45.410,0.000
1714026857.991,-22.461,-41.504,-21.973,-43.457,0.000
1714026857.995,-22.949,-45.410,-29.785,-34.180,0.000
1714026857.999,-28.320,-39.062,-34.180,-40.527,0.000
1714026858.003,-28.320,-31.250,-28.809,-43.457,0.000
1714026858.006,-24.902,-32.715,-30.273,-37.598,0.000
1714026858.010,-27.344,-29.297,-31.250,-34.668,0.000
1714026858.014,-29.297,-25.879,-24.414,-39.062,0.000
1714026858.018,-22.949,-27.344,-24.414,-36.133,0.000
1714026858.022,-13.672,-24.414,-27.832,-31.738,0.000
1714026858.026,-9.277,-18.066,-32.715,-24.902,0.000
1714026858.030,-11.230,-20.508,-32.715,-23.438,0.000
1714026858.034,-10.742,-23.926,-27.832,-27.344,0.000
1714026858.038,-6.836,-24.902,-29.785,-21.484,0.000
1714026858.042,-10.254,-30.273,-29.297,-26.855,0.000
1714026858.046,-12.207,-27.344,-21.973,-27.344,0.000
1714026858.049,-12.695,-25.391,-17.578,-22.949,0.000
1714026858.053,-11.230,-30.762,-20.996,-30.762,0.000
1714026858.057,-14.160,-30.273,-26.855,-37.598,0.000
1714026858.061,-23.926,-29.785,-34.180,-32.715,0.000
1714026858.065,-25.879,-28.320,-38.574,-30.273,0.000
1714026858.069,-20.508,-23.438,-27.832,-32.227,0.000
1714026858.073,-23.926,-29.297,-28.809,-37.598,0.000
1714026858.077,-23.438,-31.738,-31.738,-37.598,0.000
1714026858.081,-13.672,-31.738,-22.949,-23.438,0.000
1714026858.085,-15.137,-34.180,-26.855,-14.648,0.000
1714026858.089,-22.949,-23.438,-25.391,-25.391,0.000
1714026858.092,-21.973,-18.066,-15.625,-31.250,0.000
1714026858.096,-29.297,-24.902,-22.949,-28.809,0.000
1714026858.100,-30.762,-19.043,-17.090,-22.949,0.000
1714026858.104,-26.855,-18.066,-7.812,-20.996,0.000
1714026858.108,-31.738,-29.785,-19.531,-25.879,0.000
1714026858.112,-31.738,-33.691,-23.438,-21.484,0.000
1714026858.116,-25.879,-30.273,-24.414,-19.531,0.000
1714026858.120,-21.973,-25.879,-26.855,-28.320,0.000
1714026858.124,-25.391,-27.344,-27.832,-32.715,0.000
1714026858.128,-24.414,-27.344,-29.785,-27.832,0.000
1714026858.131,-23.926,-25.879,-28.320,-25.879,0.000
1714026858.135,-19.043,-24.414,-19.531,-23.926,0.000
1714026858.139,-18.066,-23.438,-18.555,-23.926,0.000
1714026858.143,-16.602,-23.438,-24.414,-18.555,0.000
1714026858.147,-12.207,-26.855,-29.297,-17.578,0.000
1714026858.151,-6.836,-27.832,-31.250,-17.578,0.000
1714026858.155,-16.602,-27.344,-32.715,-29.785,0.000
1714026858.159,-29.785,-30.762,-28.809,-33.691,0.000
1714026858.163,-19.531,-25.391,-16.113,-14.160,0.000
1714026858.167,-13.672,-21.484,-11.230,-15.137,0.000
1714026858.171,-17.578,-27.344,-16.113,-20.020,0.000
1714026858.174,-20.020,-33.691,-27.832,-20.996,0.000
1714026858.178,-26.855,-34.668,-37.598,-23.926,0.000
1714026858.182,-23.438,-29.785,-28.809,-23.926,0.000
1714026858.186,-25.879,-27.832,-20.020,-30.273,0.000
1714026858.190,-32.715,-32.227,-19.043,-38.086,0.000
1714026858.194,-25.879,-32.227,-23.438,-34.668,0.000
1714026858.198,-18.066,-27.344,-26.367,-28.320,0.000
1714026858.202,-7.812,-26.855,-24.902,-26.855,0.000
1714026858.206,-6.348,-31.250,-34.668,-32.715,0.000
1714026858.210,-14.160,-34.180,-37.598,-31.738,0.000
1714026858.214,-13.672,-41.504,-33.203,-27.344,0.000
1714026858.217,-15.137,-41.992,-30.273,-33.203,0.000
1714026858.221,-15.137,-33.203,-26.367,-34.180,0.000
1714026858.225,-9.277,-27.344,-20.020,-28.809,0.000
1714026858.229,-14.160,-19.531,-19.531,-23.438,0.000
1714026858.233,-26.855,-19.043,-29.297,-26.855,0.000
1714026858.237,-27.344,-22.461,-35.156,-24.414,0.000
1714026858.241,-20.020,-21.973,-30.762,-23.926,0.000
1714026858.245,-20.508,-23.438,-18.066,-23.926,0.000
1714026858.249,-21.484,-24.414,-15.625,-23.438,0.000
1714026858.253,-18.066,-24.902,-16.602,-21.484,0.000
1714026858.257,-23.438,-23.926,-22.461,-23.926,0.000
1714026858.260,-27.832,-19.043,-15.137,-27.344,0.000
1714026858.264,-24.902,-20.996,-13.672,-21.484,0.000
1714026858.268,-22.949,-28.320,-26.855,-26.367,0.000
1714026858.272,-26.855,-31.738,-25.391,-37.109,0.000
1714026858.276,-28.809,-35.645,-26.367,-33.691,0.000
1714026858.280,-26.855,-31.738,-24.414,-26.367,0.000
1714026858.284,-26.855,-26.367,-12.695,-28.320,0.000
1714026858.288,-30.762,-27.344,-17.090,-34.668,0.000
1714026858.292,-28.809,-23.926,-17.090,-32.715,0.000
1714026858.296,-27.832,-24.414,-15.625,-26.855,0.000
1714026858.300,-29.785,-33.691,-23.926,-31.738,0.000
1714026858.303,-33.203,-37.109,-32.227,-40.039,0.000
1714026858.307,-32.227,-28.809,-27.832,-38.574,0.000
1714026858.311,-28.809,-24.414,-23.438,-28.809,0.000
1714026858.315,-27.344,-25.391,-27.832,-25.391,0.000
1714026858.319,-28.320,-27.344,-23.438,-30.273,0.000
1714026858.323,-23.926,-27.344,-18.555,-28.809,0.000
1714026858.327,-22.949,-27.832,-19.531,-25.879,0.000
1714026858.331,-22.461,-30.762,-18.066,-26.855,0.000
1714026858.335,-21.973,-31.738,-12.695,-26.855,0.000
1714026858.339,-25.879,-24.902,-17.578,-30.273,0.000
1714026858.342,-27.344,-21.484,-21.484,-31.250,0.000
1714026858.346,-19.043,-26.855,-14.160,-20.508,0.000
1714026858.350,-18.066,-25.391,-15.625,-17.578,0.000
1714026858.354,-24.414,-24.902,-20.020,-24.902,0.000
1714026858.358,-20.020,-28.320,-17.578,-17.578,0.000
1714026858.362,-21.484,-30.762,-25.879,-12.695,0.000
1714026858.366,-22.461,-28.809,-31.250,-11.230,0.000
1714026858.370,-12.207,-22.461,-19.531,-13.672,0.000
1714026858.374,-9.277,-20.508,-18.066,-25.391,0.000
1714026858.378,-15.137,-19.531,-19.531,-22.461,0.000
1714026858.381,-17.578,-16.602,-16.602,-18.066,0.000
1714026858.385,-19.531,-17.578,-18.066,-27.832,0.000
1714026858.389,-22.461,-22.461,-18.555,-35.645,0.000
1714026858.393,-18.555,-26.367,-15.137,-23.438,0.000
1714026858.397,-13.672,-25.879,-15.625,-17.578,0.000
1714026858.401,-13.672,-19.531,-20.508,-21.973,0.000
1714026858.405,-20.020,-17.578,-15.625,-30.762,0.000
1714026858.409,-20.508,-22.949,-9.766,-30.762,0.000
1714026858.413,-20.020,-33.203,-11.230,-17.090,0.000
1714026858.417,-18.066,-30.273,-13.672,-22.461,0.000
1714026858.421,-15.625,-19.531,-17.090,-31.738,0.000
1714026858.424,-19.531,-22.461,-21.973,-24.902,0.000
1714026858.428,-24.902,-30.273,-26.367,-22.949,0.000
1714026858.432,-26.367,-28.320,-24.902,-26.855,0.000
1714026858.436,-22.949,-26.367,-26.855,-30.762,0.000
1714026858.440,-20.996,-30.762,-23.438,-26.367,0.000
1714026858.444,-24.902,-27.832,-23.926,-29.785,0.000
1714026858.448,-28.320,-24.902,-23.438,-34.668,0.000
1714026858.452,-24.902,-24.902,-20.020,-34.668,0.000
1714026858.456,-30.273,-26.855,-29.297,-33.203,0.000
1714026858.460,-25.391,-28.320,-33.203,-22.949,0.000
1714026858.464,-20.996,-31.738,-27.344,-28.320,0.000
1714026858.467,-27.344,-29.297,-26.367,-37.109,0.000
1714026858.471,-25.391,-25.879,-18.555,-34.180,0.000
1714026858.475,-21.484,-26.855,-21.484,-27.344,0.000
1714026858.479,-19.043,-25.879,-29.785,-22.461,0.000
1714026858.483,-16.602,-30.762,-25.391,-20.020,0.000
1714026858.487,-19.531,-31.738,-27.344,-31.250,0.000
1714026858.491,-20.996,-27.344,-33.691,-37.109,0.000
1714026858.495,-21.973,-27.344,-32.715,-34.668,0.000
1714026858.499,-21.973,-25.879,-23.438,-35.645,0.000
1714026858.503,-18.066,-25.879,-12.207,-31.738,0.000
1714026858.506,-22.949,-24.414,-15.625,-31.250,0.000
1714026858.510,-18.066,-23.438,-27.832,-25.879,0.000
1714026858.514,-10.742,-23.926,-26.855,-27.344,0.000
1714026858.518,-17.578,-25.391,-26.367,-30.762,0.000
1714026858.522,-17.578,-23.438,-29.785,-26.855,0.000
1714026858.526,-17.090,-23.926,-23.926,-29.785,0.000
1714026858.530,-16.113,-28.809,-20.508,-27.832,0.000
1714026858.534,-11.719,-27.832,-18.066,-24.414,0.000
1714026858.538,-14.160,-28.809,-14.648,-23.438,0.000
1714026858.542,-13.184,-29.785,-19.531,-18.555,0.000
1714026858.546,-18.066,-33.691,-27.832,-20.996,0.000
1714026858.549,-18.066,-34.668,-27.832,-20.508,0.000
1714026858.553,-19.531,-27.344,-27.832,-27.832,0.000
1714026858.557,-24.902,-30.762,-27.344,-32.715,0.000
1714026858.561,-17.090,-34.668,-22.461,-14.648,0.000
1714026858.565,-23.438,-29.297,-23.926,-16.602,0.000
1714026858.569,-31.250,-24.414,-26.367,-30.762,0.000
1714026858.573,-24.414,-26.855,-30.273,-29.785,0.000
1714026858.577,-24.414,-31.738,-30.273,-30.273,0.000
1714026858.581,-24.414,-28.809,-27.832,-30.273,0.000
1714026858.585,-21.973,-28.320,-25.391,-26.855,0.000
1714026858.589,-24.902,-35.156,-28.320,-34.180,0.000
1714026858.592,-23.438,-34.668,-35.645,-33.203,0.000
1714026858.596,-25.879,-30.273,-38.574,-23.926,0.000
1714026858.600,-31.738,-35.156,-40.039,-31.738,0.000
1714026858.604,-29.297,-34.180,-41.992,-31.250,0.000
1714026858.608,-22.461,-30.762,-41.504,-27.344,0.000
1714026858.612,-23.926,-33.691,-33.203,-37.109,0.000
1714026858.616,-21.484,-33.691,-19.043,-29.785,0.000
1714026858.620,-19.043,-30.762,-19.043,-22.461,0.000
1714026858.624,-28.809,-34.668,-32.227,-30.273,0.000
1714026858.628,-26.367,-27.832,-22.949,-26.855,0.000
1714026858.631,-16.113,-19.043,-16.113,-19.043,0.000
1714026858.635,-16.602,-20.020,-20.508,-13.184,0.000
1714026858.639,-17.578,-23.438,-20.020,-14.648,0.000
1714026858.643,-20.996,-28.809,-20.996,-18.555,0.000
1714026858.647,-24.414,-26.855,-14.648,-18.555,0.000
1714026858.651,-14.648,-19.043,-12.695,-13.184,0.000
1714026858.655,-15.137,-21.484,-30.273,-16.602,0.000
1714026858.659,-23.438,-23.926,-35.156,-32.715,0.000
1714026858.663,-22.949,-26.367,-22.461,-29.785,0.000
1714026858.667,-21.973,-27.344,-18.555,-28.809,0.000
1714026858.671,-26.855,-20.508,-20.996,-36.133,0.000
1714026858.674,-28.320,-19.531,-21.973,-32.715,0.000
1714026858.678,-23.926,-24.414,-16.602,-24.902,0.000
1714026858.682,-22.461,-19.531,-10.254,-24.414,0.000
1714026858.686,-27.832,-18.066,-16.113,-31.250,0.000
1714026858.690,-34.668,-24.902,-17.578,-40.527,0.000
1714026858.694,-31.250,-19.043,-26.367,-39.551,0.000
1714026858.698,-25.879,-20.508,-33.691,-22.949,0.000
1714026858.702,-38.086,-35.645,-22.949,-28.320,0.000
1714026858.706,-47.852,-23.438,-15.625,-47.363,0.000
1714026858.710,-60.547,-16.602,-12.207,-65.918,0.000
1714026858.714,-72.266,-25.879,-17.090,-78.125,0.000
1714026858.717,-65.430,-28.320,-20.508,-69.824,0.000
1714026858.721,-55.664,-29.297,-15.625,-64.453,0.000
1714026858.725,-69.824,-25.879,-18.555,-77.148,0.000
1714026858.729,-97.168,-22.949,-22.461,-100.098,0.000
1714026858.733,-101.074,-22.949,-20.020,-105.469,0.000
1714026858.737,-101.074,-25.391,-14.160,-114.258,0.000
1714026858.741,-101.074,-23.926,-9.766,-112.793,0.000
1714026858.745,-100.586,-21.484,-10.254,-103.516,0.000
1714026858.749,-115.723,-21.484,-3.906,-113.281,0.000
1714026858.753,-115.234,-26.855,1.953,-116.211,0.000
1714026858.756,-90.332,-23.926,3.906,-99.121,0.000
1714026858.760,-73.242,-15.137,5.859,-82.520,0.000
1714026858.764,-79.590,-17.090,1.465,-87.402,0.000
1714026858.768,-75.195,-19.531,-2.930,-90.820,0.000
1714026858.772,-57.617,-17.090,0.488,-78.125,0.000
1714026858.776,-55.664,-26.367,8.301,-66.406,0.000
1714026858.780,-55.176,-34.668,1.953,-56.152,0.000
1714026858.784,-38.574,-32.227,-10.742,-45.898,0.000
1714026858.788,-20.996,-35.645,-11.230,-28.809,0.000
1714026858.792,-15.137,-39.062,-7.812,-24.414,0.000
1714026858.796,-5.371,-33.203,-14.648,-27.344,0.000
1714026858.799,14.648,-30.273,-22.949,-11.719,0.000
1714026858.803,26.855,-28.809,-28.809,1.953,0.000
1714026858.807,24.414,-31.738,-32.227,4.395,0.000
1714026858.811,27.832,-42.969,-35.645,11.719,0.000
1714026858.815,34.668,-50.781,-32.715,26.367,0.000
1714026858.819,39.062,-47.363,-28.809,31.738,0.000
1714026858.823,44.434,-42.969,-39.062,31.250,0.000
1714026858.827,50.781,-35.645,-46.387,33.691,0.000
1714026858.831,54.199,-34.668,-47.363,46.875,0.000
1714026858.835,61.035,-39.062,-49.316,53.223,0.000
1714026858.838,62.012,-35.645,-42.969,45.898,0.000
1714026858.842,69.336,-30.762,-33.203,53.711,0.000
1714026858.846,76.660,-30.273,-39.551,67.383,0.000
1714026858.850,64.453,-28.320,-48.340,59.570,0.000
1714026858.854,59.082,-35.645,-48.340,51.758,0.000
1714026858.858,61.035,-39.062,-46.387,50.781,0.000
1714026858.862,55.176,-36.133,-41.504,43.945,0.000
1714026858.866,58.105,-36.133,-35.645,52.246,0.000
1714026858.870,67.871,-31.250,-37.109,61.035,0.000
1714026858.874,62.500,-28.809,-39.062,52.734,0.000
1714026858.878,59.570,-29.785,-33.203,58.105,0.000
1714026858.881,62.988,-27.344,-37.109,62.012,0.000
1714026858.885,58.105,-26.855,-47.852,48.340,0.000
1714026858.889,52.734,-29.785,-47.363,38.574,0.000
1714026858.893,44.922,-32.715,-45.410,40.039,0.000
1714026858.897,40.039,-33.691,-43.457,46.387,0.000
1714026858.901,37.598,-37.598,-46.875,41.016,0.000
1714026858.905,31.738,-39.551,-46.387,29.297,0.000
1714026858.909,34.180,-34.668,-41.504,29.785,0.000
1714026858.913,35.156,-30.273,-44.434,34.668,0.000
1714026858.917,28.809,-30.762,-51.758,22.461,0.000
1714026858.920,22.461,-30.762,-50.781,14.160,0.000
1714026858.924,20.508,-22.949,-42.480,15.625,0.000
1714026858.928,20.508,-19.043,-36.621,17.578,0.000
1714026858.932,21.484,-22.461,-35.645,19.531,0.000
1714026858.936,19.531,-27.832,-38.574,14.648,0.000
1714026858.940,15.625,-28.809,-38.574,12.207,0.000
1714026858.944,14.648,-26.367,-30.273,12.695,0.000
1714026858.948,11.719,-28.320,-23.926,18.555,0.000
1714026858.952,6.836,-27.832,-26.367,15.625,0.000
1714026858.956,10.742,-28.320,-27.344,7.812,0.000
1714026858.960,8.301,-22.461,-26.367,6.836,0.000
1714026858.963,6.836,-19.043,-30.762,7.324,0.000
1714026858.967,14.648,-21.973,-25.391,4.883,0.000
1714026858.971,10.254,-20.996,-22.461,2.441,0.000
1714026858.975,0.488,-29.785,-27.832,-1.465,0.000
1714026858.979,0.488,-35.645,-25.391,-1.465,0.000
1714026858.983,1.953,-26.855,-23.926,-2.441,0.000
1714026858.987,-4.395,-25.879,-21.484,-12.695,0.000
1714026858.991,-9.277,-29.785,-16.602,-20.508,0.000
1714026858.995,-6.348,-25.391,-19.043,-13.184,0.000
1714026858.999,-6.348,-24.414,-22.949,-5.859,0.000
1714026859.003,-7.812,-27.832,-19.043,-8.789,0.000
1714026859.006,-7.812,-28.809,-18.066,-10.254,0.000
1714026859.010,-7.812,-24.902,-21.973,-7.324,0.000
1714026859.014,-14.160,-26.367,-27.344,-10.742,0.000
1714026859.018,-21.484,-29.785,-29.297,-16.113,0.000
1714026859.022,-20.996,-32.715,-28.809,-23.438,0.000
1714026859.026,-18.066,-37.109,-33.203,-23.926,0.000
1714026859.030,-17.090,-33.203,-30.273,-21.973,0.000
1714026859.034,-17.578,-28.320,-23.926,-22.949,0.000
1714026859.038,-17.090,-28.809,-18.555,-22.461,0.000
1714026859.042,-16.113,-29.297,-15.625,-20.020,0.000
1714026859.046,-13.672,-29.297,-18.555,-17.578,0.000
1714026859.049,-16.602,-29.297,-20.508,-18.555,0.000
1714026859.053,-17.578,-28.320,-17.578,-17.090,0.000
1714026859.057,-18.066,-30.762,-13.672,-19.531,0.000
1714026859.061,-19.531,-34.668,-15.625,-14.648,0.000
1714026859.065,-20.020,-32.715,-19.531,-8.789,0.000
1714026859.069,-18.066,-29.785,-18.555,-13.672,0.000
1714026859.073,-20.996,-28.320,-22.461,-12.695,0.000
1714026859.077,-27.344,-32.715,-28.809,-19.531,0.000
1714026859.081,-28.320,-37.598,-27.344,-26.855,0.000
1714026859.085,-18.066,-34.180,-21.973,-19.531,0.000
1714026859.089,-13.184,-30.762,-18.555,-16.602,0.000
1714026859.092,-16.113,-26.855,-18.555,-14.648,0.000
1714026859.096,-14.160,-30.273,-21.973,-15.625,0.000
1714026859.100,-16.602,-40.039,-23.438,-20.020,0.000
1714026859.104,-20.020,-40.527,-21.973,-22.461,0.000
1714026859.108,-21.484,-38.086,-30.762,-26.855,0.000
1714026859.112,-23.926,-38.086,-34.668,-31.250,0.000
1714026859.116,-23.926,-33.203,-31.250,-30.273,0.000
1714026859.120,-28.320,-33.203,-36.621,-35.156,0.000
1714026859.124,-28.320,-34.180,-37.109,-34.180,0.000
1714026859.128,-22.461,-29.297,-26.855,-20.996,0.000
1714026859.131,-20.020,-29.785,-28.320,-16.602,0.000
1714026859.135,-16.113,-28.320,-32.715,-19.531,0.000
1714026859.139,-15.137,-23.438,-21.484,-15.137,0.000
1714026859.143,-17.578,-25.879,-22.949,-11.719,0.000
1714026859.147,-19.531,-29.297,-36.621,-15.625,0.000
1714026859.151,-21.973,-26.367,-38.086,-20.996,0.000
1714026859.155,-28.320,-28.809,-34.180,-28.809,0.000
1714026859.159,-32.227,-39.062,-34.668,-33.203,0.000
1714026859.163,-29.785,-35.156,-28.320,-26.855,0.000
1714026859.167,-29.297,-26.855,-22.949,-22.949,0.000
1714026859.170,-22.461,-25.879,-27.832,-26.367,0.000
1714026859.174,-19.043,-28.320,-29.297,-27.832,0.000
1714026859.178,-21.484,-29.785,-28.809,-24.902,0.000
1714026859.182,-18.555,-22.949,-27.832,-25.879,0.000
1714026859.186,-14.160,-20.996,-25.879,-29.297,0.000
1714026859.190,-12.695,-22.949,-28.809,-29.297,0.000
1714026859.194,-7.812,-21.484,-32.227,-28.320,0.000
1714026859.198,-5.859,-21.973,-35.645,-24.902,0.000
1714026859.202,-11.719,-25.391,-35.156,-27.344,0.000
1714026859.206,-16.602,-26.855,-30.762,-21.484,0.000
1714026859.210,-18.066,-22.461,-32.715,-13.184,0.000
1714026859.213,-20.996,-21.973,-30.273,-22.461,0.000
1714026859.217,-22.949,-24.902,-25.879,-22.949,0.000
1714026859.221,-26.855,-21.484,-21.484,-23.438,0.000
1714026859.225,-32.715,-18.555,-27.344,-26.367,0.000
1714026859.229,-25.879,-19.531,-27.344,-20.996,0.000
1714026859.233,-26.367,-25.391,-18.555,-20.020,0.000
1714026859.237,-31.250,-24.414,-23.438,-25.391,0.000
1714026859.241,-29.785,-20.996,-33.203,-29.297,0.000
1714026859.245,-25.391,-23.926,-34.180,-23.438,0.000
1714026859.249,-22.949,-28.809,-34.180,-25.879,0.000
1714026859.252,-21.973,-31.738,-33.203,-27.832,0.000
1714026859.256,-18.066,-30.273,-29.785,-21.484,0.000
1714026859.260,-20.508,-27.344,-30.273,-24.902,0.000
1714026859.264,-25.879,-30.273,-31.738,-28.320,0.000
1714026859.268,-25.391,-33.203,-35.645,-30.762,0.000
1714026859.272,-23.926,-32.227,-34.668,-34.180,0.000
1714026859.276,-24.414,-29.297,-35.156,-29.785,0.000
1714026859.280,-20.508,-27.832,-34.668,-26.855,0.000
1714026859.284,-23.438,-33.691,-38.574,-27.832,0.000
1714026859.288,-25.879,-34.668,-41.016,-29.297,0.000
1714026859.292,-28.320,-35.156,-39.551,-34.180,0.000
1714026859.295,-28.809,-35.156,-38.574,-26.367,0.000
1714026859.299,-24.414,-26.367,-31.250,-21.484,0.000
1714026859.303,-26.855,-28.809,-26.367,-29.297,0.000
1714026859.307,-30.762,-32.227,-33.203,-36.621,0.000
1714026859.311,-28.809,-32.227,-35.645,-32.715,0.000
1714026859.315,-27.344,-36.133,-29.785,-24.414,0.000
1714026859.319,-24.414,-37.109,-30.762,-36.621,0.000
1714026859.323,-20.996,-35.645,-35.156,-43.945,0.000
1714026859.327,-24.414,-37.109,-38.086,-36.621,0.000
1714026859.331,-24.414,-33.691,-27.832,-30.273,0.000
1714026859.335,-27.832,-32.227,-26.855,-38.086,0.000
1714026859.338,-33.203,-31.250,-39.062,-38.574,0.000
1714026859.342,-29.297,-28.809,-35.156,-25.879,0.000
1714026859.346,-28.320,-32.227,-28.809,-26.367,0.000
1714026859.350,-28.320,-25.391,-28.809,-29.785,0.000
1714026859.354,-32.715,-26.855,-31.738,-32.227,0.000
1714026859.358,-33.691,-33.691,-32.227,-31.738,0.000
1714026859.362,-28.809,-30.762,-30.273,-27.344,0.000
1714026859.366,-26.367,-33.203,-31.250,-34.180,0.000
1714026859.370,-28.320,-36.621,-37.598,-44.434,0.000
1714026859.374,-26.855,-33.203,-36.133,-40.527,0.000
1714026859.378,-27.344,-29.297,-37.598,-36.133,0.000
1714026859.381,-23.438,-25.879,-35.645,-29.785,0.000
1714026859.385,-15.625,-26.855,-30.273,-34.180,0.000
1714026859.389,-19.043,-25.391,-38.086,-42.969,0.000
1714026859.393,-21.973,-25.879,-39.551,-39.062,0.000
1714026859.397,-23.438,-27.832,-40.039,-33.691,0.000
1714026859.401,-19.531,-28.320,-47.852,-24.414,0.000
1714026859.405,-17.090,-28.320,-44.922,-22.461,0.000
1714026859.409,-21.484,-26.855,-44.922,-30.273,0.000
1714026859.413,-25.391,-25.879,-47.363,-34.668,0.000
1714026859.417,-24.414,-25.391,-43.457,-31.738,0.000
1714026859.420,-20.020,-28.809,-40.039,-27.832,0.000
1714026859.424,-18.555,-22.949,-36.133,-28.809,0.000
1714026859.428,-15.137,-23.438,-30.273,-25.391,0.000
1714026859.432,-8.789,-23.926,-28.809,-19.043,0.000
1714026859.436,-12.207,-23.926,-29.785,-23.926,0.000
1714026859.440,-16.602,-30.273,-21.973,-26.367,0.000
1714026859.444,-18.066,-32.227,-26.855,-25.879,0.000
1714026859.448,-22.949,-33.203,-44.922,-22.949,0.000
1714026859.452,-26.367,-33.203,-46.387,-29.785,0.000
1714026859.456,-24.902,-31.738,-34.180,-36.133,0.000
1714026859.459,-20.020,-30.273,-30.762,-27.832,0.000
1714026859.463,-24.902,-31.738,-33.203,-26.367,0.000
1714026859.467,-36.133,-34.180,-32.227,-41.016,0.000
1714026859.471,-37.598,-38.574,-33.691,-46.387,0.000
1714026859.475,-19.043,-38.086,-38.574,-21.484,0.000
1714026859.479,-13.672,-28.320,-35.156,-6.836,0.000
1714026859.483,-32.715,-28.809,-20.996,-21.484,0.000
1714026859.487,-44.922,-37.598,-13.672,-34.180,0.000
1714026859.491,-42.969,-36.621,-22.461,-34.180,0.000
1714026859.495,-38.086,-34.668,-24.414,-27.344,0.000
1714026859.499,-37.109,-33.203,-21.973,-34.668,0.000
1714026859.502,-36.133,-26.855,-25.391,-48.340,0.000
1714026859.506,-43.457,-20.996,-24.902,-54.688,0.000
1714026859.510,-51.758,-20.996,-19.531,-49.805,0.000
1714026859.514,-47.363,-19.531,-23.438,-41.016,0.000
1714026859.518,-44.922,-15.625,-22.461,-39.062,0.000
1714026859.522,-44.434,-18.066,-16.113,-36.133,0.000
1714026859.526,-43.457,-20.508,-24.414,-34.668,0.000
1714026859.530,-41.504,-23.438,-32.227,-36.133,0.000
1714026859.534,-37.109,-24.414,-35.645,-39.551,0.000
1714026859.538,-34.180,-22.461,-34.668,-34.668,0.000
1714026859.542,-31.738,-23.926,-29.297,-29.785,0.000
1714026859.545,-25.391,-20.020,-26.855,-29.297,0.000
1714026859.549,-19.043,-20.020,-31.250,-26.855,0.000
1714026859.553,-25.391,-25.391,-28.809,-32.227,0.000
1714026859.557,-31.250,-22.949,-18.066,-35.156,0.000
1714026859.561,-27.832,-20.996,-15.625,-32.715,0.000
1714026859.565,-30.762,-22.949,-18.066,-32.715,0.000
1714026859.569,-30.273,-22.949,-20.508,-30.762,0.000
1714026859.573,-25.391,-26.855,-29.297,-30.762,0.000
1714026859.577,-25.391,-30.762,-30.762,-35.156,0.000
1714026859.581,-27.832,-31.250,-24.902,-28.320,0.000
1714026859.584,-27.344,-31.738,-19.043,-23.926,0.000
1714026859.588,-29.785,-30.762,-16.602,-39.551,0.000
1714026859.592,-33.691,-26.855,-15.625,-39.062,0.000
1714026859.596,-28.809,-28.320,-21.484,-32.715,0.000
1714026859.600,-27.344,-28.320,-32.227,-31.738,0.000
1714026859.604,-34.180,-36.621,-31.738,-36.133,0.000
1714026859.608,-39.062,-37.598,-31.250,-41.992,0.000
1714026859.612,-41.016,-29.297,-31.738,-37.598,0.000
1714026859.616,-41.016,-30.273,-22.949,-36.621,0.000
1714026859.620,-40.527,-36.621,-21.484,-44.922,0.000
1714026859.624,-40.039,-38.086,-26.367,-44.434,0.000
1714026859.627,-32.715,-33.203,-20.996,-33.203,0.000
1714026859.631,-27.832,-28.320,-20.508,-28.320,0.000
1714026859.635,-28.320,-30.273,-27.832,-31.250,0.000
1714026859.639,-28.809,-34.180,-30.762,-28.320,0.000
1714026859.643,-32.715,-32.715,-31.738,-28.320,0.000
1714026859.647,-33.691,-32.715,-32.715,-33.203,0.000
1714026859.651,-31.738,-31.250,-34.180,-36.133,0.000
1714026859.655,-31.250,-27.832,-32.227,-41.016,0.000
1714026859.659,-37.598,-29.785,-35.156,-42.969,0.000
1714026859.663,-40.039,-31.250,-40.527,-41.016,0.000
1714026859.667,-33.203,-30.762,-41.992,-35.645,0.000
1714026859.670,-31.738,-31.738,-42.969,-37.598,0.000
1714026859.674,-30.762,-30.762,-43.457,-38.574,0.000
1714026859.678,-29.785,-32.227,-41.016,-41.016,0.000
1714026859.682,-24.414,-32.715,-35.645,-36.133,0.000
1714026859.686,-25.391,-34.180,-33.691,-30.273,0.000
1714026859.690,-31.250,-31.250,-36.133,-36.133,0.000
1714026859.694,-29.785,-25.391,-34.180,-36.133,0.000
1714026859.698,-28.320,-22.949,-29.297,-31.738,0.000
1714026859.702,-29.297,-21.973,-25.391,-37.109,0.000
1714026859.706,-27.344,-26.367,-27.344,-37.109,0.000
1714026859.710,-28.320,-29.297,-28.320,-35.156,0.000
1714026859.713,-29.297,-32.715,-23.926,-30.273,0.000
1714026859.717,-28.320,-33.691,-15.625,-25.879,0.000
1714026859.721,-32.227,-29.785,-18.066,-32.227,0.000
1714026859.725,-34.668,-31.250,-26.367,-36.621,0.000
1714026859.729,-32.227,-38.086,-27.344,-28.809,0.000
1714026859.733,-29.785,-37.598,-27.344,-20.996,0.000
1714026859.737,-31.250,-31.250,-31.250,-29.297,0.000
1714026859.741,-32.227,-31.738,-38.086,-28.809,0.000
1714026859.745,-29.297,-34.668,-37.598,-24.414,0.000
1714026859.749,-27.832,-28.809,-32.715,-26.367,0.000
1714026859.753,-30.762,-24.902,-25.879,-27.344,0.000
1714026859.756,-32.227,-29.785,-23.438,-32.715,0.000
1714026859.760,-30.273,-32.715,-25.391,-28.809,0.000
1714026859.764,-29.297,-29.297,-31.738,-27.344,0.000
1714026859.768,-34.180,-26.855,-35.156,-34.180,0.000
1714026859.772,-32.227,-26.855,-29.297,-39.062,0.000
1714026859.776,-32.227,-30.762,-28.809,-36.621,0.000
1714026859.780,-36.133,-30.762,-29.297,-26.855,0.000
1714026859.784,-32.715,-28.320,-26.855,-25.879,0.000
1714026859.788,-31.738,-26.855,-30.273,-25.391,0.000
1714026859.792,-27.344,-20.996,-23.926,-18.066,0.000
1714026859.796,-28.320,-20.020,-22.461,-17.578,0.000
1714026859.799,-27.832,-17.578,-22.461,-20.996,0.000
1714026859.803,-21.484,-20.020,-26.367,-28.320,0.000
1714026859.807,-28.320,-30.273,-27.832,-30.762,0.000
1714026859.811,-35.156,-36.133,-24.414,-26.367,0.000
1714026859.815,-24.902,-34.180,-20.508,-22.461,0.000
1714026859.819,-22.461,-31.738,-23.438,-27.832,0.000
1714026859.823,-28.809,-29.297,-35.156,-27.344,0.000
1714026859.827,-23.438,-23.926,-28.320,-18.066,0.000
1714026859.831,-17.578,-22.949,-20.996,-25.879,0.000
1714026859.835,-24.414,-27.344,-22.949,-33.691,0.000
1714026859.838,-33.203,-31.250,-25.879,-41.504,0.000
1714026859.842,-31.738,-29.785,-28.809,-38.574,0.000
1714026859.846,-29.297,-22.461,-26.855,-31.250,0.000
1714026859.850,-27.344,-18.555,-20.508,-31.738,0.000
1714026859.854,-22.949,-25.879,-23.926,-40.527,0.000
1714026859.858,-25.879,-29.297,-29.297,-43.945,0.000
1714026859.862,-23.438,-22.949,-27.832,-38.086,0.000
1714026859.866,-13.672,-18.066,-20.020,-22.461,0.000
1714026859.870,-16.113,-21.484,-12.695,-20.508,0.000
1714026859.874,-22.949,-24.902,-21.973,-31.738,0.000
1714026859.877,-19.531,-22.949,-27.344,-23.926,0.000
1714026859.881,-23.438,-21.484,-24.902,-20.508,0.000
1714026859.885,-32.227,-20.020,-25.391,-26.367,0.000
1714026859.889,-26.855,-16.602,-23.438,-29.297,0.000
1714026859.893,-22.461,-15.137,-25.391,-20.508,0.000
1714026859.897,-20.508,-21.973,-25.391,-8.789,0.000
1714026859.901,-18.066,-29.785,-25.391,-9.766,0.000
1714026859.905,-24.414,-29.297,-31.250,-20.508,0.000
1714026859.909,-18.066,-28.809,-28.809,-18.066,0.000
1714026859.913,-13.672,-26.855,-20.996,-3.906,0.000
1714026859.917,-21.973,-25.391,-13.672,-8.789,0.000
1714026859.920,-21.484,-25.391,-18.066,-23.926,0.000
1714026859.924,-25.391,-26.855,-24.414,-25.879,0.000
1714026859.928,-29.297,-29.297,-27.344,-28.809,0.000
1714026859.932,-29.785,-26.367,-32.227,-30.273,0.000
1714026859.936,-33.691,-25.391,-35.645,-34.180,0.000
1714026859.940,-34.180,-31.250,-37.598,-38.574,0.000
1714026859.944,-32.715,-34.668,-33.691,-35.645,0.000
1714026859.948,-34.668,-36.621,-29.297,-35.156,0.000
1714026859.952,-34.668,-38.086,-25.391,-40.039,0.000
1714026859.956,-37.109,-36.621,-25.879,-30.762,0.000
1714026859.960,-33.203,-31.250,-28.320,-21.484,0.000
1714026859.963,-30.273,-31.250,-25.879,-30.762,0.000
1714026859.967,-35.156,-36.621,-29.785,-34.668,0.000
1714026859.971,-24.902,-35.156,-35.645,-28.809,0.000
1714026859.975,-11.719,-28.809,-31.738,-22.461,0.000
1714026859.979,-22.461,-27.344,-27.832,-32.227,0.000
1714026859.983,-35.645,-25.879,-31.250,-37.598,0.000
1714026859.987,-35.156,-25.391,-26.367,-39.062,0.000
1714026859.991,-35.645,-30.762,-23.926,-41.016,0.000
1714026859.995,-37.109,-26.367,-28.320,-37.109,0.000
1714026859.999,-40.527,-21.484,-27.344,-42.969,0.000
1714026860.002,-43.945,-22.949,-33.203,-48.340,0.000
1714026860.006,-38.574,-26.855,-32.227,-49.316,0.000
1714026860.010,-33.691,-29.785,-30.273,-44.434,0.000
1714026860.014,-27.832,-30.273,-33.691,-31.250,0.000
1714026860.018,-21.973,-25.391,-31.250,-34.180,0.000
1714026860.022,-24.414,-20.996,-29.785,-40.527,0.000
1714026860.026,-29.785,-25.391,-32.715,-40.527,0.000
1714026860.030,-28.809,-26.367,-30.762,-34.180,0.000
1714026860.034,-27.832,-24.414,-27.832,-35.156,0.000
1714026860.038,-26.367,-25.879,-25.391,-40.527,0.000
1714026860.042,-31.250,-29.297,-25.879,-39.551,0.000
1714026860.045,-33.691,-30.762,-30.762,-30.762,0.000
1714026860.049,-36.133,-35.156,-35.156,-34.668,0.000
1714026860.053,-40.039,-39.551,-40.039,-49.316,0.000
1714026860.057,-36.621,-34.668,-39.062,-44.434,0.000
1714026860.061,-31.738,-26.367,-28.809,-36.133,0.000
1714026860.065,-31.250,-21.973,-26.855,-31.738,0.000
1714026860.069,-28.809,-21.973,-30.273,-29.297,0.000
1714026860.073,-21.484,-21.973,-32.227,-28.320,0.000
