timestamps,TP9,AF7,AF8,TP10,Right AUX
1714026304.507,-18.066,-13.672,-37.109,-15.137,0.000
1714026304.511,-16.602,-16.113,-33.203,-15.137,0.000
1714026304.514,-16.113,-25.879,-26.367,-23.438,0.000
1714026304.518,-16.113,-33.691,-26.367,-26.367,0.000
1714026304.522,-19.043,-32.715,-29.785,-26.367,0.000
1714026304.526,-18.555,-32.227,-28.809,-26.855,0.000
1714026304.530,-17.090,-33.691,-34.668,-26.855,0.000
1714026304.534,-20.996,-33.203,-37.598,-29.785,0.000
1714026304.538,-19.043,-36.133,-23.438,-24.902,0.000
1714026304.542,-20.020,-33.691,-16.602,-23.926,0.000
1714026304.546,-18.066,-25.391,-23.926,-31.250,0.000
1714026304.550,-15.625,-25.391,-26.367,-29.297,0.000
1714026304.553,-21.973,-23.438,-24.902,-28.809,0.000
1714026304.557,-23.438,-22.461,-20.996,-27.344,0.000
1714026304.561,-23.438,-27.832,-17.090,-28.320,0.000
1714026304.565,-27.344,-25.879,-25.391,-31.738,0.000
1714026304.569,-22.461,-24.902,-34.180,-34.668,0.000
1714026304.572,-20.996,-31.738,-33.203,-37.598,0.000
1714026304.576,-23.438,-31.250,-26.367,-39.062,0.000
1714026304.580,-23.438,-25.879,-22.949,-39.062,0.000
1714026304.584,-24.414,-27.832,-35.156,-34.668,0.000
1714026304.588,-27.832,-26.855,-36.621,-34.668,0.000
1714026304.592,-27.832,-25.391,-30.762,-31.738,0.000
1714026304.596,-25.391,-22.949,-32.715,-31.250,0.000
1714026304.598,-26.367,-21.973,-27.344,-31.250,0.000
1714026304.602,-27.832,-26.855,-27.832,-30.762,0.000
1714026304.606,-30.762,-25.391,-40.527,-29.297,0.000
1714026304.610,-31.250,-24.414,-39.551,-32.227,0.000
1714026304.614,-26.367,-24.414,-31.738,-30.762,0.000
1714026304.618,-26.855,-20.508,-30.762,-27.344,0.000
1714026304.622,-26.367,-25.879,-27.832,-25.879,0.000
1714026304.626,-20.508,-32.715,-26.855,-19.531,0.000
1714026304.630,-22.461,-28.320,-30.762,-21.484,0.000
1714026304.634,-25.879,-19.531,-33.691,-30.762,0.000
1714026304.637,-25.391,-21.484,-32.227,-31.250,0.000
1714026304.641,-23.926,-27.832,-32.227,-29.785,0.000
1714026304.644,-20.996,-23.926,-29.297,-31.250,0.000
1714026304.648,-24.414,-27.832,-19.043,-33.203,0.000
1714026304.652,-31.738,-31.738,-24.902,-32.227,0.000
1714026304.655,-30.273,-33.203,-29.297,-23.926,0.000
1714026304.659,-25.879,-34.180,-21.973,-26.855,0.000
1714026304.663,-27.344,-35.645,-25.391,-33.203,0.000
1714026304.667,-29.785,-45.898,-29.785,-26.367,0.000
1714026304.671,-22.949,-43.945,-31.738,-12.695,0.000
1714026304.675,-26.855,-31.250,-31.250,-22.461,0.000
1714026304.679,-33.203,-20.996,-28.320,-31.738,0.000
1714026304.683,-28.320,-14.160,-24.902,-21.484,0.000
1714026304.687,-23.438,-14.160,-23.926,-26.367,0.000
1714026304.689,-21.484,-21.484,-29.297,-32.227,0.000
1714026304.692,-22.461,-28.320,-28.809,-30.273,0.000
1714026304.696,-21.484,-28.320,-29.785,-27.344,0.000
1714026304.700,-20.996,-24.414,-32.227,-23.926,0.000
1714026304.704,-26.855,-23.926,-37.109,-30.762,0.000
1714026304.708,-28.320,-26.367,-39.551,-41.016,0.000
1714026304.712,-27.832,-24.902,-37.109,-39.062,0.000
1714026304.716,-26.367,-20.020,-33.203,-31.250,0.000
1714026304.720,-19.043,-23.926,-35.645,-28.320,0.000
1714026304.724,-15.625,-30.762,-36.133,-26.855,0.000
1714026304.728,-22.949,-28.320,-25.391,-29.297,0.000
1714026304.732,-26.367,-29.297,-25.391,-28.320,0.000
1714026304.734,-24.902,-31.738,-24.414,-22.461,0.000
1714026304.738,-27.832,-24.414,-20.996,-21.484,0.000
1714026304.742,-27.832,-23.438,-25.391,-28.320,0.000
1714026304.745,-22.949,-31.250,-30.762,-30.762,0.000
1714026304.749,-24.414,-24.902,-38.086,-30.762,0.000
1714026304.753,-26.855,-24.414,-41.992,-34.180,0.000
1714026304.757,-21.973,-20.996,-41.504,-26.855,0.000
1714026304.761,2.441,-7.324,-34.668,-4.395,0.000
1714026304.765,23.926,-12.695,-25.391,13.184,0.000
1714026304.769,-5.859,-29.785,-19.043,-11.719,0.000
1714026304.773,-24.902,-32.227,-19.043,-29.297,0.000
1714026304.777,-20.996,-32.227,-20.020,-18.066,0.000
1714026304.779,-27.832,-35.156,-21.973,-18.066,0.000
1714026304.783,-22.949,-31.738,-19.531,-9.766,0.000
1714026304.787,-29.297,-37.109,-18.555,-13.672,0.000
1714026304.791,-32.227,-42.480,-21.973,-14.160,0.000
1714026304.794,-27.344,-35.156,-21.484,-9.766,0.000
1714026304.798,-21.973,-28.809,-18.555,-9.277,0.000
1714026304.802,-15.137,-30.762,-18.066,-7.324,0.000
1714026304.806,-19.043,-37.109,-20.996,-10.254,0.000
1714026304.810,-19.043,-40.527,-22.461,-6.348,0.000
1714026304.814,-12.207,-40.039,-18.555,6.348,0.000
1714026304.818,-16.602,-43.457,-20.508,8.301,0.000
1714026304.822,-16.602,-48.340,-22.461,5.859,0.000
1714026304.831,-8.301,-49.805,-20.508,10.742,0.000
1714026304.835,-12.207,-46.387,-22.461,6.348,0.000
1714026304.838,-15.625,-47.363,-18.555,2.441,0.000
1714026304.842,-10.254,-46.387,-23.438,4.883,0.000
1714026304.846,-12.695,-40.527,-34.180,6.836,0.000
1714026304.850,-14.648,-45.898,-26.855,6.348,0.000
1714026304.854,-11.719,-54.688,-20.996,0.488,0.000
1714026304.858,-12.695,-57.617,-27.344,-4.395,0.000
1714026304.862,-15.625,-55.176,-40.527,0.488,0.000
1714026304.866,-20.996,-47.363,-30.762,3.418,0.000
1714026304.870,-22.461,-32.227,-20.020,-0.488,0.000
1714026304.874,-23.926,-33.691,-22.461,-12.207,0.000
1714026304.879,-23.438,-41.016,-21.973,-12.207,0.000
1714026304.883,-19.043,-38.086,-22.949,2.930,0.000
1714026304.887,-18.066,-31.738,-35.156,7.324,0.000
1714026304.891,-14.160,-33.691,-35.645,-0.977,0.000
1714026304.895,-8.301,-35.645,-24.902,-9.766,0.000
1714026304.899,-5.371,-35.645,-18.555,-12.207,0.000
1714026304.903,-6.836,-38.086,-20.020,-6.348,0.000
1714026304.907,-5.371,-38.086,-21.973,-6.348,0.000
1714026304.911,-6.836,-36.133,-27.832,-10.742,0.000
1714026304.915,-9.766,-38.086,-24.414,-2.441,0.000
1714026304.918,-13.184,-36.133,-22.949,-3.906,0.000
1714026304.922,-17.090,-37.598,-20.996,-5.371,0.000
1714026304.926,-21.973,-50.293,-19.043,-1.465,0.000
1714026304.930,-24.414,-36.133,-25.391,-6.836,0.000
1714026304.934,-24.902,-23.926,-23.926,-10.742,0.000
1714026304.938,-24.414,-31.250,-22.949,-14.160,0.000
1714026304.942,-23.926,-36.133,-28.809,-17.090,0.000
1714026304.946,-25.391,-39.551,-27.344,-21.484,0.000
1714026304.950,-24.414,-41.992,-22.949,-18.066,0.000
1714026304.954,-19.531,-30.273,-24.902,-12.207,0.000
1714026304.958,-24.414,-27.832,-30.762,-11.719,0.000
1714026304.961,-32.715,-34.668,-28.320,-22.461,0.000
1714026304.965,-34.180,-36.621,-26.855,-29.297,0.000
1714026304.969,-29.785,-39.551,-27.344,-23.438,0.000
1714026304.972,-27.832,-29.785,-27.344,-25.879,0.000
1714026304.976,-26.367,-22.461,-23.438,-27.832,0.000
1714026304.980,-22.949,-22.949,-19.531,-21.484,0.000
1714026304.984,-21.973,-24.902,-21.973,-20.508,0.000
1714026304.988,-20.508,-22.949,-21.973,-23.438,0.000
1714026304.992,-23.438,-22.949,-29.297,-28.320,0.000
1714026304.996,-27.832,-23.438,-31.250,-34.180,0.000
1714026305.000,-27.832,-24.414,-28.809,-26.367,0.000
1714026305.003,-25.391,-32.227,-21.973,-19.043,0.000
1714026305.007,-24.414,-29.785,-24.902,-24.902,0.000
1714026305.011,-30.273,-32.227,-29.297,-32.227,0.000
1714026305.015,-32.227,-26.367,-23.926,-29.297,0.000
1714026305.018,-25.879,-16.113,-20.996,-20.020,0.000
1714026305.022,-17.090,-17.090,-20.508,-16.602,0.000
1714026305.026,-18.066,-24.414,-28.809,-23.438,0.000
1714026305.030,-21.484,-29.785,-33.203,-28.320,0.000
1714026305.033,-24.902,-24.414,-22.461,-26.855,0.000
1714026305.037,-28.809,-22.461,-19.531,-26.855,0.000
1714026305.041,-27.832,-30.762,-30.273,-27.832,0.000
1714026305.045,-26.855,-33.691,-29.785,-21.484,0.000
1714026305.049,-26.367,-31.250,-15.137,-24.902,0.000
1714026305.053,-24.414,-30.762,-13.672,-29.297,0.000
1714026305.057,-21.484,-23.926,-15.625,-29.297,0.000
1714026305.061,-16.602,-23.926,-18.555,-23.926,0.000
1714026305.063,0.000,-31.250,-27.832,-21.484,0.000
1714026305.067,0.000,-23.438,-27.344,-21.973,0.000
1714026305.071,0.000,-7.812,-17.578,-20.020,0.000
1714026305.075,0.000,-4.395,-17.090,-22.949,0.000
1714026305.079,0.000,-13.672,-22.949,-28.809,0.000
1714026305.083,0.000,-22.461,-26.855,-33.691,0.000
1714026305.087,0.000,-28.809,-23.926,-29.785,0.000
1714026305.091,0.000,-31.250,-20.020,-22.461,0.000
1714026305.095,0.000,-30.273,-21.973,-30.762,0.000
1714026305.099,0.000,-27.832,-22.949,-36.133,0.000
1714026305.102,0.000,-27.344,-21.484,-28.809,0.000
1714026305.106,0.000,-24.414,-23.926,-31.250,0.000
1714026305.109,-25.391,-20.020,-27.344,-30.762,0.000
1714026305.112,-24.902,-21.973,-25.391,-24.902,0.000
1714026305.116,-23.438,-25.879,-20.508,-25.391,0.000
1714026305.120,-15.137,-21.973,-23.926,-26.855,0.000
1714026305.124,-5.859,-19.531,-28.809,-20.996,0.000
1714026305.128,-13.184,-22.949,-24.414,-18.066,0.000
1714026305.132,-30.273,-18.066,-13.672,-20.508,0.000
1714026305.136,-40.527,-15.137,-16.113,-35.156,0.000
1714026305.140,-40.527,-25.391,-26.855,-42.480,0.000
1714026305.144,-38.574,-28.320,-24.902,-37.598,0.000
1714026305.148,-38.086,-26.367,-22.461,-32.715,0.000
1714026305.152,-36.133,-35.156,-14.648,-23.926,0.000
1714026305.154,-33.203,-44.922,-15.137,-18.555,0.000
1714026305.158,-23.438,-38.086,-21.973,-18.555,0.000
1714026305.162,-21.484,-28.809,-22.461,-20.996,0.000
1714026305.165,-31.738,-34.180,-26.855,-24.414,0.000
1714026305.169,-30.762,-39.062,-28.320,-23.438,0.000
1714026305.173,-30.762,-37.598,-22.949,-21.973,0.000
1714026305.177,-37.109,-39.551,-19.043,-23.438,0.000
1714026305.181,-33.691,-32.715,-17.090,-20.508,0.000
1714026305.185,-28.320,-32.715,-19.531,-25.391,0.000
1714026305.189,-28.809,-46.875,-28.809,-30.273,0.000
1714026305.193,-33.203,-38.574,-31.250,-26.855,0.000
1714026305.197,-27.344,-35.645,-26.367,-23.926,0.000
1714026305.206,-27.344,-39.551,-23.926,-25.391,0.000
1714026305.210,-33.203,-27.832,-24.902,-27.832,0.000
1714026305.214,-29.785,-23.438,-29.785,-28.809,0.000
1714026305.217,-31.738,-27.344,-18.555,-25.879,0.000
1714026305.221,-28.320,-25.391,-9.766,-14.160,0.000
1714026305.225,-22.949,-26.367,-15.137,-8.789,0.000
1714026305.229,-27.344,-25.391,-16.602,-21.973,0.000
1714026305.233,-34.180,-25.879,-22.949,-33.691,0.000
1714026305.237,-35.156,-33.691,-26.855,-31.738,0.000
1714026305.241,-29.785,-37.109,-24.414,-25.879,0.000
1714026305.245,-26.855,-34.180,-20.996,-25.879,0.000
1714026305.249,-24.902,-32.227,-13.184,-22.949,0.000
1714026305.255,-26.855,-33.691,-17.090,-18.066,0.000
1714026305.258,-26.855,-35.156,-22.949,-19.043,0.000
1714026305.262,-24.902,-33.691,-23.926,-22.461,0.000
1714026305.266,-21.973,-27.344,-24.414,-24.902,0.000
1714026305.270,-19.043,-30.273,-14.648,-22.461,0.000
1714026305.274,-17.090,-30.762,-13.672,-19.043,0.000
1714026305.278,-16.113,-26.855,-28.809,-26.855,0.000
1714026305.282,-23.926,-33.203,-35.645,-31.250,0.000
1714026305.286,-22.461,-31.738,-31.738,-20.020,0.000
1714026305.290,-14.160,-25.391,-25.391,-12.695,0.000
1714026305.294,-18.555,-25.879,-27.832,-25.391,0.000
1714026305.298,-20.508,-27.832,-28.320,-35.156,0.000
1714026305.302,-22.949,-27.344,-20.508,-29.785,0.000
1714026305.306,-28.809,-30.273,-18.555,-31.738,0.000
1714026305.309,-28.809,-35.156,-21.973,-38.574,0.000
1714026305.313,-26.367,-42.480,-31.738,-30.273,0.000
1714026305.317,-24.902,-47.363,-35.156,-20.508,0.000
1714026305.321,-21.973,-38.574,-26.367,-22.461,0.000
1714026305.325,-20.996,-24.902,-30.273,-30.273,0.000
1714026305.329,-22.461,-25.391,-37.598,-32.227,0.000
1714026305.333,-20.996,-31.738,-34.180,-24.414,0.000
1714026305.337,-24.902,-30.273,-29.297,-27.832,0.000
1714026305.341,-29.785,-28.320,-33.691,-38.086,0.000
1714026305.345,-27.344,-28.809,-32.715,-41.016,0.000
1714026305.348,-31.738,-27.344,-23.926,-36.133,0.000
1714026305.352,-32.227,-24.902,-20.508,-27.344,0.000
1714026305.356,-27.832,-30.762,-25.879,-26.367,0.000
1714026305.360,-29.297,-37.598,-33.203,-35.156,0.000
1714026305.364,-28.809,-38.574,-28.809,-37.598,0.000
1714026305.368,-28.809,-35.645,-23.926,-39.062,0.000
1714026305.371,-25.879,-23.438,-21.484,-32.227,0.000
1714026305.375,-24.414,-20.020,-32.227,-24.902,0.000
1714026305.379,-28.809,-25.391,-38.086,-31.738,0.000
1714026305.383,-31.738,-30.273,-28.320,-27.832,0.000
1714026305.387,-33.691,-28.809,-18.066,-18.066,0.000
1714026305.391,-31.738,-26.367,-8.789,-22.949,0.000
1714026305.393,-33.203,-28.809,-14.160,-28.809,0.000
1714026305.397,-36.133,-33.203,-25.879,-34.668,0.000
1714026305.401,-41.016,-36.133,-30.762,-37.598,0.000
1714026305.405,-35.156,-32.227,-20.996,-34.668,0.000
1714026305.409,-27.344,-26.367,-19.531,-33.691,0.000
1714026305.413,-29.785,-25.879,-28.320,-31.250,0.000
1714026305.417,-31.738,-26.367,-31.738,-28.320,0.000
1714026305.421,-30.762,-26.367,-28.809,-22.949,0.000
1714026305.425,-31.250,-26.855,-22.461,-27.344,0.000
1714026305.428,-35.156,-28.320,-25.879,-26.855,0.000
1714026305.432,-40.527,-32.227,-33.203,-23.438,0.000
1714026305.436,-43.457,-33.691,-37.598,-25.879,0.000
1714026305.439,-34.668,-38.086,-31.250,-19.043,0.000
1714026305.443,-29.785,-35.645,-31.738,-18.555,0.000
1714026305.447,-29.297,-26.855,-37.109,-20.020,0.000
1714026305.451,-28.320,-27.344,-26.367,-18.066,0.000
1714026305.454,-35.156,-29.785,-31.250,-23.926,0.000
1714026305.458,-37.598,-30.273,-33.203,-35.156,0.000
1714026305.462,-41.992,-37.109,-23.438,-32.715,0.000
1714026305.466,-47.852,-42.480,-24.414,-27.832,0.000
1714026305.470,-39.551,-41.016,-28.809,-27.832,0.000
1714026305.474,-39.551,-39.062,-30.762,-29.785,0.000
1714026305.478,-48.340,-36.133,-34.180,-32.715,0.000
1714026305.482,-39.062,-39.062,-32.715,-25.391,0.000
1714026305.484,-31.250,-35.645,-29.785,-21.484,0.000
1714026305.488,-32.715,-28.809,-34.180,-24.902,0.000
1714026305.492,-29.785,-31.250,-39.551,-27.344,0.000
1714026305.496,-25.391,-28.809,-33.691,-25.391,0.000
1714026305.500,-24.414,-23.926,-24.902,-22.949,0.000
1714026305.504,-32.227,-26.855,-37.598,-31.250,0.000
1714026305.507,-37.109,-29.785,-36.621,-30.762,0.000
1714026305.511,-39.062,-29.785,-25.879,-37.109,0.000
1714026305.515,-41.992,-30.762,-26.367,-41.992,0.000
1714026305.519,-36.133,-30.762,-25.879,-32.227,0.000
1714026305.523,-34.180,-30.273,-26.855,-37.598,0.000
1714026305.527,-36.621,-32.227,-32.227,-46.387,0.000
1714026305.529,-26.367,-26.855,-27.832,-36.621,0.000
1714026305.533,-25.391,-27.344,-27.344,-31.250,0.000
1714026305.537,-32.715,-34.180,-39.551,-37.109,0.000
1714026305.541,-26.855,-32.227,-41.504,-40.527,0.000
1714026305.545,-26.855,-31.738,-40.527,-33.203,0.000
1714026305.549,-28.809,-32.715,-34.180,-25.879,0.000
1714026305.552,-28.320,-24.902,-24.902,-35.156,0.000
1714026305.556,-30.762,-24.414,-28.809,-41.504,0.000
1714026305.560,-23.926,-31.738,-30.762,-28.320,0.000
1714026305.564,-26.855,-33.691,-24.414,-26.367,0.000
1714026305.568,-37.109,-32.715,-24.902,-36.621,0.000
1714026305.572,-34.668,-28.809,-33.203,-41.016,0.000
1714026305.581,-33.203,-31.738,-29.297,-41.016,0.000
1714026305.585,-35.645,-32.715,-29.785,-39.062,0.000
1714026305.588,-31.250,-29.785,-30.762,-36.621,0.000
1714026305.592,-29.785,-26.855,-24.902,-35.156,0.000
1714026305.596,-38.574,-33.203,-28.320,-40.039,0.000
1714026305.600,-37.109,-37.598,-32.227,-35.645,0.000
1714026305.604,-28.809,-32.715,-28.809,-27.832,0.000
1714026305.608,-27.832,-34.180,-32.715,-28.320,0.000
1714026305.612,-32.715,-34.668,-33.203,-31.250,0.000
1714026305.616,-30.273,-33.691,-24.414,-24.902,0.000
1714026305.620,-24.414,-28.320,-20.996,-26.367,0.000
1714026305.624,-26.367,-24.902,-27.344,-29.785,0.000
1714026305.630,-23.438,-23.926,-26.855,-26.855,0.000
1714026305.633,-22.949,-24.902,-23.438,-24.414,0.000
1714026305.637,-24.414,-24.414,-27.344,-25.391,0.000
1714026305.641,-21.484,-20.020,-22.949,-28.809,0.000
1714026305.645,-20.020,-20.020,-19.531,-26.367,0.000
1714026305.649,-19.043,-25.879,-25.879,-25.391,0.000
1714026305.653,-24.414,-27.344,-30.762,-29.297,0.000
1714026305.657,-23.438,-27.832,-22.949,-24.414,0.000
1714026305.661,-19.531,-31.250,-20.996,-15.625,0.000
1714026305.665,-30.273,-30.762,-29.297,-22.949,0.000
1714026305.669,-32.227,-27.344,-23.926,-27.344,0.000
1714026305.672,-26.367,-22.461,-23.438,-21.973,0.000
1714026305.677,-27.832,-24.414,-28.320,-29.297,0.000
1714026305.680,-30.762,-20.508,-20.996,-37.109,0.000
1714026305.684,-27.344,-19.531,-16.602,-28.320,0.000
1714026305.688,-26.367,-27.832,-18.066,-22.949,0.000
1714026305.692,-25.879,-32.715,-24.414,-32.715,0.000
1714026305.696,-22.461,-32.715,-27.832,-37.109,0.000
1714026305.700,-22.949,-28.809,-32.227,-34.180,0.000
1714026305.704,-15.137,-30.762,-42.969,-35.156,0.000
1714026305.708,-6.348,-23.926,-35.645,-31.738,0.000
1714026305.712,-9.766,-18.555,-24.414,-35.156,0.000
1714026305.716,-14.160,-25.879,-21.484,-36.133,0.000
1714026305.720,-15.625,-28.320,-26.855,-31.250,0.000
1714026305.723,-21.484,-29.785,-39.062,-32.715,0.000
1714026305.726,-25.391,-26.367,-40.039,-34.180,0.000
1714026305.730,-32.227,-23.926,-31.738,-37.109,0.000
1714026305.734,-33.203,-29.297,-27.344,-30.273,0.000
1714026305.738,-32.227,-33.203,-24.902,-25.879,0.000
1714026305.742,-38.086,-34.668,-22.461,-31.250,0.000
1714026305.746,-32.715,-34.668,-19.531,-28.320,0.000
1714026305.750,-29.297,-35.156,-22.949,-22.461,0.000
1714026305.754,-36.621,-29.785,-23.438,-26.855,0.000
1714026305.758,-31.738,-19.531,-20.508,-27.832,0.000
1714026305.762,-28.320,-27.344,-22.949,-27.832,0.000
1714026305.766,-37.109,-33.203,-31.250,-35.645,0.000
1714026305.768,-40.039,-33.691,-39.062,-30.762,0.000
1714026305.772,-41.016,-37.109,-32.227,-32.227,0.000
1714026305.776,-40.527,-37.109,-31.738,-41.504,0.000
1714026305.780,-37.598,-38.574,-32.227,-39.062,0.000
1714026305.784,-40.039,-31.738,-27.832,-32.227,0.000
1714026305.788,-34.180,-27.832,-29.297,-27.832,0.000
1714026305.792,-28.320,-27.344,-21.973,-30.762,0.000
1714026305.795,-34.668,-30.273,-22.461,-35.645,0.000
1714026305.799,-36.133,-26.855,-25.391,-38.086,0.000
1714026305.803,-34.180,-26.855,-24.414,-36.621,0.000
1714026305.807,-37.598,-28.320,-34.668,-44.434,0.000
1714026305.811,-35.645,-23.438,-32.715,-44.922,0.000
1714026305.813,-31.738,-27.832,-28.320,-35.645,0.000
1714026305.817,-32.715,-22.949,-29.297,-33.203,0.000
1714026305.821,-33.203,-21.484,-31.250,-31.738,0.000
1714026305.825,-31.738,-29.785,-39.062,-32.227,0.000
1714026305.829,-26.367,-25.879,-34.180,-30.273,0.000
1714026305.833,-22.461,-25.879,-22.949,-22.949,0.000
1714026305.837,-19.043,-33.691,-20.508,-20.508,0.000
1714026305.841,-18.066,-33.691,-22.949,-23.926,0.000
1714026305.845,-22.461,-26.367,-29.297,-24.414,0.000
1714026305.849,-25.879,-28.809,-37.109,-27.344,0.000
1714026305.853,-22.949,-27.832,-29.785,-26.855,0.000
1714026305.856,-27.344,-24.414,-25.879,-26.855,0.000
1714026305.859,-29.785,-23.926,-21.973,-31.250,0.000
1714026305.863,-27.344,-23.926,-19.043,-23.926,0.000
1714026305.866,-29.785,-26.367,-22.949,-19.043,0.000
1714026305.870,-29.785,-29.785,-25.391,-26.855,0.000
1714026305.874,-22.461,-29.297,-27.832,-27.344,0.000
1714026305.878,-20.020,-32.715,-20.020,-16.602,0.000
1714026305.882,-32.227,-31.250,-13.672,-14.648,0.000
1714026305.886,-31.738,-25.391,-15.137,-22.949,0.000
1714026305.890,-26.855,-29.785,-20.996,-28.320,0.000
1714026305.894,-28.320,-28.809,-23.438,-25.879,0.000
1714026305.898,-28.320,-27.344,-23.438,-18.555,0.000
1714026305.902,-34.180,-29.297,-20.508,-18.066,0.000
1714026305.911,-38.086,-29.785,-25.391,-25.879,0.000
1714026305.914,-34.180,-32.715,-32.715,-25.391,0.000
1714026305.918,-34.180,-34.180,-34.180,-25.879,0.000
1714026305.922,-35.156,-32.227,-41.016,-24.414,0.000
1714026305.926,-37.598,-21.973,-41.016,-26.367,0.000
1714026305.930,-34.668,-18.066,-36.133,-31.250,0.000
1714026305.934,-26.855,-13.672,-30.273,-26.367,0.000
1714026305.938,-21.973,-13.184,-21.973,-21.973,0.000
1714026305.942,-16.113,-21.973,-18.066,-19.531,0.000
1714026305.946,-17.578,-24.902,-19.531,-15.625,0.000
1714026305.950,-24.414,-23.438,-23.438,-14.160,0.000
1714026305.954,-19.531,-22.949,-22.949,-11.719,0.000
1714026305.966,-18.555,-24.414,-18.066,-6.348,0.000
1714026305.970,-20.996,-22.949,-16.113,-10.742,0.000
1714026305.974,-27.832,-27.832,-28.320,-21.973,0.000
1714026305.978,-30.762,-26.855,-31.250,-17.578,0.000
1714026305.982,-23.438,-13.672,-24.902,-9.277,0.000
1714026305.986,-20.996,-17.578,-28.809,-9.766,0.000
1714026305.990,-23.438,-29.297,-31.250,-16.602,0.000
1714026305.993,-24.902,-30.273,-20.020,-18.555,0.000
1714026305.997,-25.879,-27.344,-15.625,-16.602,0.000
1714026306.001,-27.344,-24.414,-23.926,-16.113,0.000
1714026306.005,-28.809,-24.414,-22.949,-19.043,0.000
1714026306.009,-31.738,-32.715,-16.113,-22.949,0.000
1714026306.010,-32.715,-33.203,-17.090,-16.602,0.000
1714026306.014,-30.762,-28.320,-32.227,-12.695,0.000
1714026306.018,-26.855,-24.414,-31.250,-15.137,0.000
1714026306.022,-28.320,-22.461,-24.902,-20.996,0.000
1714026306.026,-31.250,-25.879,-30.762,-24.414,0.000
1714026306.030,-25.879,-28.320,-29.297,-24.902,0.000
1714026306.034,-25.391,-26.855,-26.855,-29.785,0.000
1714026306.038,-30.273,-27.832,-18.066,-28.320,0.000
1714026306.041,-23.438,-26.367,-13.184,-23.438,0.000
1714026306.045,-18.555,-20.020,-14.160,-22.461,0.000
1714026306.049,-25.879,-23.438,-21.484,-28.320,0.000
1714026306.053,-35.645,-28.320,-31.738,-30.762,0.000
1714026306.054,-35.645,-28.809,-38.086,-21.484,0.000
1714026306.058,-30.762,-24.414,-35.645,-21.973,0.000
1714026306.062,-29.785,-29.297,-37.598,-26.367,0.000
1714026306.066,-28.320,-30.762,-39.551,-24.414,0.000
1714026306.070,-30.273,-29.785,-37.109,-20.508,0.000
1714026306.074,-34.180,-29.785,-40.527,-23.438,0.000
1714026306.078,-35.645,-26.855,-35.156,-25.391,0.000
1714026306.082,-32.227,-24.414,-22.461,-24.414,0.000
1714026306.086,-27.832,-26.367,-24.414,-18.555,0.000
1714026306.090,-26.855,-26.367,-18.555,-21.484,0.000
1714026306.094,-24.902,-28.809,-18.555,-25.391,0.000
1714026306.097,-23.926,-30.273,-29.297,-28.320,0.000
1714026306.099,-20.020,-30.273,-24.902,-27.832,0.000
1714026306.103,-21.484,-38.574,-24.902,-24.902,0.000
1714026306.107,-20.996,-29.785,-31.250,-19.531,0.000
1714026306.111,-20.020,-21.484,-30.273,-17.090,0.000
1714026306.115,-22.949,-24.902,-30.273,-25.879,0.000
1714026306.119,-24.902,-21.484,-32.715,-24.902,0.000
1714026306.123,-25.879,-22.461,-31.250,-23.438,0.000
1714026306.127,-25.879,-28.320,-35.645,-21.973,0.000
1714026306.131,-25.391,-25.879,-30.762,-20.996,0.000
1714026306.135,-24.414,-20.508,-20.996,-22.461,0.000
1714026306.138,-21.973,-19.043,-25.391,-17.090,0.000
1714026306.142,-28.809,-26.367,-30.273,-25.391,0.000
1714026306.144,-25.879,-26.367,-24.902,-28.320,0.000
1714026306.148,-24.414,-22.949,-23.926,-30.762,0.000
1714026306.152,-29.297,-28.809,-30.273,-32.227,0.000
1714026306.156,-30.273,-32.715,-32.715,-28.320,0.000
1714026306.160,-33.203,-34.668,-28.320,-32.715,0.000
1714026306.164,-35.156,-28.809,-23.926,-36.621,0.000
1714026306.168,-32.227,-22.949,-19.531,-29.785,0.000
1714026306.172,-29.297,-20.020,-15.625,-20.996,0.000
1714026306.176,-22.949,-11.230,-15.137,-20.508,0.000
1714026306.179,-21.484,-15.625,-10.254,-23.438,0.000
1714026306.183,-29.297,-27.344,-18.555,-25.879,0.000
1714026306.187,-32.715,-31.250,-22.949,-26.855,0.000
1714026306.189,-32.715,-26.855,-22.461,-30.762,0.000
1714026306.193,-32.227,-21.973,-27.832,-36.133,0.000
1714026306.197,-31.738,-19.043,-25.391,-33.691,0.000
1714026306.201,-33.691,-21.484,-33.691,-30.273,0.000
1714026306.205,-37.109,-28.320,-42.480,-31.738,0.000
1714026306.209,-38.574,-27.832,-36.621,-34.180,0.000
1714026306.213,-36.621,-23.438,-34.668,-29.785,0.000
1714026306.216,-37.598,-22.949,-37.109,-25.391,0.000
1714026306.220,-42.969,-30.273,-36.133,-31.738,0.000
1714026306.224,-42.969,-31.250,-28.809,-35.156,0.000
1714026306.228,-41.992,-27.344,-24.902,-35.156,0.000
1714026306.232,-42.969,-25.391,-29.785,-36.621,0.000
1714026306.234,-38.574,-19.043,-32.227,-40.527,0.000
1714026306.238,-35.156,-21.973,-37.109,-41.992,0.000
1714026306.242,-35.645,-22.461,-28.809,-38.574,0.000
1714026306.246,-37.109,-20.020,-24.902,-39.062,0.000
1714026306.250,-34.668,-21.484,-32.227,-37.598,0.000
1714026306.254,-33.203,-28.320,-25.879,-32.227,0.000
1714026306.258,-29.297,-35.645,-26.855,-27.344,0.000
1714026306.261,-33.203,-35.645,-26.855,-33.691,0.000
1714026306.265,-40.039,-28.809,-25.391,-40.039,0.000
1714026306.269,-31.250,-19.531,-28.809,-33.203,0.000
1714026306.273,-21.973,-18.555,-24.902,-32.227,0.000
1714026306.277,-25.391,-18.555,-31.250,-34.668,0.000
1714026306.279,-31.738,-20.508,-27.344,-30.762,0.000
1714026306.283,-36.133,-27.344,-23.438,-32.227,0.000
1714026306.287,-35.156,-36.621,-15.137,-35.645,0.000
1714026306.291,-38.086,-36.133,-9.277,-37.109,0.000
1714026306.295,-43.945,-29.785,-21.484,-37.109,0.000
1714026306.299,-41.016,-31.738,-32.227,-32.227,0.000
1714026306.303,-32.715,-24.414,-31.738,-33.203,0.000
1714026306.306,-30.273,-20.508,-22.461,-40.527,0.000
1714026306.310,-35.156,-22.461,-21.973,-44.922,0.000
1714026306.314,-30.762,-18.066,-31.738,-31.250,0.000
1714026306.318,-26.855,-25.391,-29.297,-21.973,0.000
1714026306.322,-30.273,-32.227,-17.578,-35.645,0.000
1714026306.331,-31.250,-27.832,-15.625,-35.156,0.000
1714026306.335,-32.715,-28.809,-17.578,-26.367,0.000
1714026306.339,-36.133,-32.227,-27.344,-31.738,0.000
1714026306.343,-32.227,-22.461,-35.156,-43.945,0.000
1714026306.346,-29.785,-20.996,-31.250,-43.945,0.000
1714026306.350,-31.250,-20.508,-32.227,-38.086,0.000
1714026306.354,-31.250,-22.461,-31.250,-36.621,0.000
1714026306.358,-31.250,-29.297,-26.367,-39.551,0.000
1714026306.362,-28.320,-25.391,-26.367,-33.691,0.000
1714026306.366,-20.508,-20.020,-26.855,-23.438,0.000
1714026306.370,-19.043,-20.020,-22.949,-25.879,0.000
1714026306.374,-20.996,-25.391,-7.324,-27.344,0.000
1714026306.380,-18.066,-23.926,-1.953,-26.367,0.000
1714026306.383,-22.949,-20.996,-13.672,-29.785,0.000
1714026306.387,-30.762,-27.832,-22.461,-34.668,0.000
1714026306.391,-24.902,-29.297,-22.949,-30.273,0.000
1714026306.395,-23.438,-32.715,-28.809,-26.367,0.000
1714026306.399,-26.855,-33.203,-29.297,-29.785,0.000
1714026306.403,-25.391,-27.832,-21.973,-30.762,0.000
1714026306.407,-24.414,-27.344,-18.066,-25.879,0.000
1714026306.411,-28.320,-22.461,-17.090,-28.320,0.000
1714026306.415,-34.668,-20.508,-13.184,-35.156,0.000
1714026306.419,-25.879,-27.344,-19.043,-31.738,0.000
1714026306.422,-20.508,-33.203,-26.367,-22.949,0.000
1714026306.427,-39.062,-35.645,-22.949,-38.086,0.000
1714026306.430,-47.363,-33.691,-16.602,-43.945,0.000
1714026306.434,-39.062,-30.762,-17.578,-36.133,0.000
1714026306.438,-44.434,-25.879,-22.461,-41.016,0.000
1714026306.442,-46.387,-23.926,-18.555,-41.016,0.000
1714026306.446,-45.410,-21.973,-14.160,-31.250,0.000
1714026306.450,-50.781,-24.414,-12.695,-32.227,0.000
1714026306.454,-53.711,-29.297,-20.508,-44.434,0.000
1714026306.458,-52.734,-30.762,-31.738,-39.062,0.000
1714026306.462,-48.828,-31.738,-31.250,-41.992,0.000
1714026306.466,-50.293,-30.273,-23.926,-46.875,0.000
1714026306.470,-45.898,-28.809,-18.555,-37.598,0.000
1714026306.473,-38.574,-34.180,-18.066,-30.273,0.000
1714026306.477,-40.039,-34.668,-20.996,-40.039,0.000
1714026306.481,-41.504,-32.227,-23.438,-46.875,0.000
1714026306.484,-37.598,-30.762,-23.438,-36.133,0.000
1714026306.488,-40.039,-29.785,-14.160,-27.832,0.000
1714026306.492,-41.504,-31.250,-11.230,-29.785,0.000
1714026306.496,-41.016,-36.133,-22.949,-40.527,0.000
1714026306.500,-39.551,-35.645,-31.250,-35.156,0.000
1714026306.504,-34.180,-23.438,-18.066,-27.832,0.000
1714026306.508,-32.227,-16.602,-7.324,-30.762,0.000
1714026306.512,-23.926,-19.043,-5.859,-22.461,0.000
1714026306.516,-23.926,-25.391,-12.207,-20.508,0.000
1714026306.525,-28.809,-23.438,-12.695,-19.043,0.000
1714026306.529,-22.949,-21.973,-3.906,-15.625,0.000
1714026306.533,-23.926,-25.391,-15.625,-24.414,0.000
1714026306.537,-22.461,-26.367,-24.902,-28.809,0.000
1714026306.541,-15.625,-25.391,-24.414,-25.391,0.000
1714026306.545,-10.742,-24.414,-18.066,-23.926,0.000
1714026306.549,-6.348,-27.832,-14.648,-21.973,0.000
1714026306.552,-7.324,-25.391,-18.555,-20.508,0.000
1714026306.556,-13.184,-19.043,-13.184,-19.531,0.000
1714026306.560,-16.113,-21.973,-9.766,-8.301,0.000
1714026306.564,-19.531,-24.414,-29.297,-7.812,0.000
1714026306.568,-27.344,-19.531,-23.926,-16.113,0.000
1714026306.567,-33.203,-19.531,-15.625,-20.996,0.000
1714026306.571,-36.133,-30.762,-24.902,-28.320,0.000
1714026306.575,-41.504,-33.203,-23.926,-35.645,0.000
1714026306.579,-43.457,-34.668,-28.809,-37.109,0.000
1714026306.583,-41.992,-42.480,-29.297,-28.809,0.000
1714026306.587,-42.969,-37.109,-21.484,-22.949,0.000
1714026306.591,-33.203,-23.438,-18.555,-21.484,0.000
1714026306.595,-25.879,-21.484,-24.902,-27.344,0.000
1714026306.598,-30.762,-30.762,-27.832,-34.180,0.000
1714026306.602,-36.621,-37.598,-22.461,-34.668,0.000
1714026306.606,-32.227,-37.109,-18.555,-26.855,0.000
1714026306.610,-30.762,-41.016,-20.020,-27.832,0.000
1714026306.611,-34.180,-48.340,-27.344,-35.645,0.000
1714026306.615,-33.203,-40.039,-30.762,-29.297,0.000
1714026306.619,-30.762,-31.250,-25.879,-24.414,0.000
1714026306.623,-31.738,-26.855,-18.066,-25.879,0.000
1714026306.626,-33.203,-25.879,-18.066,-32.227,0.000
1714026306.630,-33.203,-34.180,-26.367,-31.738,0.000
1714026306.634,-31.250,-32.227,-22.949,-17.578,0.000
1714026306.638,-33.203,-25.879,-18.066,-16.602,0.000
1714026306.642,-29.785,-21.484,-23.438,-22.461,0.000
1714026306.646,-29.297,-18.066,-22.949,-24.902,0.000
1714026306.650,-31.738,-21.973,-25.879,-29.297,0.000
1714026306.654,-33.203,-33.203,-21.484,-28.320,0.000
1714026306.655,-34.668,-34.668,-21.973,-25.391,0.000
1714026306.659,-34.180,-29.785,-35.645,-30.762,0.000
1714026306.663,-33.203,-26.367,-30.273,-30.762,0.000
1714026306.667,-29.297,-23.926,-15.625,-25.391,0.000
1714026306.670,-32.715,-23.438,-15.625,-28.320,0.000
1714026306.674,-32.715,-19.531,-15.625,-26.367,0.000
1714026306.678,-31.250,-14.648,-21.484,-21.484,0.000
1714026306.682,-27.832,-20.508,-25.391,-14.160,0.000
1714026306.686,-22.949,-31.738,-27.344,-17.090,0.000
1714026306.690,-27.832,-34.180,-28.320,-23.438,0.000
1714026306.694,-27.832,-29.785,-24.902,-23.926,0.000
1714026306.698,-30.273,-26.855,-25.879,-26.367,0.000
1714026306.706,-31.250,-30.273,-35.156,-30.273,0.000
1714026306.710,-25.879,-31.738,-42.480,-33.203,0.000
1714026306.714,-26.367,-33.203,-33.203,-31.250,0.000
1714026306.718,-31.250,-32.227,-24.902,-34.668,0.000
1714026306.722,-29.785,-22.949,-20.996,-34.180,0.000
1714026306.726,-28.320,-18.555,-20.508,-28.320,0.000
1714026306.730,-27.832,-20.020,-20.020,-30.762,0.000
1714026306.733,-26.367,-23.926,-20.508,-28.320,0.000
1714026306.737,-27.344,-26.855,-27.832,-21.484,0.000
1714026306.741,-27.832,-27.832,-23.438,-23.438,0.000
1714026306.745,-25.879,-26.855,-20.020,-24.414,0.000
1714026306.749,-26.855,-22.949,-27.344,-22.949,0.000
1714026306.755,-26.367,-26.855,-27.832,-25.879,0.000
1714026306.758,-25.391,-27.344,-23.438,-30.273,0.000
1714026306.762,-30.762,-31.250,-28.809,-35.156,0.000
1714026306.766,-32.227,-34.180,-29.297,-35.156,0.000
1714026306.770,-28.320,-26.367,-25.391,-30.762,0.000
1714026306.774,-23.926,-19.043,-16.113,-24.902,0.000
1714026306.778,-20.996,-13.672,-8.789,-30.762,0.000
1714026306.782,-22.461,-14.648,-21.484,-36.133,0.000
1714026306.786,-23.926,-20.508,-29.785,-31.738,0.000
1714026306.790,-26.367,-23.438,-21.484,-27.832,0.000
1714026306.794,-24.902,-31.250,-20.508,-28.809,0.000
1714026306.798,-23.438,-31.250,-30.273,-29.297,0.000
1714026306.802,-24.414,-22.461,-28.809,-22.949,0.000
1714026306.806,-23.438,-23.926,-28.320,-18.066,0.000
1714026306.809,-20.020,-19.531,-34.668,-22.461,0.000
1714026306.813,-23.438,-13.672,-30.273,-26.855,0.000
1714026306.817,-31.738,-17.090,-17.090,-26.855,0.000
1714026306.821,-26.855,-17.578,-16.602,-26.855,0.000
1714026306.825,-19.531,-21.484,-19.531,-24.414,0.000
1714026306.829,-22.461,-24.414,-17.578,-20.020,0.000
1714026306.833,-21.973,-18.555,-24.414,-19.043,0.000
1714026306.837,-19.043,-17.090,-24.414,-27.832,0.000
1714026306.841,-21.973,-16.113,-18.555,-33.203,0.000
1714026306.845,-19.043,-9.766,-19.531,-30.273,0.000
1714026306.847,-17.090,-20.020,-22.949,-30.273,0.000
1714026306.851,-21.484,-30.762,-22.949,-27.344,0.000
1714026306.855,-17.578,-22.949,-21.484,-16.113,0.000
1714026306.859,-16.602,-22.461,-29.297,-17.090,0.000
1714026306.863,-20.996,-22.949,-35.645,-26.855,0.000
1714026306.867,-20.508,-21.484,-27.344,-22.949,0.000
1714026306.871,-24.902,-24.902,-22.461,-21.973,0.000
1714026306.875,-26.367,-27.344,-25.391,-26.367,0.000
1714026306.879,-21.484,-23.438,-26.367,-24.902,0.000
1714026306.883,-16.113,-18.066,-20.508,-19.043,0.000
1714026306.887,-15.625,-21.484,-15.625,-10.254,0.000
1714026306.890,-23.438,-27.832,-21.484,-15.625,0.000
1714026306.893,-29.785,-22.949,-26.855,-25.391,0.000
1714026306.897,-33.203,-23.926,-34.668,-30.762,0.000
1714026306.901,-29.785,-29.785,-28.809,-27.344,0.000
1714026306.905,-24.902,-22.461,-17.578,-22.461,0.000
1714026306.909,-26.855,-19.531,-14.648,-24.902,0.000
1714026306.913,-24.902,-21.484,-17.090,-24.902,0.000
1714026306.916,-20.508,-17.578,-22.949,-19.043,0.000
1714026306.920,-19.531,-19.531,-21.973,-9.766,0.000
1714026306.924,-20.996,-20.508,-16.602,-18.066,0.000
1714026306.928,-24.414,-25.391,-11.719,-25.391,0.000
1714026306.932,-25.879,-31.738,-15.625,-19.531,0.000
1714026306.936,-19.531,-26.367,-19.531,-11.719,0.000
1714026306.938,-15.137,-28.809,-21.484,-16.113,0.000
1714026306.942,-17.578,-31.738,-24.414,-19.043,0.000
1714026306.946,-16.602,-24.414,-24.414,-18.555,0.000
1714026306.950,-13.672,-24.902,-20.020,-17.578,0.000
1714026306.954,-18.066,-29.785,-28.320,-19.043,0.000
1714026306.958,-27.344,-34.668,-29.297,-29.785,0.000
1714026306.962,-29.785,-35.156,-24.414,-31.738,0.000
1714026306.966,-27.832,-28.809,-23.438,-21.484,0.000
1714026306.970,-30.273,-27.832,-24.414,-23.438,0.000
1714026306.974,-24.902,-29.785,-27.344,-21.484,0.000
1714026306.977,-23.926,-25.879,-27.344,-21.973,0.000
1714026306.981,-27.344,-20.020,-26.367,-24.902,0.000
1714026306.984,-23.926,-13.184,-31.250,-19.043,0.000
1714026306.988,-24.902,-11.230,-31.738,-20.996,0.000
1714026306.991,-20.996,-14.160,-26.367,-22.461,0.000
1714026306.995,-20.020,-22.461,-21.484,-20.996,0.000
1714026306.999,-23.438,-22.461,-19.043,-18.555,0.000
1714026307.003,-19.531,-19.531,-32.715,-16.602,0.000
1714026307.007,-16.602,-24.902,-41.016,-16.113,0.000
1714026307.011,-24.414,-29.785,-24.902,-22.461,0.000
1714026307.015,-20.996,-34.180,-20.020,-14.160,0.000
1714026307.019,-1.953,-26.855,-18.555,3.906,0.000
1714026307.023,-17.578,-19.043,-20.020,-25.391,0.000
1714026307.027,-44.922,-24.902,-30.273,-52.734,0.000
1714026307.035,-39.551,-29.785,-34.180,-41.016,0.000
1714026307.039,-33.203,-24.414,-33.203,-47.363,0.000
1714026307.043,-37.109,-22.949,-29.785,-59.082,0.000
1714026307.047,-37.109,-26.367,-34.668,-56.641,0.000
1714026307.051,-37.109,-21.973,-45.410,-55.664,0.000
1714026307.055,-33.691,-18.555,-41.992,-48.340,0.000
1714026307.059,-39.551,-18.066,-33.691,-55.664,0.000
1714026307.063,-48.828,-18.555,-29.785,-64.453,0.000
1714026307.067,-47.852,-28.320,-34.668,-56.152,0.000
1714026307.070,-43.945,-28.320,-40.527,-44.922,0.000
1714026307.074,-41.992,-20.996,-28.809,-43.457,0.000
1714026307.078,-34.180,-21.484,-22.949,-44.434,0.000
1714026307.084,-33.691,-23.926,-32.227,-40.527,0.000
1714026307.088,-37.109,-19.531,-39.551,-36.133,0.000
1714026307.092,-37.109,-21.484,-37.109,-39.062,0.000
1714026307.096,-39.551,-23.926,-34.180,-48.828,0.000
1714026307.100,-40.527,-19.531,-33.203,-52.734,0.000
1714026307.104,-42.480,-27.832,-30.762,-49.805,0.000
1714026307.108,-38.574,-28.320,-25.879,-41.992,0.000
1714026307.112,-33.203,-17.578,-28.809,-38.574,0.000
1714026307.116,-37.598,-20.020,-36.621,-42.969,0.000
1714026307.119,-35.645,-26.855,-37.598,-33.203,0.000
1714026307.123,-27.832,-23.438,-33.203,-32.715,0.000
1714026307.127,-30.273,-24.414,-29.785,-39.062,0.000
1714026307.131,-33.691,-25.391,-24.902,-40.039,0.000
1714026307.135,-30.273,-25.879,-27.344,-41.504,0.000
1714026307.139,-33.691,-26.367,-23.438,-42.969,0.000
1714026307.143,-37.109,-23.438,-6.836,-40.527,0.000
1714026307.147,-35.156,-24.902,-13.672,-35.645,0.000
1714026307.151,-41.016,-29.785,-24.902,-45.898,0.000
1714026307.155,-51.758,-35.156,-21.484,-55.664,0.000
1714026307.159,-47.363,-29.785,-20.508,-54.688,0.000
1714026307.163,-47.852,-26.367,-22.949,-61.035,0.000
1714026307.166,-61.035,-35.645,-20.508,-66.895,0.000
1714026307.170,-65.918,-37.109,-15.137,-69.336,0.000
1714026307.174,-64.941,-23.438,-0.977,-66.895,0.000
1714026307.178,-71.777,-23.438,1.953,-70.801,0.000
1714026307.182,-83.496,-36.621,-9.277,-92.285,0.000
1714026307.185,-87.891,-32.715,-13.672,-105.469,0.000
1714026307.189,-86.426,-32.715,-8.301,-104.492,0.000
1714026307.193,-98.633,-41.016,-0.977,-120.605,0.000
1714026307.197,-110.840,-38.086,-2.930,-132.324,0.000
1714026307.201,-106.934,-31.250,-2.930,-120.117,0.000
1714026307.205,-101.074,-31.250,5.859,-109.863,0.000
1714026307.209,-100.586,-25.879,14.648,-102.539,0.000
1714026307.213,-106.445,-27.344,12.207,-110.840,0.000
1714026307.217,-100.098,-31.738,0.977,-114.746,0.000
1714026307.221,-89.844,-25.879,6.348,-104.980,0.000
1714026307.223,-92.773,-22.949,12.695,-103.516,0.000
1714026307.227,-92.773,-26.855,9.766,-99.609,0.000
1714026307.231,-87.402,-31.738,6.348,-93.262,0.000
1714026307.235,-90.332,-33.691,-3.418,-89.844,0.000
1714026307.239,-87.402,-34.668,-3.418,-85.449,0.000
1714026307.243,-74.707,-33.203,-8.301,-77.148,0.000
1714026307.247,-74.219,-23.926,-10.742,-79.590,0.000
1714026307.251,-69.824,-28.320,-11.719,-77.637,0.000
1714026307.255,-59.082,-39.551,-15.625,-62.012,0.000
1714026307.259,-54.688,-29.297,-16.113,-61.035,0.000
1714026307.262,-49.805,-20.508,-13.184,-60.059,0.000
1714026307.266,-46.875,-31.738,-17.578,-51.758,0.000
1714026307.269,-46.387,-36.133,-22.461,-40.039,0.000
1714026307.273,-36.621,-29.297,-21.973,-32.227,0.000
1714026307.276,-26.367,-29.297,-30.762,-29.785,0.000
1714026307.280,-32.715,-26.855,-34.180,-37.109,0.000
1714026307.284,-36.133,-28.320,-29.785,-43.945,0.000
1714026307.288,-20.996,-24.902,-23.926,-31.250,0.000
1714026307.292,-13.184,-20.020,-24.902,-27.344,0.000
1714026307.296,-18.555,-22.949,-37.598,-27.344,0.000
1714026307.300,-17.578,-21.973,-47.852,-28.320,0.000
1714026307.304,-20.020,-22.949,-37.598,-41.504,0.000
1714026307.308,-23.438,-18.555,-20.020,-41.992,0.000
1714026307.312,-16.602,-11.719,-18.555,-35.156,0.000
1714026307.314,-12.207,-20.508,-20.996,-25.879,0.000
1714026307.318,-19.043,-22.949,-23.926,-26.855,0.000
1714026307.322,-29.785,-22.949,-27.832,-41.504,0.000
1714026307.326,-35.645,-30.762,-21.973,-48.828,0.000
1714026307.330,-41.016,-27.832,-18.555,-50.781,0.000
1714026307.333,-57.129,-27.344,-22.461,-66.406,0.000
1714026307.337,-61.035,-31.738,-15.137,-80.566,0.000
1714026307.341,-59.082,-24.902,-1.953,-83.008,0.000
1714026307.345,-78.125,-23.926,-0.488,-98.145,0.000
1714026307.349,-83.008,-22.949,-3.906,-101.074,0.000
1714026307.353,-82.031,-23.926,1.465,-96.680,0.000
1714026307.357,-88.867,-26.855,3.906,-101.562,0.000
1714026307.359,-94.727,-29.785,1.465,-115.723,0.000
1714026307.363,-102.051,-33.691,-4.395,-119.141,0.000
1714026307.367,-96.191,-20.020,-9.766,-105.469,0.000
1714026307.371,-88.867,-18.066,-0.488,-105.469,0.000
1714026307.375,-91.309,-19.531,3.906,-110.840,0.000
1714026307.378,-83.008,-14.160,0.488,-96.680,0.000
1714026307.382,-78.125,-23.926,-9.766,-78.125,0.000
1714026307.386,-79.590,-21.484,-8.301,-77.637,0.000
1714026307.390,-70.801,-17.090,-1.465,-76.172,0.000
1714026307.394,-55.176,-27.344,-15.137,-62.988,0.000
1714026307.398,-51.270,-30.762,-21.484,-54.688,0.000
1714026307.402,-46.387,-25.879,-16.113,-48.340,0.000
1714026307.404,-37.598,-29.297,-20.020,-45.410,0.000
1714026307.408,-25.879,-31.250,-25.391,-35.156,0.000
1714026307.412,-18.066,-30.273,-27.344,-19.043,0.000
1714026307.415,-18.066,-41.504,-31.250,-19.043,0.000
1714026307.419,-14.648,-38.574,-34.668,-22.949,0.000
1714026307.423,-8.789,-30.273,-43.457,-17.578,0.000
1714026307.427,-4.883,-37.109,-47.363,-12.695,0.000
1714026307.431,1.953,-39.551,-33.203,-11.230,0.000
1714026307.435,15.625,-40.039,-33.203,-5.859,0.000
1714026307.439,23.926,-41.992,-51.270,1.465,0.000
1714026307.443,24.902,-39.551,-57.129,-1.465,0.000
1714026307.447,26.367,-39.551,-50.293,-0.977,0.000
1714026307.456,23.926,-38.574,-53.711,6.836,0.000
1714026307.460,26.367,-24.414,-54.199,13.672,0.000
1714026307.463,26.367,-20.020,-51.758,20.996,0.000
1714026307.467,20.508,-26.367,-48.340,20.508,0.000
1714026307.471,19.531,-27.832,-38.086,18.555,0.000
1714026307.475,20.508,-29.297,-39.062,18.555,0.000
1714026307.479,15.137,-30.273,-42.969,15.137,0.000
1714026307.483,11.719,-28.809,-45.898,13.672,0.000
1714026307.487,15.625,-24.414,-48.828,19.043,0.000
1714026307.491,21.973,-19.531,-48.828,23.926,0.000
1714026307.495,17.578,-20.996,-51.270,12.695,0.000
1714026307.499,9.766,-27.832,-51.758,9.766,0.000
1714026307.504,12.695,-22.949,-45.410,20.508,0.000
1714026307.508,14.648,-20.020,-39.551,18.555,0.000
1714026307.512,9.766,-24.414,-30.762,10.254,0.000
1714026307.516,7.324,-28.320,-26.855,10.742,0.000
1714026307.520,8.789,-30.762,-31.250,14.160,0.000
1714026307.524,9.766,-22.949,-33.691,9.766,0.000
1714026307.528,6.836,-23.438,-33.203,0.488,0.000
1714026307.532,2.441,-30.762,-31.738,-3.906,0.000
1714026307.536,2.930,-24.902,-35.156,2.930,0.000
1714026307.539,8.301,-11.719,-29.297,7.812,0.000
1714026307.543,12.695,-16.113,-20.508,1.465,0.000
1714026307.547,10.254,-26.367,-24.902,0.000,0.000
1714026307.551,3.418,-23.438,-26.367,1.953,0.000
1714026307.555,0.000,-21.973,-18.066,7.324,0.000
1714026307.559,-0.977,-24.414,-15.625,9.766,0.000
1714026307.563,-6.836,-31.250,-23.438,5.859,0.000
1714026307.567,-4.883,-28.809,-29.785,11.230,0.000
1714026307.571,-2.930,-22.949,-36.133,12.207,0.000
1714026307.575,0.000,-19.043,-33.691,6.836,0.000
1714026307.579,3.906,-20.508,-31.250,4.883,0.000
1714026307.583,-0.977,-30.273,-37.598,5.859,0.000
1714026307.586,-7.324,-37.109,-34.668,5.371,0.000
1714026307.590,-2.441,-32.715,-32.227,6.836,0.000
1714026307.594,-0.488,-28.809,-25.391,7.324,0.000
1714026307.598,-5.371,-34.668,-19.043,4.883,0.000
1714026307.602,-8.789,-20.508,-32.227,4.883,0.000
1714026307.605,-10.254,-15.625,-34.668,0.488,0.000
1714026307.609,-13.672,-19.043,-31.250,-8.789,0.000
1714026307.613,-15.625,-15.625,-35.645,-12.207,0.000
1714026307.617,-10.254,-17.090,-34.180,-10.254,0.000
1714026307.621,-8.789,-22.949,-34.180,-8.789,0.000
1714026307.625,-6.836,-25.391,-34.180,-5.371,0.000
1714026307.629,-9.277,-24.414,-32.227,-5.371,0.000
1714026307.633,-17.578,-21.484,-26.855,-16.113,0.000
1714026307.637,-17.090,-22.949,-27.344,-18.555,0.000
1714026307.641,-10.742,-29.297,-32.227,-13.184,0.000
1714026307.643,-9.766,-23.438,-36.133,-16.602,0.000
1714026307.647,-17.578,-22.949,-41.016,-16.113,0.000
1714026307.651,-18.555,-22.461,-34.668,-6.348,0.000
1714026307.655,-19.043,-31.738,-32.227,-9.277,0.000
1714026307.659,-19.043,-37.598,-34.180,-19.531,0.000
1714026307.663,-13.184,-26.367,-27.832,-25.391,0.000
1714026307.667,-16.113,-23.926,-23.926,-23.438,0.000
1714026307.671,-24.414,-23.926,-28.809,-17.578,0.000
1714026307.675,-20.996,-20.996,-23.926,-16.113,0.000
1714026307.678,-19.043,-21.973,-26.367,-23.926,0.000
1714026307.682,-23.438,-23.438,-34.668,-27.832,0.000
1714026307.686,-24.902,-29.297,-36.621,-20.020,0.000
1714026307.689,-28.320,-33.203,-31.738,-22.461,0.000
1714026307.692,-25.879,-28.809,-26.855,-23.438,0.000
1714026307.696,-20.996,-30.273,-26.855,-17.578,0.000
1714026307.700,-22.949,-30.762,-25.879,-17.578,0.000
1714026307.704,-25.879,-28.320,-35.156,-20.996,0.000
1714026307.708,-20.508,-25.391,-35.645,-23.438,0.000
1714026307.712,-18.066,-24.414,-32.715,-23.926,0.000
1714026307.716,-25.879,-22.949,-32.227,-19.043,0.000
1714026307.720,-26.367,-21.484,-21.973,-20.020,0.000
1714026307.724,-25.391,-26.367,-14.160,-21.484,0.000
1714026307.728,-29.297,-31.738,-17.578,-24.902,0.000
1714026307.732,-31.738,-31.250,-31.250,-30.273,0.000
1714026307.734,-27.832,-25.391,-31.738,-28.320,0.000
1714026307.738,-24.902,-22.461,-30.762,-26.367,0.000
1714026307.742,-23.926,-24.902,-40.527,-24.414,0.000
1714026307.745,-25.879,-28.320,-39.062,-21.484,0.000
1714026307.749,-25.879,-17.090,-40.527,-20.020,0.000
1714026307.753,-23.438,-20.508,-32.715,-14.160,0.000
1714026307.757,-28.809,-26.367,-23.438,-11.719,0.000
1714026307.761,-31.250,-13.184,-25.879,-18.555,0.000
1714026307.765,-25.879,-12.207,-29.297,-15.137,0.000
1714026307.769,-22.949,-16.602,-33.691,-18.066,0.000
1714026307.773,-22.949,-20.508,-34.180,-20.996,0.000
1714026307.777,-29.785,-22.461,-37.109,-26.855,0.000
1714026307.779,-35.156,-21.973,-33.691,-31.250,0.000
1714026307.783,-31.250,-25.879,-34.668,-23.926,0.000
1714026307.787,-23.438,-28.320,-43.457,-25.391,0.000
1714026307.791,-22.461,-31.250,-34.668,-23.926,0.000
1714026307.794,-22.461,-31.738,-24.414,-17.578,0.000
1714026307.798,-23.926,-31.250,-34.180,-17.578,0.000
1714026307.802,-24.902,-32.715,-44.434,-8.789,0.000
1714026307.806,-23.926,-36.621,-28.320,-6.836,0.000
1714026307.810,-21.973,-39.551,-19.531,-6.348,0.000
1714026307.814,-17.090,-33.203,-26.855,0.977,0.000
1714026307.818,-18.066,-16.602,-24.902,0.977,0.000
1714026307.822,-23.926,-18.555,-27.344,-6.836,0.000
1714026307.831,-22.949,-31.738,-32.227,-4.395,0.000
1714026307.835,-24.414,-31.738,-37.109,-7.324,0.000
1714026307.839,-31.250,-30.762,-39.551,-18.555,0.000
1714026307.843,-32.715,-33.203,-33.203,-22.461,0.000
1714026307.847,-29.785,-35.156,-36.621,-17.578,0.000
1714026307.850,-32.227,-31.250,-35.156,-16.602,0.000
1714026307.854,-26.367,-24.414,-20.020,-9.766,0.000
1714026307.858,-23.438,-22.461,-20.020,-15.625,0.000
1714026307.862,-32.227,-26.367,-28.320,-26.855,0.000
1714026307.866,-26.367,-28.320,-25.391,-11.719,0.000
1714026307.870,-22.461,-29.785,-25.391,-10.742,0.000
1714026307.874,-25.391,-30.762,-33.691,-24.902,0.000
1714026307.880,-24.414,-27.344,-29.785,-23.926,0.000
1714026307.883,-30.273,-27.832,-29.785,-21.973,0.000
1714026307.887,-31.738,-23.926,-33.691,-21.484,0.000
1714026307.891,-28.320,-13.672,-37.109,-16.602,0.000
1714026307.895,-28.809,-14.648,-44.434,-20.996,0.000
1714026307.899,-22.461,-26.855,-37.109,-16.602,0.000
1714026307.903,-21.484,-34.180,-26.367,-10.742,0.000
1714026307.907,-26.855,-24.902,-29.785,-16.113,0.000
1714026307.911,-22.949,-22.461,-31.738,-15.625,0.000
1714026307.915,-20.508,-23.926,-29.785,-10.254,0.000
1714026307.919,-22.461,-20.996,-33.203,-8.301,0.000
1714026307.922,-23.438,-24.414,-28.809,-8.789,0.000
1714026307.926,-27.344,-23.438,-26.855,-14.648,0.000
1714026307.930,-26.367,-18.066,-26.367,-18.066,0.000
1714026307.934,-29.785,-23.438,-22.949,-23.438,0.000
1714026307.938,-34.180,-31.250,-33.203,-26.367,0.000
1714026307.942,-29.785,-33.203,-41.016,-24.414,0.000
1714026307.946,-28.320,-40.039,-31.250,-29.297,0.000
1714026307.950,-29.785,-36.621,-25.879,-28.809,0.000
1714026307.954,-29.297,-23.926,-29.785,-16.113,0.000
1714026307.958,-29.297,-24.902,-33.691,-11.230,0.000
1714026307.962,-32.715,-30.273,-24.414,-22.949,0.000
1714026307.966,-34.180,-33.691,-22.949,-22.461,0.000
1714026307.969,-29.785,-31.250,-23.438,-15.137,0.000
1714026307.973,-26.367,-23.438,-24.902,-16.602,0.000
1714026307.976,-27.344,-21.973,-29.297,-15.625,0.000
1714026307.980,-24.902,-20.996,-27.832,-16.113,0.000
1714026307.984,-24.902,-21.973,-24.414,-22.461,0.000
1714026307.988,-28.320,-30.273,-18.555,-22.461,0.000
1714026307.992,-27.832,-32.227,-25.879,-15.137,0.000
1714026307.996,-28.809,-32.715,-40.039,-22.949,0.000
1714026308.000,-36.133,-37.109,-34.180,-28.320,0.000
1714026308.004,-36.621,-37.109,-20.508,-17.578,0.000
1714026308.008,-32.227,-41.992,-24.902,-21.484,0.000
1714026308.012,-31.250,-25.879,-31.738,-26.855,0.000
1714026308.016,-33.203,-14.648,-29.297,-24.902,0.000
1714026308.018,-29.785,-23.438,-18.555,-18.555,0.000
1714026308.022,-28.320,-29.785,-21.973,-20.508,0.000
1714026308.026,-28.320,-25.879,-35.156,-26.367,0.000
1714026308.030,-28.809,-20.996,-32.715,-29.297,0.000
1714026308.034,-29.785,-23.926,-20.996,-24.902,0.000
1714026308.038,-31.250,-24.902,-20.996,-17.578,0.000
1714026308.042,-33.691,-25.391,-33.691,-16.602,0.000
1714026308.046,-35.156,-31.250,-36.621,-15.137,0.000
1714026308.049,-30.273,-29.297,-23.926,-23.438,0.000
1714026308.053,-19.531,-16.113,-20.996,-25.391,0.000
1714026308.057,-24.414,-24.902,-23.438,-24.414,0.000
1714026308.061,-30.762,-24.414,-16.602,-25.879,0.000
1714026308.064,-25.391,-12.207,-21.973,-20.508,0.000
1714026308.068,-26.855,-12.695,-27.832,-19.043,0.000
1714026308.071,-30.273,-16.602,-25.879,-21.484,0.000
1714026308.075,-27.344,-26.367,-26.367,-17.578,0.000
1714026308.079,-28.320,-27.344,-25.879,-21.484,0.000
1714026308.083,-23.438,-15.137,-27.344,-24.902,0.000
1714026308.087,-18.066,-13.184,-30.762,-18.555,0.000
1714026308.091,-21.973,-20.996,-30.762,-14.648,0.000
1714026308.095,-24.902,-20.508,-23.438,-23.438,0.000
1714026308.099,-21.973,-24.414,-18.555,-20.996,0.000
1714026308.103,-18.066,-26.855,-17.090,-8.301,0.000
1714026308.107,-20.508,-26.367,-21.484,-15.137,0.000
1714026308.109,-16.113,-26.367,-28.809,-17.090,0.000
1714026308.113,-9.277,-24.414,-28.809,-4.395,0.000
1714026308.117,-24.414,-26.855,-22.461,-9.277,0.000
1714026308.121,-41.016,-25.879,-18.066,-29.785,0.000
1714026308.125,-38.086,-28.320,-26.855,-40.527,0.000
1714026308.128,-38.574,-27.344,-38.086,-37.598,0.000
1714026308.132,-40.527,-24.414,-39.551,-28.320,0.000
1714026308.136,-36.621,-23.438,-37.598,-21.484,0.000
1714026308.140,-42.480,-30.762,-29.785,-28.809,0.000
1714026308.144,-42.969,-43.457,-26.367,-31.738,0.000
1714026308.148,-34.668,-39.062,-35.645,-25.879,0.000
1714026308.152,-35.156,-25.879,-41.504,-24.902,0.000
1714026308.154,-34.668,-20.508,-38.086,-31.738,0.000
1714026308.158,-34.668,-23.926,-32.715,-33.691,0.000
1714026308.161,-39.062,-29.297,-32.227,-27.832,0.000
1714026308.165,-41.992,-24.414,-38.086,-29.297,0.000
1714026308.169,-41.992,-26.367,-40.039,-37.109,0.000
1714026308.173,-42.480,-33.691,-38.086,-40.527,0.000
1714026308.177,-41.992,-36.621,-36.621,-33.203,0.000
1714026308.181,-39.062,-33.203,-35.156,-28.809,0.000
1714026308.185,-36.133,-34.180,-33.203,-26.367,0.000
1714026308.189,-35.645,-39.062,-27.344,-25.879,0.000
1714026308.193,-37.598,-37.598,-19.531,-22.461,0.000
1714026308.197,-38.574,-32.227,-24.414,-18.555,0.000
1714026308.205,-36.621,-24.902,-30.273,-21.484,0.000
1714026308.209,-41.992,-29.785,-32.715,-28.809,0.000
1714026308.213,-40.527,-33.203,-37.109,-30.762,0.000
1714026308.217,-29.785,-28.320,-37.109,-28.320,0.000
1714026308.221,-23.438,-29.785,-38.574,-30.273,0.000
1714026308.225,-20.996,-30.273,-38.574,-32.227,0.000
1714026308.229,-15.625,-29.785,-34.180,-30.762,0.000
1714026308.232,-9.766,-27.832,-36.621,-31.738,0.000
1714026308.236,-9.766,-21.484,-42.969,-28.320,0.000
1714026308.240,-8.789,-25.879,-38.574,-13.184,0.000
1714026308.244,-16.113,-39.551,-32.227,-14.648,0.000
1714026308.248,-25.391,-30.762,-33.691,-24.414,0.000
1714026308.254,-29.785,-24.414,-33.691,-18.555,0.000
1714026308.258,-32.715,-24.902,-32.227,-14.648,0.000
1714026308.262,-33.203,-24.902,-28.809,-16.113,0.000
1714026308.266,-31.738,-30.273,-25.391,-22.461,0.000
1714026308.270,-33.203,-30.273,-31.738,-26.855,0.000
1714026308.274,-33.691,-29.297,-38.086,-29.297,0.000
1714026308.278,-37.598,-23.926,-36.133,-31.250,0.000
1714026308.282,-38.086,-28.320,-36.133,-28.809,0.000
1714026308.285,-35.156,-38.574,-40.527,-22.461,0.000
1714026308.289,-34.180,-32.715,-37.598,-14.648,0.000
1714026308.293,-31.250,-27.832,-22.949,-14.648,0.000
1714026308.297,-34.668,-25.391,-22.949,-17.090,0.000
1714026308.301,-37.598,-25.391,-24.902,-14.648,0.000
1714026308.305,-33.203,-24.902,-24.902,-19.043,0.000
1714026308.309,-32.715,-30.762,-27.832,-24.414,0.000
1714026308.313,-38.574,-38.574,-25.391,-26.367,0.000
1714026308.317,-43.945,-31.738,-22.949,-33.691,0.000
1714026308.321,-39.551,-24.902,-20.508,-31.738,0.000
1714026308.325,-32.715,-24.902,-22.949,-29.785,0.000
1714026308.329,-34.668,-26.367,-27.344,-30.273,0.000
1714026308.333,-37.598,-30.273,-24.414,-18.555,0.000
1714026308.336,-34.668,-25.391,-19.043,-12.695,0.000
1714026308.340,-31.738,-25.391,-19.531,-16.602,0.000
1714026308.344,-28.320,-28.809,-20.020,-23.438,0.000
1714026308.347,-24.902,-25.391,-21.973,-25.879,0.000
1714026308.351,-30.273,-23.926,-15.625,-22.949,0.000
1714026308.355,-34.668,-20.996,-17.578,-21.484,0.000
1714026308.359,-35.156,-24.902,-24.902,-24.902,0.000
1714026308.363,-36.133,-33.691,-22.949,-28.809,0.000
1714026308.367,-31.738,-33.691,-23.926,-20.508,0.000
1714026308.371,-28.809,-25.391,-22.949,-18.066,0.000
1714026308.375,-22.949,-29.297,-17.578,-19.531,0.000
1714026308.379,-22.949,-24.414,-16.602,-18.066,0.000
1714026308.383,-26.367,-16.113,-17.578,-16.602,0.000
1714026308.387,-25.879,-24.414,-21.484,-14.648,0.000
1714026308.390,-22.461,-23.438,-25.391,-16.113,0.000
1714026308.393,-19.531,-18.066,-24.414,-17.090,0.000
1714026308.397,-25.391,-20.508,-16.602,-15.625,0.000
1714026308.401,-24.414,-17.090,-12.695,-13.184,0.000
1714026308.405,-24.902,-18.066,-21.484,-13.672,0.000
1714026308.409,-27.344,-21.973,-26.855,-14.160,0.000
1714026308.413,-27.344,-17.578,-26.367,-18.555,0.000
1714026308.417,-23.438,-21.973,-24.414,-23.438,0.000
1714026308.420,-19.043,-23.438,-23.926,-12.207,0.000
1714026308.424,-17.090,-22.949,-16.113,-14.648,0.000
1714026308.428,-14.160,-29.785,-8.301,-22.949,0.000
1714026308.432,-21.973,-33.203,-20.508,-26.855,0.000
1714026308.436,-28.320,-26.367,-42.969,-30.762,0.000
1714026308.438,-25.879,-19.043,-46.387,-30.273,0.000
1714026308.442,-26.855,-17.578,-32.715,-35.645,0.000
1714026308.446,-26.855,-17.090,-23.926,-34.180,0.000
1714026308.450,-22.949,-16.602,-24.414,-24.902,0.000
1714026308.454,-22.949,-21.973,-25.391,-25.391,0.000
1714026308.458,-26.855,-29.785,-21.484,-38.574,0.000
1714026308.462,-27.832,-26.367,-20.996,-39.062,0.000
1714026308.466,-26.855,-18.555,-23.438,-22.949,0.000
1714026308.470,-27.832,-18.555,-26.855,-27.832,0.000
1714026308.474,-26.855,-19.531,-36.133,-34.668,0.000
1714026308.478,-22.461,-20.508,-34.668,-27.832,0.000
1714026308.481,-16.602,-16.113,-27.344,-24.902,0.000
1714026308.484,-11.719,-21.973,-27.832,-27.832,0.000
1714026308.488,-14.160,-30.273,-31.250,-25.879,0.000
1714026308.492,-21.973,-29.785,-27.344,-30.273,0.000
1714026308.496,-27.344,-30.762,-21.973,-37.598,0.000
1714026308.499,-22.949,-34.180,-26.367,-33.691,0.000
1714026308.503,-24.902,-31.738,-33.203,-29.785,0.000
1714026308.507,-30.762,-22.949,-33.691,-27.832,0.000
1714026308.511,-30.273,-16.602,-29.785,-24.414,0.000
1714026308.515,-22.461,-8.789,-28.320,-19.531,0.000
1714026308.519,-20.508,-12.207,-25.391,-19.531,0.000
1714026308.523,-25.879,-15.625,-22.949,-22.461,0.000
1714026308.527,-26.367,-17.578,-24.414,-25.391,0.000
1714026308.529,-26.367,-30.273,-21.973,-24.414,0.000
1714026308.533,-19.043,-28.809,-23.438,-14.160,0.000
1714026308.537,-27.344,-15.625,-32.715,-30.762,0.000
1714026308.541,-39.551,-16.602,-34.180,-45.410,0.000
1714026308.545,-30.762,-13.184,-29.297,-27.344,0.000
1714026308.548,-30.273,-8.789,-31.250,-24.902,0.000
1714026308.552,-36.133,-17.090,-27.832,-28.809,0.000
1714026308.556,-35.156,-20.020,-28.809,-26.367,0.000
1714026308.560,-39.062,-19.531,-38.086,-31.250,0.000
1714026308.564,-36.621,-21.973,-37.598,-33.203,0.000
1714026308.568,-31.250,-18.066,-25.391,-34.668,0.000
1714026308.572,-33.203,-14.160,-19.531,-41.992,0.000
1714026308.580,-31.250,-16.602,-25.391,-45.410,0.000
1714026308.584,-33.203,-21.973,-31.250,-39.551,0.000
1714026308.588,-34.668,-20.020,-29.297,-34.668,0.000
1714026308.592,-31.738,-19.531,-24.414,-30.762,0.000
1714026308.596,-32.715,-20.508,-17.578,-29.297,0.000
1714026308.600,-31.250,-20.508,-20.020,-23.926,0.000
1714026308.604,-29.297,-21.484,-26.855,-23.438,0.000
1714026308.608,-30.762,-20.996,-22.461,-33.203,0.000
1714026308.612,-25.391,-16.113,-28.809,-30.273,0.000
1714026308.615,-24.902,-13.672,-31.250,-21.973,0.000
1714026308.619,-30.273,-17.578,-26.855,-22.461,0.000
1714026308.623,-27.344,-26.367,-30.762,-24.414,0.000
1714026308.629,-25.391,-25.879,-18.555,-28.809,0.000
1714026308.633,-26.855,-18.555,-10.254,-29.297,0.000
1714026308.637,-23.438,-14.160,-18.066,-20.996,0.000
1714026308.641,-18.555,-15.137,-26.367,-16.113,0.000
1714026308.645,-21.973,-20.996,-26.855,-23.926,0.000
1714026308.649,-24.414,-23.926,-22.461,-27.344,0.000
1714026308.653,-19.043,-18.066,-28.809,-16.602,0.000
1714026308.657,-16.602,-14.160,-28.809,-12.695,0.000
1714026308.660,-14.648,-16.113,-21.973,-15.625,0.000
1714026308.664,-17.090,-19.043,-23.438,-14.648,0.000
1714026308.668,-26.855,-23.438,-24.414,-23.438,0.000
1714026308.672,-32.227,-33.203,-26.367,-23.926,0.000
1714026308.677,-30.273,-30.273,-26.855,-21.973,0.000
1714026308.681,-30.273,-24.414,-25.391,-27.832,0.000
1714026308.685,-35.645,-27.832,-32.227,-29.297,0.000
1714026308.688,-30.762,-28.320,-37.598,-25.879,0.000
1714026308.692,-21.973,-31.738,-26.367,-23.926,0.000
1714026308.696,-23.926,-33.691,-23.438,-31.738,0.000
1714026308.700,-23.438,-25.391,-32.227,-26.367,0.000
1714026308.704,-27.344,-24.902,-36.133,-19.531,0.000
1714026308.708,-32.227,-32.227,-29.785,-19.531,0.000
1714026308.712,-38.086,-35.645,-22.461,-27.832,0.000
1714026308.716,-36.621,-40.527,-27.344,-26.367,0.000
1714026308.720,-23.926,-32.227,-29.785,-16.113,0.000
1714026308.723,-25.391,-22.949,-22.461,-24.414,0.000
1714026308.727,-31.250,-26.855,-26.855,-29.297,0.000
1714026308.731,-32.227,-29.785,-32.715,-23.438,0.000
1714026308.735,-33.691,-34.180,-36.133,-22.949,0.000
1714026308.739,-32.227,-35.645,-31.250,-21.973,0.000
1714026308.742,-28.320,-28.320,-21.973,-20.996,0.000
1714026308.746,-26.855,-26.367,-18.555,-22.461,0.000
1714026308.750,-23.438,-28.320,-20.508,-14.648,0.000
1714026308.754,-23.438,-25.391,-28.809,-12.207,0.000
1714026308.758,-25.391,-20.020,-25.391,-19.043,0.000
1714026308.762,-22.461,-28.809,-29.785,-20.996,0.000
1714026308.766,-21.973,-31.738,-33.203,-23.438,0.000
1714026308.769,-22.461,-20.020,-16.113,-20.020,0.000
1714026308.772,-21.484,-18.066,-18.066,-19.043,0.000
1714026308.776,-26.855,-22.461,-36.621,-29.297,0.000
1714026308.780,-23.926,-19.531,-27.832,-28.809,0.000
1714026308.784,-20.996,-23.438,-19.531,-21.973,0.000
1714026308.788,-29.785,-27.344,-34.180,-25.391,0.000
1714026308.792,-33.203,-29.785,-39.551,-26.367,0.000
1714026308.796,-33.691,-43.945,-33.203,-23.926,0.000
1714026308.800,-37.598,-35.645,-28.320,-29.785,0.000
1714026308.804,-33.203,-21.484,-26.855,-31.738,0.000
1714026308.808,-29.297,-32.227,-25.391,-21.973,0.000
1714026308.812,-33.203,-30.273,-25.879,-25.391,0.000
1714026308.814,-38.086,-20.996,-27.832,-35.156,0.000
1714026308.818,-35.645,-26.855,-32.227,-32.715,0.000
1714026308.822,-36.133,-33.203,-35.156,-31.738,0.000
1714026308.826,-38.574,-39.551,-35.645,-33.691,0.000
1714026308.830,-37.109,-37.598,-37.598,-30.762,0.000
1714026308.833,-42.969,-34.180,-42.480,-36.621,0.000
1714026308.837,-41.504,-42.969,-41.992,-37.598,0.000
1714026308.841,-39.551,-39.062,-31.250,-34.180,0.000
1714026308.845,-40.039,-26.855,-19.043,-37.598,0.000
1714026308.849,-31.250,-28.320,-21.484,-30.273,0.000
1714026308.853,-30.762,-30.762,-25.879,-30.762,0.000
1714026308.857,-39.062,-29.297,-24.414,-42.480,0.000
1714026308.859,-39.551,-30.273,-33.691,-43.457,0.000
1714026308.863,-38.574,-27.344,-39.062,-36.133,0.000
1714026308.867,-36.621,-30.762,-32.715,-29.297,0.000
1714026308.871,-34.668,-30.762,-22.949,-30.273,0.000
1714026308.875,-28.320,-25.879,-18.066,-30.762,0.000
1714026308.878,-26.367,-23.926,-29.785,-30.273,0.000
1714026308.882,-26.367,-26.855,-27.344,-20.996,0.000
1714026308.886,-25.879,-26.855,-22.461,-22.461,0.000
1714026308.890,-27.832,-23.438,-35.645,-36.133,0.000
1714026308.894,-25.879,-25.391,-33.203,-34.180,0.000
1714026308.898,-30.762,-27.344,-29.297,-32.227,0.000
1714026308.902,-29.785,-26.855,-23.438,-25.879,0.000
1714026308.904,-28.809,-26.855,-19.043,-25.391,0.000
1714026308.908,-33.203,-20.508,-23.438,-33.203,0.000
1714026308.912,-26.367,-18.066,-28.320,-22.949,0.000
1714026308.915,-24.414,-21.973,-30.273,-18.066,0.000
1714026308.919,-23.438,-24.414,-24.902,-26.855,0.000
1714026308.923,-25.391,-28.320,-30.273,-34.668,0.000
1714026308.927,-27.344,-25.391,-31.250,-35.645,0.000
1714026308.931,-26.855,-20.020,-19.043,-33.203,0.000
1714026308.935,-30.762,-20.020,-16.113,-34.668,0.000
1714026308.939,-37.598,-25.879,-21.973,-34.668,0.000
1714026308.943,-48.828,-29.785,-23.926,-39.551,0.000
1714026308.947,-57.129,-30.762,-20.508,-50.293,0.000
1714026308.956,-57.129,-36.133,-16.113,-55.176,0.000
1714026308.959,-58.105,-42.480,-17.090,-60.547,0.000
1714026308.963,-70.801,-45.410,-19.531,-70.801,0.000
1714026308.967,-77.148,-40.527,-18.066,-78.125,0.000
1714026308.971,-76.660,-38.574,-17.090,-83.496,0.000
1714026308.975,-78.125,-42.480,-20.020,-85.938,0.000
1714026308.979,-74.219,-40.527,-17.578,-94.238,0.000
1714026308.983,-67.383,-36.621,-8.301,-98.145,0.000
1714026308.987,-73.242,-26.855,-8.301,-99.121,0.000
1714026308.991,-75.684,-20.508,-11.719,-100.098,0.000
1714026308.995,-69.824,-20.020,-5.859,-99.121,0.000
1714026308.998,-71.289,-21.973,-7.324,-87.891,0.000
1714026309.004,-73.730,-28.809,-15.625,-73.730,0.000
1714026309.008,-74.219,-34.668,-25.391,-71.777,0.000
1714026309.012,-78.613,-34.180,-18.066,-73.730,0.000
1714026309.016,-81.055,-29.297,-9.277,-67.871,0.000
1714026309.020,-73.730,-26.367,-12.695,-58.105,0.000
1714026309.024,-67.383,-23.926,-7.324,-56.641,0.000
1714026309.028,-73.242,-17.090,-9.277,-68.848,0.000
1714026309.032,-68.359,-20.508,-10.742,-67.871,0.000
1714026309.036,-63.477,-28.809,-9.766,-55.176,0.000
1714026309.039,-73.730,-25.391,-18.555,-61.035,0.000
1714026309.043,-73.730,-14.648,-16.113,-72.754,0.000
1714026309.047,-74.219,-21.973,-17.578,-76.172,0.000
1714026309.051,-86.426,-36.133,-21.484,-83.008,0.000
1714026309.055,-88.867,-28.809,-2.441,-77.637,0.000
1714026309.059,-86.914,-21.973,3.418,-74.707,0.000
1714026309.063,-95.703,-33.691,-13.184,-93.750,0.000
1714026309.067,-101.074,-37.109,-9.766,-100.098,0.000
1714026309.071,-105.957,-37.109,0.488,-98.145,0.000
1714026309.075,-114.258,-31.250,8.301,-107.910,0.000
1714026309.079,-112.793,-29.297,8.301,-111.816,0.000
1714026309.083,-106.445,-35.156,13.672,-100.098,0.000
1714026309.086,-106.934,-37.598,26.855,-100.586,0.000
1714026309.090,-96.680,-38.086,21.484,-95.703,0.000
1714026309.094,-93.750,-23.926,23.438,-95.703,0.000
1714026309.098,-103.516,-12.695,26.367,-104.492,0.000
1714026309.102,-96.191,-18.555,28.320,-94.238,0.000
1714026309.105,-84.473,-26.367,24.414,-83.008,0.000
1714026309.109,-77.637,-30.273,16.602,-78.125,0.000
1714026309.113,-66.895,-26.367,14.160,-66.406,0.000
1714026309.117,-68.848,-29.785,0.488,-64.453,0.000
1714026309.121,-67.871,-34.668,-9.277,-62.988,0.000
1714026309.125,-61.523,-25.879,-14.648,-56.641,0.000
1714026309.129,-59.082,-20.020,-9.277,-51.270,0.000
1714026309.133,-47.363,-17.090,-7.812,-44.922,0.000
1714026309.137,-40.527,-16.113,-13.672,-39.062,0.000
1714026309.141,-34.180,-17.578,-12.695,-31.738,0.000
1714026309.143,-28.809,-20.020,-19.531,-30.762,0.000
1714026309.147,-26.367,-21.484,-33.691,-33.691,0.000
1714026309.151,-25.391,-23.926,-38.574,-33.203,0.000
1714026309.155,-27.344,-29.297,-31.250,-31.738,0.000
1714026309.159,-24.902,-25.879,-26.367,-24.902,0.000
1714026309.163,-14.648,-27.344,-27.832,-23.438,0.000
1714026309.167,-18.555,-32.227,-30.273,-26.855,0.000
1714026309.171,-14.648,-27.832,-27.344,-11.719,0.000
1714026309.174,-7.324,-27.832,-27.832,-7.812,0.000
1714026309.178,-14.160,-24.414,-31.738,-21.973,0.000
1714026309.182,-14.160,-18.555,-27.344,-19.043,0.000
1714026309.186,-15.625,-18.555,-34.180,-14.648,0.000
1714026309.189,-18.066,-22.949,-32.227,-20.020,0.000
1714026309.192,-20.508,-17.578,-25.879,-31.250,0.000
1714026309.196,-40.039,-15.625,-32.227,-55.664,0.000
1714026309.200,-48.340,-21.973,-30.762,-58.105,0.000
1714026309.204,-51.758,-28.809,-20.508,-57.617,0.000
1714026309.208,-56.152,-26.367,-17.578,-66.895,0.000
1714026309.212,-67.383,-18.066,-20.996,-81.055,0.000
1714026309.216,-80.078,-19.043,-17.578,-86.426,0.000
1714026309.220,-81.055,-20.508,-13.672,-83.984,0.000
1714026309.224,-81.543,-20.020,-16.113,-91.797,0.000
1714026309.228,-86.426,-27.344,-24.902,-93.750,0.000
1714026309.232,-80.566,-17.578,-10.742,-86.426,0.000
1714026309.234,-79.102,0.000,4.395,-83.984,0.000
1714026309.238,-82.520,-2.441,-6.348,-79.590,0.000
1714026309.242,-74.707,-14.160,-13.184,-79.102,0.000
1714026309.246,-64.941,-19.531,-8.789,-77.637,0.000
1714026309.250,-60.547,-11.230,-11.719,-75.195,0.000
1714026309.253,-53.711,-6.836,-25.391,-61.523,0.000
1714026309.257,-53.223,-11.719,-24.902,-50.781,0.000
1714026309.261,-50.781,-23.438,-10.254,-43.945,0.000
1714026309.265,-41.016,-29.785,-9.277,-29.785,0.000
1714026309.269,-31.250,-24.414,-20.996,-25.879,0.000
1714026309.273,-30.762,-24.414,-26.855,-27.344,0.000
1714026309.277,-26.367,-30.273,-28.320,-21.484,0.000
1714026309.279,-18.555,-22.461,-28.320,-9.766,0.000
1714026309.283,-18.066,-15.137,-28.320,-5.371,0.000
1714026309.287,-14.648,-19.043,-25.391,-5.859,0.000
1714026309.290,-4.883,-21.973,-31.738,0.000,0.000
1714026309.294,-3.906,-28.809,-42.969,-1.465,0.000
1714026309.298,0.488,-34.180,-48.828,1.465,0.000
1714026309.302,6.836,-29.297,-52.734,9.766,0.000
1714026309.306,-1.953,-29.785,-45.410,2.441,0.000
1714026309.310,-2.441,-33.691,-38.086,3.418,0.000
1714026309.314,7.812,-37.109,-44.434,18.066,0.000
1714026309.318,8.789,-44.922,-45.898,17.090,0.000
1714026309.322,7.324,-32.715,-38.574,7.324,0.000
1714026309.331,9.766,-26.855,-43.457,9.766,0.000
1714026309.334,14.648,-29.297,-57.129,12.695,0.000
1714026309.338,19.531,-22.461,-57.129,18.555,0.000
1714026309.342,21.973,-24.414,-45.898,24.414,0.000
1714026309.346,22.949,-28.320,-41.016,29.297,0.000
1714026309.350,22.949,-30.762,-47.852,37.598,0.000
1714026309.354,26.367,-29.297,-46.387,41.504,0.000
1714026309.358,26.367,-36.621,-42.480,37.598,0.000
1714026309.362,21.484,-49.316,-46.387,29.297,0.000
1714026309.366,20.508,-44.434,-49.805,30.762,0.000
1714026309.370,27.344,-23.926,-47.363,31.738,0.000
1714026309.373,26.367,-20.996,-48.340,32.715,0.000
1714026309.379,17.090,-27.832,-48.340,28.320,0.000
1714026309.383,18.555,-24.414,-47.852,20.508,0.000
1714026309.387,21.973,-25.879,-52.246,21.484,0.000
1714026309.391,21.484,-30.273,-54.688,23.926,0.000
1714026309.395,16.602,-34.180,-54.688,17.090,0.000
1714026309.399,9.277,-35.156,-51.758,12.695,0.000
1714026309.402,6.836,-32.715,-48.340,14.648,0.000
1714026309.406,14.160,-31.738,-50.781,14.648,0.000
1714026309.410,20.996,-21.484,-63.477,13.672,0.000
1714026309.414,7.812,-20.996,-63.477,11.230,0.000
1714026309.418,2.441,-30.273,-60.059,9.277,0.000
1714026309.422,5.859,-33.691,-56.152,5.859,0.000
1714026309.426,-1.953,-36.621,-50.293,1.465,0.000
1714026309.430,-6.836,-36.133,-52.734,-2.441,0.000
1714026309.434,-3.906,-24.902,-49.316,-0.977,0.000
1714026309.438,-2.441,-21.484,-41.992,0.977,0.000
1714026309.442,-6.836,-24.902,-48.828,-4.883,0.000
1714026309.446,-3.906,-28.320,-62.500,-8.301,0.000
1714026309.450,1.465,-27.832,-60.547,-10.254,0.000
1714026309.454,2.930,-26.367,-56.641,-5.371,0.000
1714026309.458,1.465,-31.250,-55.664,6.836,0.000
1714026309.462,-1.465,-29.297,-49.316,2.441,0.000
1714026309.465,1.465,-23.926,-44.434,-3.906,0.000
1714026309.469,-0.488,-26.855,-45.410,1.465,0.000
1714026309.472,-4.883,-23.926,-45.898,1.465,0.000
1714026309.476,1.465,-17.090,-39.551,1.465,0.000
1714026309.480,7.324,-19.043,-40.527,0.488,0.000
1714026309.484,0.000,-24.902,-50.293,-5.371,0.000
1714026309.488,-6.836,-24.414,-47.363,-3.906,0.000
1714026309.492,-5.371,-31.738,-44.922,-7.812,0.000
1714026309.496,0.977,-26.367,-53.711,-10.254,0.000
1714026309.500,-0.977,-25.391,-56.152,-4.883,0.000
1714026309.504,-11.230,-30.762,-51.758,-0.488,0.000
1714026309.508,-9.277,-23.438,-46.875,-4.883,0.000
1714026309.512,-4.883,-25.879,-34.668,-9.766,0.000
1714026309.515,-3.418,-21.484,-35.156,-5.859,0.000
1714026309.518,-3.418,-19.043,-34.668,-9.766,0.000
1714026309.522,-3.418,-25.879,-31.738,-11.719,0.000
1714026309.526,-7.324,-25.879,-36.621,-9.277,0.000
1714026309.530,-10.254,-20.996,-44.922,-9.277,0.000
1714026309.534,-8.301,-19.531,-44.922,-9.277,0.000
1714026309.538,-8.789,-17.090,-36.621,-8.301,0.000
1714026309.542,-14.160,-18.066,-42.969,-9.277,0.000
1714026309.546,-18.555,-25.391,-50.781,-13.672,0.000
1714026309.549,-16.113,-22.949,-34.180,-14.160,0.000
1714026309.553,-4.883,-20.508,-22.461,-3.906,0.000
1714026309.557,-5.859,-27.832,-32.227,-4.883,0.000
1714026309.561,-9.766,-21.973,-33.691,-10.254,0.000
1714026309.564,-8.789,-20.996,-26.367,-5.371,0.000
1714026309.567,-12.695,-28.809,-26.367,-4.395,0.000
1714026309.571,-20.508,-22.461,-35.645,-11.230,0.000
1714026309.575,-23.438,-15.625,-36.133,-17.090,0.000
1714026309.579,-25.391,-16.113,-28.809,-15.137,0.000
1714026309.583,-23.926,-22.461,-20.020,-8.301,0.000
1714026309.587,-23.926,-21.973,-29.785,-9.766,0.000
1714026309.591,-22.461,-21.973,-40.527,-12.695,0.000
1714026309.595,-21.484,-27.832,-36.621,-20.996,0.000
1714026309.599,-27.832,-28.809,-37.598,-23.438,0.000
1714026309.603,-28.320,-24.902,-31.738,-17.090,0.000
1714026309.607,-30.762,-24.902,-35.156,-19.043,0.000
1714026309.609,-29.297,-35.156,-39.551,-22.461,0.000
1714026309.613,-21.973,-36.621,-33.691,-14.160,0.000
1714026309.616,-22.949,-26.855,-30.762,-10.742,0.000
1714026309.620,-23.926,-21.484,-21.484,-9.766,0.000
1714026309.624,-24.414,-28.320,-26.855,-8.789,0.000
1714026309.628,-27.832,-30.762,-37.598,-16.602,0.000
1714026309.632,-24.414,-25.391,-33.691,-9.277,0.000
1714026309.636,-20.996,-27.344,-27.832,-3.906,0.000
1714026309.640,-19.043,-21.484,-21.484,-11.719,0.000
1714026309.644,-20.020,-19.043,-26.855,-14.648,0.000
1714026309.648,-24.902,-29.297,-40.527,-18.066,0.000
1714026309.652,-20.020,-19.043,-20.508,-10.742,0.000
1714026309.654,-16.113,-16.113,-3.906,-14.648,0.000
1714026309.658,-21.484,-18.555,-18.555,-26.367,0.000
1714026309.662,-24.414,-13.184,-31.250,-30.762,0.000
1714026309.666,-25.391,-12.207,-39.551,-24.414,0.000
1714026309.669,-23.926,-18.555,-41.992,-20.020,0.000
1714026309.673,-20.508,-27.832,-37.598,-21.973,0.000
1714026309.677,-18.555,-25.391,-33.691,-17.090,0.000
1714026309.681,-10.742,-12.207,-22.461,-3.418,0.000
1714026309.685,-14.160,-18.066,-18.555,-3.418,0.000
1714026309.689,-17.578,-27.344,-25.879,-11.719,0.000
1714026309.693,-16.113,-10.742,-25.391,-9.766,0.000
1714026309.697,-20.508,-11.230,-33.691,-16.113,0.000
1714026309.706,-25.391,-23.926,-41.016,-23.926,0.000
1714026309.710,-23.926,-21.484,-33.691,-24.414,0.000
1714026309.714,-16.113,-18.555,-31.738,-17.578,0.000
1714026309.717,-19.043,-22.949,-43.457,-14.648,0.000
1714026309.721,-17.090,-24.414,-36.621,-14.648,0.000
1714026309.725,-8.789,-27.832,-20.996,-15.625,0.000
1714026309.729,-12.207,-24.902,-26.367,-18.555,0.000
1714026309.733,-19.043,-25.879,-38.086,-20.020,0.000
1714026309.737,-18.066,-30.273,-33.203,-17.578,0.000
1714026309.741,-10.742,-34.180,-29.785,-11.230,0.000
1714026309.745,-8.301,-34.668,-23.926,-9.766,0.000
1714026309.749,-13.184,-30.273,-27.832,-11.719,0.000
1714026309.755,0.000,-25.879,-38.574,-14.648,0.000
1714026309.759,0.000,-27.832,-29.297,-10.254,0.000
1714026309.763,0.000,-29.785,-21.973,-17.090,0.000
1714026309.766,0.000,-32.227,-22.461,-25.391,0.000
1714026309.770,0.000,-34.668,-12.695,-13.672,0.000
1714026309.774,0.000,-34.668,-11.230,-5.371,0.000
1714026309.778,0.000,-37.109,-16.602,-14.648,0.000
1714026309.782,0.000,-32.227,-24.902,-24.414,0.000
1714026309.786,0.000,-31.738,-32.227,-20.996,0.000
1714026309.790,0.000,-21.484,-27.344,-14.160,0.000
1714026309.794,0.000,-8.301,-18.066,-13.184,0.000
1714026309.798,0.000,-12.695,-20.020,-17.578,0.000
1714026309.802,-1.465,-20.020,-32.227,-14.648,0.000
1714026309.806,-2.441,-30.273,-31.738,-17.090,0.000
1714026309.809,-10.742,-32.227,-25.391,-22.461,0.000
1714026309.813,-15.625,-21.973,-28.320,-21.484,0.000
1714026309.817,-16.602,-22.461,-31.738,-12.695,0.000
1714026309.821,-19.531,-27.832,-29.785,-5.371,0.000
1714026309.825,-20.996,-21.484,-26.855,-11.230,0.000
1714026309.829,-26.367,-26.367,-33.203,-17.578,0.000
1714026309.833,-26.367,-35.645,-27.344,-15.137,0.000
1714026309.837,-23.926,-27.832,-19.043,-13.184,0.000
1714026309.841,-25.391,-23.438,-24.902,-18.066,0.000
1714026309.845,-24.414,-24.902,-30.273,-27.832,0.000
1714026309.848,-26.367,-24.902,-31.738,-33.203,0.000
1714026309.852,-33.203,-23.926,-31.250,-30.762,0.000
1714026309.855,-30.762,-27.344,-18.555,-29.785,0.000
1714026309.859,-29.785,-32.715,-13.184,-27.344,0.000
1714026309.863,-34.180,-33.691,-21.484,-29.297,0.000
1714026309.867,-34.668,-31.738,-30.762,-31.738,0.000
1714026309.871,-36.133,-32.715,-36.621,-33.203,0.000
1714026309.875,-31.250,-37.109,-31.250,-28.809,0.000
1714026309.879,-26.855,-36.621,-25.879,-21.484,0.000
1714026309.883,-23.438,-23.926,-30.762,-20.996,0.000
1714026309.887,-17.578,-24.902,-29.297,-14.648,0.000
1714026309.891,-23.438,-30.273,-13.672,-9.766,0.000
1714026309.893,-30.762,-24.902,-20.996,-22.461,0.000
1714026309.897,-33.691,-27.832,-32.227,-35.645,0.000
1714026309.901,-33.691,-30.762,-28.809,-30.762,0.000
1714026309.905,-31.738,-29.785,-25.391,-26.855,0.000
1714026309.909,-31.738,-26.367,-22.461,-28.809,0.000
1714026309.913,-30.762,-29.785,-22.461,-29.297,0.000
1714026309.917,-24.414,-36.133,-37.109,-21.484,0.000
1714026309.921,-22.461,-26.367,-43.457,-13.672,0.000
1714026309.925,-20.996,-20.508,-26.367,-19.531,0.000
1714026309.928,-22.949,-20.996,-18.066,-20.020,0.000
1714026309.932,-26.855,-20.996,-22.461,-18.066,0.000
1714026309.936,-29.297,-23.926,-31.250,-25.391,0.000
1714026309.939,-29.297,-27.832,-30.762,-29.785,0.000
1714026309.943,-26.367,-21.973,-27.832,-31.250,0.000
1714026309.947,-27.832,-25.391,-33.691,-33.691,0.000
1714026309.951,-31.250,-29.297,-33.691,-38.086,0.000
1714026309.955,-32.715,-22.461,-31.250,-34.668,0.000
1714026309.958,-37.598,-26.367,-32.227,-33.691,0.000
1714026309.962,-40.527,-30.762,-33.691,-32.715,0.000
1714026309.966,-36.621,-25.879,-31.250,-25.391,0.000
1714026309.970,-28.809,-24.414,-23.438,-27.344,0.000
1714026309.974,-28.320,-30.762,-27.344,-33.691,0.000
1714026309.978,-30.762,-34.668,-30.762,-30.273,0.000
1714026309.982,-26.367,-25.391,-28.320,-23.438,0.000
1714026309.984,-21.973,-27.832,-32.227,-23.438,0.000
1714026309.988,-24.414,-31.250,-32.715,-27.832,0.000
1714026309.992,-29.297,-26.855,-32.227,-27.832,0.000
1714026309.995,-20.996,-22.949,-40.039,-20.020,0.000
1714026309.999,-3.906,-17.090,-36.133,-4.395,0.000
1714026310.003,-8.301,-21.973,-20.996,-1.953,0.000
1714026310.007,-28.320,-29.785,-24.414,-19.531,0.000
1714026310.011,-39.062,-31.250,-36.621,-32.227,0.000
1714026310.015,-33.203,-28.809,-34.668,-23.926,0.000
1714026310.019,-24.414,-25.879,-20.996,-21.973,0.000
1714026310.023,-27.832,-30.273,-17.090,-28.809,0.000
1714026310.027,-31.738,-35.645,-22.461,-35.156,0.000
1714026310.029,-29.785,-37.598,-29.297,-32.715,0.000
1714026310.033,-31.250,-35.156,-35.645,-27.344,0.000
1714026310.037,-32.227,-26.855,-40.527,-32.715,0.000
1714026310.040,-30.762,-22.949,-31.738,-34.668,0.000
1714026310.044,-29.297,-20.508,-24.902,-31.250,0.000
1714026310.048,-28.320,-22.461,-22.949,-23.926,0.000
1714026310.052,-27.344,-20.996,-20.020,-17.090,0.000
1714026310.056,-32.715,-29.785,-21.973,-20.508,0.000
1714026310.060,-37.598,-42.969,-32.227,-24.902,0.000
1714026310.064,-34.668,-38.086,-34.180,-23.438,0.000
1714026310.068,-32.227,-23.926,-34.668,-22.461,0.000
1714026310.072,-30.273,-15.137,-40.527,-22.949,0.000
1714026310.081,-26.367,-13.672,-28.809,-12.695,0.000
1714026310.085,-24.414,-18.555,-21.973,-6.836,0.000
1714026310.088,-29.297,-36.621,-27.344,-18.066,0.000
1714026310.092,-28.320,-37.598,-24.414,-23.926,0.000
1714026310.096,-23.926,-26.855,-29.297,-18.555,0.000
1714026310.100,-30.762,-34.668,-36.621,-14.648,0.000
1714026310.104,-30.273,-41.016,-27.344,-19.531,0.000
1714026310.108,-25.391,-32.227,-25.391,-25.879,0.000
1714026310.112,-29.785,-19.043,-34.668,-24.414,0.000
1714026310.116,-27.344,-18.555,-34.668,-17.578,0.000
1714026310.120,-25.879,-25.391,-29.297,-21.484,0.000
1714026310.124,-28.809,-27.832,-25.879,-26.367,0.000
1714026310.129,-29.297,-23.926,-22.949,-27.344,0.000
1714026310.133,-30.273,-24.414,-20.508,-22.461,0.000
1714026310.137,-32.715,-27.832,-21.973,-28.320,0.000
1714026310.141,-30.762,-28.809,-26.367,-33.203,0.000
1714026310.145,-21.973,-31.250,-28.320,-25.391,0.000
1714026310.149,-25.391,-32.227,-31.738,-20.508,0.000
1714026310.153,-34.668,-28.320,-22.949,-20.020,0.000
1714026310.157,-35.645,-20.020,-12.207,-21.973,0.000
1714026310.161,-32.227,-18.555,-18.066,-19.043,0.000
1714026310.165,-32.227,-22.949,-20.020,-15.137,0.000
1714026310.169,-34.668,-24.902,-21.484,-19.043,0.000
1714026310.172,-18.555,-25.391,-25.879,-9.277,0.000
1714026310.176,0.488,-29.785,-25.391,8.301,0.000
1714026310.180,-15.137,-29.297,-22.461,-8.301,0.000
1714026310.184,-40.527,-23.438,-21.973,-35.156,0.000
1714026310.188,-30.273,-23.926,-24.902,-27.832,0.000
1714026310.192,-13.672,-25.391,-23.438,-10.254,0.000
1714026310.196,-23.438,-25.879,-25.879,-14.648,0.000
1714026310.200,-22.461,-23.926,-26.855,-11.719,0.000
1714026310.204,-19.531,-23.438,-17.090,-2.930,0.000
1714026310.208,-22.949,-21.973,-11.230,0.488,0.000
1714026310.212,-1.465,-23.926,-10.742,7.812,0.000
1714026310.216,-0.488,-32.227,-15.137,7.324,0.000
1714026310.219,-3.418,-31.250,-10.742,9.766,0.000
1714026310.223,20.020,-29.785,-7.812,29.297,0.000
1714026310.226,25.391,-30.273,-14.160,30.273,0.000
1714026310.230,22.461,-31.738,-19.043,22.949,0.000
1714026310.234,27.344,-37.598,-23.438,29.785,0.000
1714026310.238,28.320,-38.574,-21.484,32.227,0.000
1714026310.242,30.762,-40.527,-18.555,34.180,0.000
1714026310.246,30.762,-43.457,-14.648,39.062,0.000
1714026310.250,38.086,-41.504,-14.648,48.828,0.000
1714026310.254,44.922,-42.969,-11.230,57.617,0.000
1714026310.258,43.945,-35.156,-5.859,51.758,0.000
1714026310.262,36.621,-32.715,-20.020,40.039,0.000
1714026310.265,41.016,-37.598,-23.926,44.434,0.000
1714026310.268,42.480,-35.645,-20.020,45.410,0.000
1714026310.272,27.832,-39.551,-25.391,29.297,0.000
1714026310.276,26.855,-43.457,-33.691,25.879,0.000
1714026310.280,30.762,-42.969,-32.715,31.738,0.000
1714026310.284,28.320,-44.922,-28.320,34.180,0.000
1714026310.288,30.273,-42.969,-24.902,37.109,0.000
1714026310.292,30.762,-35.156,-18.555,37.598,0.000
1714026310.296,28.320,-28.809,-16.113,36.133,0.000
1714026310.300,19.531,-26.855,-12.207,24.902,0.000
1714026310.303,17.578,-29.297,-4.883,19.043,0.000
1714026310.307,15.625,-31.738,-8.301,16.602,0.000
1714026310.311,8.789,-31.250,-15.137,7.324,0.000
1714026310.314,4.395,-32.715,-14.160,3.418,0.000
1714026310.318,5.859,-34.668,-15.625,3.906,0.000
1714026310.322,2.930,-34.668,-24.902,3.906,0.000
1714026310.326,-3.418,-36.621,-22.949,0.488,0.000
1714026310.330,-1.465,-32.715,-21.484,1.953,0.000
1714026310.334,-3.906,-28.320,-20.020,-0.977,0.000
1714026310.337,-5.859,-36.621,-18.555,-4.883,0.000
1714026310.341,-11.230,-41.016,-22.949,-5.859,0.000
1714026310.345,-18.066,-40.039,-23.438,-20.996,0.000
1714026310.349,-10.742,-39.062,-19.531,-15.137,0.000
1714026310.353,-11.230,-38.086,-14.648,-5.859,0.000
1714026310.357,-15.137,-38.086,-23.438,-11.719,0.000
1714026310.359,-13.184,-36.621,-29.297,-11.230,0.000
1714026310.363,-11.719,-31.738,-22.461,-9.766,0.000
1714026310.367,-11.230,-29.297,-19.043,-12.207,0.000
1714026310.371,-13.184,-29.297,-20.996,-16.113,0.000
1714026310.375,-21.484,-36.621,-27.832,-20.508,0.000
1714026310.379,-22.949,-37.598,-27.832,-16.113,0.000
1714026310.383,-21.484,-32.715,-20.996,-4.395,0.000
1714026310.387,-19.531,-28.320,-18.066,-6.348,0.000
1714026310.390,-18.066,-27.832,-18.555,-24.414,0.000
1714026310.394,-20.508,-33.691,-18.555,-30.762,0.000
1714026310.398,-22.461,-39.062,-18.066,-21.973,0.000
1714026310.402,-20.996,-34.180,-16.113,-20.996,0.000
1714026310.404,-18.555,-31.738,-18.555,-23.438,0.000
1714026310.408,-21.973,-30.273,-20.508,-31.738,0.000
1714026310.412,-26.855,-28.809,-25.391,-43.457,0.000
1714026310.416,-25.879,-29.785,-25.391,-36.621,0.000
1714026310.420,-25.879,-26.855,-21.973,-33.203,0.000
1714026310.424,-26.367,-31.250,-23.926,-34.180,0.000
1714026310.427,-28.809,-38.086,-21.973,-28.320,0.000
1714026310.431,-27.832,-35.645,-27.832,-27.344,0.000
1714026310.435,-25.391,-35.645,-39.062,-24.414,0.000
1714026310.439,-35.645,-38.086,-35.645,-24.414,0.000
1714026310.443,-36.621,-36.621,-27.344,-24.414,0.000
1714026310.447,-35.645,-36.133,-28.320,-27.344,0.000
1714026310.456,-34.668,-34.180,-31.738,-31.250,0.000
1714026310.460,-33.203,-41.016,-31.738,-27.344,0.000
1714026310.464,-35.645,-38.574,-24.414,-20.508,0.000
1714026310.468,-34.180,-31.738,-19.043,-18.066,0.000
1714026310.472,-30.273,-32.715,-28.320,-17.578,0.000
1714026310.475,-30.273,-26.855,-29.785,-19.043,0.000
1714026310.479,-34.668,-20.996,-30.273,-24.414,0.000
1714026310.483,-31.250,-24.902,-32.715,-23.926,0.000
1714026310.487,-31.250,-27.344,-34.180,-23.926,0.000
1714026310.491,-35.645,-22.949,-37.598,-23.438,0.000
1714026310.495,-32.715,-19.531,-31.738,-26.367,0.000
1714026310.499,-34.180,-27.344,-33.203,-25.391,0.000
1714026310.505,-32.227,-39.062,-44.922,-18.066,0.000
1714026310.508,-32.715,-39.551,-41.016,-31.250,0.000
1714026310.512,-36.621,-36.133,-42.480,-39.062,0.000
1714026310.516,-34.668,-34.668,-37.598,-27.832,0.000
1714026310.520,-31.250,-33.203,-28.809,-19.531,0.000
1714026310.524,-29.297,-25.391,-32.715,-23.438,0.000
1714026310.528,-28.320,-20.508,-35.156,-35.156,0.000
1714026310.532,-26.855,-28.320,-39.062,-39.551,0.000
1714026310.536,-25.879,-27.344,-41.992,-27.832,0.000
1714026310.540,-25.879,-23.926,-38.086,-20.020,0.000
1714026310.544,-20.020,-29.785,-30.273,-19.531,0.000
1714026310.548,-20.996,-31.250,-29.297,-20.020,0.000
1714026310.552,-28.809,-32.715,-34.180,-25.391,0.000
1714026310.555,-27.344,-32.715,-37.598,-27.832,0.000
1714026310.559,-26.367,-33.691,-36.621,-31.738,0.000
1714026310.563,-27.832,-36.621,-27.344,-32.227,0.000
1714026310.567,-14.648,-36.621,-26.367,-17.090,0.000
1714026310.571,-10.254,-35.156,-28.809,-11.230,0.000
1714026310.575,-19.531,-27.344,-27.344,-27.832,0.000
1714026310.579,-22.949,-25.391,-28.809,-36.133,0.000
1714026310.583,-26.855,-28.809,-36.621,-26.855,0.000
1714026310.587,-29.297,-28.809,-35.645,-25.391,0.000
1714026310.591,-28.809,-28.809,-33.691,-33.203,0.000
1714026310.595,-26.855,-25.879,-36.133,-30.762,0.000
1714026310.598,-26.855,-27.344,-34.180,-27.344,0.000
1714026310.601,-31.738,-34.668,-37.598,-28.809,0.000
1714026310.605,-23.438,-35.156,-38.086,-31.738,0.000
1714026310.609,-12.695,-24.902,-39.551,-29.785,0.000
1714026310.613,-14.160,-20.020,-43.945,-27.832,0.000
1714026310.617,-14.648,-20.996,-37.109,-20.996,0.000
1714026310.621,-13.672,-21.973,-28.320,-16.113,0.000
1714026310.625,-15.137,-24.902,-31.738,-19.043,0.000
1714026310.629,-19.043,-30.762,-34.668,-23.926,0.000
1714026310.633,-21.484,-28.809,-36.621,-34.668,0.000
1714026310.637,-22.949,-19.531,-38.086,-31.738,0.000
1714026310.640,-23.438,-21.973,-39.062,-30.762,0.000
1714026310.643,-21.484,-35.156,-35.156,-27.832,0.000
1714026310.647,-17.578,-27.344,-34.180,-24.902,0.000
1714026310.651,-18.555,-22.461,-41.992,-30.273,0.000
1714026310.655,-19.043,-34.180,-41.992,-25.879,0.000
1714026310.659,-19.531,-33.691,-41.504,-22.949,0.000
1714026310.663,-15.625,-34.668,-46.387,-28.809,0.000
1714026310.666,-17.578,-39.062,-47.852,-29.785,0.000
1714026310.670,-20.996,-41.016,-43.945,-22.949,0.000
1714026310.674,-22.949,-40.039,-47.363,-34.180,0.000
1714026310.678,-23.926,-31.250,-53.223,-47.852,0.000
1714026310.682,-18.555,-25.391,-40.527,-45.410,0.000
1714026310.686,-14.648,-26.367,-32.715,-44.434,0.000
1714026310.689,-7.324,-29.785,-36.133,-45.410,0.000
1714026310.693,-3.906,-32.227,-43.945,-42.969,0.000
1714026310.696,-8.301,-31.250,-41.504,-37.109,0.000
1714026310.700,-6.836,-30.273,-38.574,-23.926,0.000
1714026310.704,-9.277,-30.762,-42.480,-18.555,0.000
1714026310.708,-18.066,-40.039,-39.062,-31.250,0.000
1714026310.712,-18.066,-42.969,-40.039,-28.320,0.000
1714026310.716,-19.531,-34.180,-42.969,-13.184,0.000
1714026310.720,-25.391,-35.645,-38.574,-21.484,0.000
1714026310.724,-27.344,-41.016,-35.645,-30.762,0.000
1714026310.728,-29.297,-43.457,-39.551,-29.785,0.000
1714026310.732,-31.738,-38.574,-37.109,-32.227,0.000
1714026310.734,-33.691,-39.062,-31.738,-29.785,0.000
1714026310.738,-33.203,-44.922,-32.715,-27.344,0.000
1714026310.742,-37.109,-43.945,-32.715,-35.156,0.000
1714026310.745,-36.133,-36.621,-38.086,-35.645,0.000
1714026310.749,-34.180,-36.133,-32.715,-36.133,0.000
1714026310.753,-34.180,-37.109,-30.273,-35.645,0.000
1714026310.757,-34.180,-36.133,-33.203,-28.320,0.000
1714026310.761,-36.133,-33.203,-27.344,-28.320,0.000
1714026310.765,-34.180,-32.227,-26.855,-23.438,0.000
1714026310.769,-24.414,-29.785,-26.855,-12.207,0.000
1714026310.773,-18.066,-24.902,-24.414,-19.531,0.000
1714026310.777,-21.484,-25.391,-31.738,-22.461,0.000
1714026310.779,-29.785,-32.227,-41.016,-19.043,0.000
1714026310.783,-29.297,-34.180,-36.133,-20.508,0.000
1714026310.786,-21.484,-31.250,-27.344,-15.625,0.000
1714026310.790,-25.391,-37.109,-24.902,-18.555,0.000
1714026310.794,-26.855,-35.645,-31.250,-22.949,0.000
1714026310.798,-27.344,-32.227,-39.551,-17.578,0.000
1714026310.802,-29.297,-33.203,-36.133,-17.090,0.000
1714026310.806,-32.227,-33.691,-34.668,-29.297,0.000
1714026310.810,-31.738,-29.297,-38.574,-27.344,0.000
1714026310.814,-24.414,-27.344,-28.320,-12.207,0.000
1714026310.818,-24.902,-28.320,-18.066,-13.672,0.000
1714026310.822,-25.879,-27.832,-24.414,-27.832,0.000
1714026310.831,-21.973,-27.344,-28.809,-28.320,0.000
1714026310.834,-20.996,-26.855,-22.461,-21.484,0.000
1714026310.838,-18.555,-27.832,-23.926,-19.043,0.000
1714026310.842,-15.137,-35.156,-27.832,-17.578,0.000
1714026310.846,-19.043,-38.574,-31.738,-21.484,0.000
1714026310.850,-26.855,-24.902,-41.504,-26.367,0.000
1714026310.854,-27.344,-25.879,-41.992,-24.902,0.000
1714026310.858,-20.996,-30.273,-40.527,-17.090,0.000
1714026310.862,-24.414,-32.227,-41.992,-16.113,0.000
1714026310.866,-25.391,-26.367,-32.227,-13.184,0.000
1714026310.870,-26.367,-26.367,-26.855,-20.508,0.000
1714026310.874,-26.367,-34.180,-26.855,-32.715,0.000
1714026310.880,-25.879,-27.344,-27.344,-35.645,0.000
1714026310.883,-23.926,-27.832,-26.855,-32.715,0.000
1714026310.887,-19.043,-31.250,-20.996,-23.438,0.000
1714026310.891,-20.508,-31.738,-21.484,-25.879,0.000
1714026310.895,-26.367,-28.809,-28.320,-30.273,0.000
1714026310.899,-29.297,-30.762,-36.133,-25.391,0.000
1714026310.903,-23.926,-31.738,-30.762,-18.066,0.000
1714026310.907,-22.949,-25.391,-23.438,-18.066,0.000
1714026310.911,-26.367,-23.438,-26.367,-20.996,0.000
1714026310.915,-27.344,-27.832,-33.203,-19.531,0.000
1714026310.919,-33.203,-29.297,-35.645,-29.297,0.000
1714026310.922,-33.203,-26.367,-30.762,-31.250,0.000
1714026310.927,-27.832,-28.809,-30.273,-23.926,0.000
1714026310.931,-29.297,-33.691,-28.320,-34.668,0.000
1714026310.935,-27.344,-27.832,-33.203,-35.156,0.000
1714026310.939,-25.391,-23.438,-38.574,-24.902,0.000
1714026310.942,-30.762,-23.438,-30.762,-31.738,0.000
1714026310.946,-31.738,-19.043,-32.715,-31.738,0.000
1714026310.950,-18.555,-20.996,-33.691,-19.531,0.000
1714026310.954,-14.160,-28.809,-31.738,-16.113,0.000
1714026310.958,-30.273,-31.250,-36.621,-27.832,0.000
1714026310.962,-43.945,-28.809,-32.227,-48.340,0.000
1714026310.966,-45.898,-29.297,-28.809,-49.316,0.000
1714026310.970,-55.664,-29.785,-35.645,-49.805,0.000
1714026310.973,-63.477,-28.809,-34.180,-58.594,0.000
1714026310.977,-53.711,-41.504,-31.738,-55.176,0.000
1714026310.980,-39.551,-44.434,-30.762,-42.969,0.000
1714026310.984,-34.180,-28.809,-20.996,-34.180,0.000
1714026310.988,-36.133,-25.391,-16.602,-32.227,0.000
1714026310.992,-36.133,-27.344,-27.832,-31.738,0.000
1714026310.996,-36.133,-24.902,-31.250,-36.621,0.000
1714026311.000,-33.691,-23.438,-25.391,-36.133,0.000
1714026311.004,-38.574,-26.367,-16.113,-29.785,0.000
1714026311.008,-40.527,-27.344,-15.625,-37.598,0.000
1714026311.012,-32.227,-28.809,-24.902,-35.645,0.000
1714026311.016,-32.227,-33.691,-24.902,-34.668,0.000
1714026311.018,-34.668,-36.621,-22.949,-36.621,0.000
1714026311.022,-32.227,-30.273,-20.020,-34.180,0.000
1714026311.026,-35.645,-30.273,-23.438,-38.086,0.000
1714026311.030,-35.645,-29.785,-27.344,-37.598,0.000
1714026311.034,-32.227,-26.367,-24.902,-29.297,0.000
1714026311.038,-38.086,-28.809,-25.391,-22.949,0.000
1714026311.042,-38.086,-23.926,-28.809,-27.832,0.000
1714026311.046,-32.715,-16.602,-28.320,-22.461,0.000
1714026311.050,-35.645,-17.578,-26.367,-25.879,0.000
1714026311.053,-35.645,-25.391,-26.855,-30.762,0.000
1714026311.057,-32.715,-28.320,-30.762,-30.762,0.000
1714026311.061,-33.691,-31.250,-32.227,-37.598,0.000
1714026311.064,-32.227,-30.273,-29.297,-40.039,0.000
1714026311.068,-28.809,-31.250,-31.250,-41.504,0.000
1714026311.071,-27.344,-32.715,-35.645,-40.527,0.000
1714026311.075,-34.180,-28.809,-34.668,-43.457,0.000
1714026311.079,-40.527,-24.902,-36.621,-52.734,0.000
1714026311.083,-41.504,-32.715,-36.621,-51.270,0.000
1714026311.087,-43.457,-41.016,-32.227,-43.457,0.000
1714026311.091,-44.434,-35.156,-33.691,-44.434,0.000
1714026311.095,-41.016,-27.344,-29.785,-44.434,0.000
1714026311.099,-41.016,-29.785,-31.250,-41.504,0.000
1714026311.103,-37.109,-35.645,-37.109,-41.016,0.000
1714026311.107,-28.809,-31.250,-33.691,-41.016,0.000
1714026311.109,-29.785,-29.297,-32.715,-49.316,0.000
1714026311.113,-32.715,-32.715,-38.086,-49.316,0.000
1714026311.117,-23.438,-31.250,-27.344,-35.156,0.000
1714026311.121,-22.949,-32.715,-17.090,-33.691,0.000
1714026311.124,-25.879,-29.785,-25.391,-41.016,0.000
1714026311.128,-21.973,-29.297,-30.273,-40.527,0.000
1714026311.132,-21.973,-24.902,-21.484,-31.250,0.000
1714026311.136,-28.809,-20.508,-16.113,-31.250,0.000
1714026311.140,-33.691,-28.809,-20.996,-36.621,0.000
1714026311.144,-26.367,-30.762,-25.879,-28.320,0.000
1714026311.148,-25.391,-22.949,-25.879,-21.484,0.000
1714026311.152,-32.227,-22.949,-27.344,-31.738,0.000
1714026311.154,-29.785,-23.438,-23.926,-38.086,0.000
1714026311.158,-26.367,-25.391,-20.996,-37.109,0.000
1714026311.162,-30.273,-30.762,-28.320,-36.621,0.000
1714026311.166,-33.203,-27.344,-31.250,-33.203,0.000
1714026311.170,-31.738,-22.461,-27.344,-32.227,0.000
1714026311.173,-29.785,-26.855,-20.508,-32.715,0.000
1714026311.177,-31.250,-30.762,-19.531,-33.203,0.000
1714026311.181,-30.273,-32.715,-19.531,-26.367,0.000
1714026311.185,-30.762,-36.133,-20.020,-28.809,0.000
1714026311.189,-32.715,-36.133,-25.879,-32.715,0.000
1714026311.193,-27.832,-31.250,-20.996,-20.508,0.000
1714026311.197,-31.738,-27.344,-20.508,-20.996,0.000
1714026311.206,-37.598,-30.273,-30.762,-27.832,0.000
1714026311.210,-33.203,-37.598,-27.344,-24.902,0.000
1714026311.214,-28.809,-34.668,-21.973,-22.949,0.000
1714026311.218,-32.715,-30.273,-27.832,-22.461,0.000
1714026311.221,-36.133,-32.227,-23.438,-17.578,0.000
1714026311.225,-24.902,-34.180,-16.113,-7.812,0.000
1714026311.229,-16.602,-33.203,-24.414,-11.719,0.000
1714026311.233,-31.250,-26.855,-32.227,-39.062,0.000
1714026311.237,-38.086,-20.996,-35.156,-49.316,0.000
1714026311.241,-32.715,-24.902,-39.062,-38.574,0.000
1714026311.245,-24.902,-21.973,-34.668,-30.273,0.000
1714026311.249,-19.531,-17.090,-35.156,-26.855,0.000
1714026311.254,-19.043,-19.531,-39.062,-22.949,0.000
1714026311.258,-20.020,-21.973,-35.645,-22.949,0.000
1714026311.262,-21.484,-21.484,-37.598,-21.973,0.000
1714026311.266,-12.207,-23.438,-39.551,-17.090,0.000
1714026311.270,-5.371,-30.273,-39.551,-6.836,0.000
1714026311.274,-10.742,-35.156,-43.457,-10.742,0.000
1714026311.278,-18.555,-32.227,-48.828,-16.602,0.000
1714026311.282,-20.508,-31.250,-43.457,-16.602,0.000
1714026311.286,-19.043,-41.992,-41.992,-19.043,0.000
1714026311.290,-22.461,-40.039,-44.434,-18.555,0.000
1714026311.294,-22.461,-26.855,-44.434,-25.879,0.000
1714026311.297,-12.695,-22.949,-44.434,-29.297,0.000
1714026311.301,-14.648,-27.344,-41.992,-30.273,0.000
1714026311.305,-20.996,-31.738,-43.457,-26.367,0.000
1714026311.309,-18.066,-24.414,-44.922,-19.531,0.000
1714026311.313,-19.531,-22.461,-34.180,-22.949,0.000
1714026311.317,-22.949,-19.043,-34.180,-20.020,0.000
1714026311.321,-22.949,-16.113,-37.109,-10.742,0.000
1714026311.325,-20.996,-20.996,-39.062,-12.695,0.000
1714026311.329,-19.043,-27.832,-42.969,-22.461,0.000
1714026311.333,-19.043,-29.785,-48.340,-20.996,0.000
1714026311.337,-17.090,-24.902,-48.828,-19.043,0.000
1714026311.340,-19.043,-21.484,-47.852,-19.043,0.000
1714026311.344,-17.578,-21.973,-46.875,-19.531,0.000
1714026311.347,-20.508,-28.320,-40.527,-26.855,0.000
1714026311.351,-20.996,-30.273,-38.086,-26.855,0.000
1714026311.355,-14.648,-30.762,-45.410,-26.367,0.000
1714026311.359,-17.090,-31.738,-49.316,-25.391,0.000
1714026311.363,-21.484,-27.344,-37.109,-22.461,0.000
1714026311.367,-21.484,-23.926,-39.551,-22.461,0.000
1714026311.371,-22.949,-23.438,-49.316,-25.391,0.000
1714026311.375,-29.785,-21.973,-43.457,-28.809,0.000
1714026311.379,-30.273,-25.391,-37.598,-25.391,0.000
1714026311.383,-29.785,-25.879,-42.480,-27.832,0.000
1714026311.387,-32.715,-31.250,-53.711,-33.691,0.000
1714026311.390,-29.297,-31.738,-59.082,-28.320,0.000
1714026311.393,-30.762,-25.879,-53.711,-24.902,0.000
1714026311.397,-29.785,-27.832,-54.688,-28.809,0.000
1714026311.401,-25.879,-30.273,-54.199,-26.855,0.000
1714026311.405,-27.344,-27.344,-46.387,-24.902,0.000
1714026311.409,-26.367,-24.414,-46.875,-26.367,0.000
1714026311.413,-26.367,-27.344,-43.457,-30.762,0.000
1714026311.417,-29.785,-28.809,-39.551,-33.203,0.000
1714026311.421,-23.926,-25.879,-41.992,-20.996,0.000
1714026311.425,-21.484,-25.879,-41.016,-24.414,0.000
1714026311.428,-27.344,-27.832,-43.457,-39.551,0.000
1714026311.432,-26.367,-29.297,-44.922,-37.109,0.000
1714026311.436,-25.879,-34.180,-42.480,-41.992,0.000
1714026311.439,-32.715,-30.273,-43.945,-46.387,0.000
1714026311.443,-34.180,-28.320,-48.340,-43.457,0.000
1714026311.446,-31.738,-37.109,-48.828,-35.645,0.000
1714026311.450,-28.320,-34.180,-43.457,-31.250,0.000
1714026311.454,-24.902,-23.438,-37.598,-33.203,0.000
1714026311.458,-23.926,-18.066,-37.598,-34.180,0.000
1714026311.462,-28.320,-21.973,-46.875,-32.715,0.000
1714026311.466,-28.809,-29.297,-42.480,-23.926,0.000
1714026311.470,-24.902,-29.785,-35.645,-21.973,0.000
1714026311.474,-26.367,-27.832,-41.016,-28.809,0.000
1714026311.478,-28.320,-23.926,-32.715,-29.297,0.000
1714026311.482,-27.832,-25.391,-32.715,-28.809,0.000
1714026311.484,-24.902,-26.855,-32.715,-21.973,0.000
1714026311.488,-15.137,-19.043,-31.250,-13.184,0.000
1714026311.492,-5.859,-12.207,-31.250,-12.207,0.000
1714026311.496,-11.230,-13.672,-21.973,-20.508,0.000
1714026311.499,-13.672,-19.043,-18.555,-20.020,0.000
1714026311.503,-11.719,-23.438,-18.066,-23.926,0.000
1714026311.507,-16.602,-30.273,-16.113,-32.227,0.000
1714026311.511,-16.113,-30.762,-19.531,-27.832,0.000
1714026311.515,-8.301,-27.344,-22.461,-28.320,0.000
1714026311.519,-14.648,-30.762,-21.973,-32.715,0.000
1714026311.523,-23.926,-34.180,-30.273,-29.297,0.000
1714026311.527,-22.949,-31.250,-32.227,-27.832,0.000
1714026311.529,-21.973,-31.738,-23.926,-30.762,0.000
1714026311.533,-28.809,-31.738,-28.809,-29.785,0.000
1714026311.537,-34.180,-30.273,-30.762,-31.738,0.000
1714026311.541,-35.645,-30.273,-35.645,-35.156,0.000
1714026311.545,-30.273,-31.738,-33.691,-28.320,0.000
1714026311.549,-25.391,-28.809,-26.855,-20.996,0.000
1714026311.553,-29.785,-23.926,-26.855,-20.020,0.000
1714026311.557,-37.598,-22.949,-23.926,-32.715,0.000
1714026311.561,-41.504,-22.949,-28.809,-36.621,0.000
1714026311.564,-35.156,-21.484,-34.180,-31.250,0.000
1714026311.568,-30.273,-20.020,-25.391,-28.320,0.000
1714026311.572,-29.297,-21.973,-24.414,-31.738,0.000
1714026311.582,-27.832,-25.879,-27.344,-34.668,0.000
1714026311.586,-26.855,-27.344,-29.297,-29.297,0.000
1714026311.590,-26.855,-26.855,-29.785,-28.320,0.000
1714026311.593,-30.762,-29.785,-23.438,-30.762,0.000
1714026311.597,-29.297,-34.668,-25.879,-29.785,0.000
1714026311.601,-22.461,-30.273,-28.809,-20.996,0.000
1714026311.605,-23.438,-25.879,-21.484,-19.531,0.000
1714026311.609,-26.855,-29.785,-20.020,-27.344,0.000
1714026311.613,-24.902,-27.832,-23.438,-27.832,0.000
1714026311.617,-24.902,-23.926,-31.738,-16.602,0.000
1714026311.621,-20.996,-20.996,-25.391,-18.555,0.000
1714026311.625,-14.648,-15.625,-18.555,-24.902,0.000
1714026311.630,-15.625,-13.184,-26.855,-26.367,0.000
1714026311.634,-18.555,-15.137,-27.344,-24.902,0.000
1714026311.638,-17.090,-20.508,-24.902,-17.578,0.000
1714026311.642,-16.113,-20.508,-20.996,-14.648,0.000
1714026311.646,-18.066,-18.555,-22.949,-18.066,0.000
1714026311.650,-17.090,-19.043,-30.273,-17.578,0.000
1714026311.654,-16.602,-15.137,-22.461,-14.160,0.000
1714026311.657,-15.137,-14.160,-20.996,-14.648,0.000
1714026311.661,-8.301,-17.090,-16.602,-7.324,0.000
1714026311.665,-12.207,-13.672,-22.461,-5.371,0.000
1714026311.669,-17.578,-15.137,-28.320,-8.789,0.000
1714026311.673,-16.113,-20.996,-23.926,-7.812,0.000
1714026311.677,-21.484,-24.902,-19.043,-15.625,0.000
1714026311.681,-27.832,-26.367,-20.996,-20.996,0.000
1714026311.685,-29.785,-31.250,-26.367,-20.508,0.000
1714026311.689,-31.738,-30.273,-24.902,-21.973,0.000
1714026311.692,-28.809,-25.391,-24.902,-20.508,0.000
1714026311.696,-29.297,-23.438,-24.902,-24.902,0.000
1714026311.700,-28.320,-22.461,-23.926,-31.250,0.000
1714026311.704,-22.949,-22.461,-24.414,-27.832,0.000
1714026311.708,-26.855,-28.320,-29.297,-23.438,0.000
1714026311.712,-30.273,-31.250,-29.297,-29.297,0.000
1714026311.716,-26.855,-23.926,-26.855,-31.738,0.000
1714026311.720,-26.367,-21.973,-27.832,-24.902,0.000
1714026311.730,-26.855,-25.391,-29.297,-23.438,0.000
1714026311.734,-22.461,-26.367,-18.555,-24.414,0.000
1714026311.738,-18.555,-26.367,-16.113,-23.926,0.000
1714026311.742,-17.578,-26.367,-16.602,-23.926,0.000
1714026311.745,-15.137,-24.414,-11.230,-15.137,0.000
1714026311.749,-14.160,-26.855,-20.020,-17.090,0.000
1714026311.753,-18.066,-30.762,-25.879,-26.367,0.000
1714026311.757,-19.531,-28.809,-18.066,-17.090,0.000
1714026311.761,-19.531,-22.949,-11.719,-11.719,0.000
1714026311.765,-16.113,-18.066,-9.766,-13.672,0.000
1714026311.769,-15.625,-17.578,-19.043,-15.625,0.000
1714026311.773,-14.160,-17.090,-22.461,-10.742,0.000
1714026311.772,-12.207,-13.672,-10.254,-6.348,0.000
1714026311.776,-13.672,-15.137,-12.207,-17.578,0.000
1714026311.780,-14.160,-15.625,-12.695,-27.344,0.000
1714026311.784,-14.648,-15.625,-9.277,-27.832,0.000
1714026311.788,-12.695,-16.113,-14.160,-27.344,0.000
1714026311.792,-11.719,-11.719,-16.113,-27.344,0.000
1714026311.796,-11.230,-13.184,-10.254,-24.414,0.000
1714026311.800,-13.184,-17.578,-9.766,-30.273,0.000
1714026311.803,-14.648,-13.672,-13.672,-32.227,0.000
1714026311.807,-14.648,-15.137,-8.789,-32.227,0.000
1714026311.811,-17.578,-16.113,-15.625,-32.227,0.000
1714026311.815,-25.879,-18.066,-37.109,-26.367,0.000
1714026311.816,-30.762,-23.438,-31.250,-36.621,0.000
1714026311.820,-33.203,-20.996,-21.973,-40.039,0.000
1714026311.824,-34.668,-19.531,-26.855,-36.133,0.000
1714026311.827,-37.109,-25.879,-30.762,-28.809,0.000
1714026311.831,-38.574,-30.273,-41.504,-25.879,0.000
1714026311.835,-35.645,-32.227,-38.574,-30.273,0.000
1714026311.839,-31.738,-30.762,-30.273,-28.320,0.000
1714026311.843,-35.156,-25.879,-24.902,-25.391,0.000
1714026311.847,-39.062,-26.855,-20.996,-33.691,0.000
1714026311.851,-33.691,-26.367,-23.926,-29.785,0.000
1714026311.855,-28.320,-28.320,-15.137,-22.461,0.000
1714026311.859,-27.344,-32.715,-11.230,-30.273,0.000
1714026311.867,-30.273,-33.691,-20.508,-37.109,0.000
1714026311.871,-35.156,-34.180,-22.461,-28.809,0.000
1714026311.875,-36.133,-35.645,-21.973,-27.344,0.000
1714026311.879,-30.273,-29.785,-20.508,-31.250,0.000
1714026311.883,-30.762,-20.996,-20.020,-33.203,0.000
1714026311.887,-33.203,-20.996,-22.949,-33.691,0.000
1714026311.891,-26.855,-20.020,-23.926,-20.020,0.000
1714026311.894,-24.414,-16.113,-19.043,-16.602,0.000
1714026311.898,-27.344,-17.578,-17.090,-26.855,0.000
1714026311.902,-21.973,-19.531,-17.578,-23.438,0.000
1714026311.906,-21.484,-24.902,-17.090,-20.020,0.000
1714026311.910,-21.973,-26.855,-19.043,-20.020,0.000
1714026311.908,-18.066,-20.996,-20.996,-22.461,0.000
1714026311.912,-18.555,-20.020,-18.555,-22.949,0.000
1714026311.916,-19.043,-22.461,-14.160,-19.043,0.000
1714026311.920,-20.508,-22.949,-18.555,-15.625,0.000
1714026311.924,-25.879,-22.461,-28.320,-20.508,0.000
1714026311.928,-27.344,-24.414,-22.461,-24.414,0.000
1714026311.932,-26.367,-29.297,-13.184,-20.996,0.000
1714026311.936,-32.227,-26.367,-13.184,-20.020,0.000
1714026311.940,-32.227,-19.531,-12.695,-21.973,0.000
1714026311.944,-30.762,-29.297,-14.160,-24.414,0.000
1714026311.948,-35.156,-35.645,-16.113,-23.926,0.000
1714026311.951,-33.203,-27.344,-21.484,-29.297,0.000
1714026311.958,-33.203,-27.832,-22.461,-35.156,0.000
1714026311.962,-40.039,-30.273,-15.625,-39.062,0.000
1714026311.966,-40.039,-31.250,-14.160,-33.203,0.000
1714026311.970,-39.062,-28.320,-17.090,-26.367,0.000
1714026311.974,-38.086,-27.344,-20.020,-26.855,0.000
1714026311.978,-31.738,-26.367,-22.461,-21.484,0.000
1714026311.982,-27.832,-22.949,-18.066,-24.414,0.000
1714026311.986,-29.785,-24.902,-17.090,-25.879,0.000
1714026311.990,-26.367,-23.926,-22.461,-23.926,0.000
1714026311.993,-20.508,-24.902,-24.414,-26.367,0.000
1714026311.997,-23.438,-24.414,-20.508,-31.250,0.000
1714026312.001,-25.879,-21.484,-21.484,-34.668,0.000
1714026312.006,-27.344,-27.832,-24.902,-35.156,0.000
1714026312.010,-30.762,-34.668,-26.367,-40.527,0.000
1714026312.014,-29.785,-28.320,-24.902,-39.551,0.000
1714026312.018,-29.297,-21.484,-19.043,-37.598,0.000
1714026312.022,-31.250,-20.020,-23.926,-44.434,0.000
1714026312.026,-30.762,-20.020,-29.297,-39.062,0.000
1714026312.030,-30.273,-24.414,-25.391,-31.250,0.000
1714026312.034,-26.367,-24.902,-29.297,-32.227,0.000
1714026312.037,-20.996,-27.344,-31.250,-35.645,0.000
1714026312.041,-20.020,-29.297,-24.414,-29.785,0.000
1714026312.045,-19.531,-23.926,-20.996,-28.809,0.000
1714026312.049,-22.949,-26.855,-24.902,-35.156,0.000
1714026312.053,-27.832,-25.879,-26.855,-38.574,0.000
1714026312.057,-28.809,-23.438,-28.809,-35.156,0.000
1714026312.060,-32.715,-27.832,-27.832,-40.039,0.000
1714026312.064,-35.156,-31.738,-22.461,-47.852,0.000
1714026312.068,-32.715,-32.227,-27.344,-45.898,0.000
1714026312.072,-36.133,-31.738,-31.738,-42.480,0.000
1714026312.076,-35.645,-37.109,-28.809,-46.875,0.000
1714026312.080,-30.273,-39.551,-29.297,-48.340,0.000
1714026312.084,-33.691,-38.086,-34.180,-44.434,0.000
1714026312.088,-34.180,-35.645,-35.156,-41.504,0.000
1714026312.092,-28.809,-35.156,-33.691,-40.527,0.000
1714026312.096,-29.297,-27.832,-36.133,-39.551,0.000
1714026312.099,-29.785,-22.461,-38.574,-36.133,0.000
1714026312.103,-30.273,-27.832,-38.086,-29.785,0.000
1714026312.106,-28.320,-28.809,-37.598,-27.344,0.000
1714026312.110,-28.320,-28.320,-38.574,-33.691,0.000
1714026312.114,-30.762,-28.809,-36.133,-30.762,0.000
1714026312.118,-36.621,-30.273,-37.109,-30.762,0.000
1714026312.122,-41.992,-32.227,-40.039,-33.691,0.000
1714026312.126,-36.133,-31.738,-43.457,-24.414,0.000
1714026312.130,-34.668,-29.297,-44.922,-21.973,0.000
1714026312.134,-32.227,-24.414,-38.086,-27.344,0.000
1714026312.138,-21.484,-23.438,-36.621,-20.996,0.000
1714026312.142,-21.973,-29.785,-35.156,-22.461,0.000
1714026312.144,-29.785,-33.203,-31.250,-30.273,0.000
1714026312.148,-30.762,-29.297,-31.250,-33.691,0.000
1714026312.151,-37.598,-30.273,-32.227,-29.785,0.000
1714026312.155,-40.527,-31.250,-35.645,-33.203,0.000
1714026312.159,-36.621,-26.855,-33.203,-35.645,0.000
1714026312.163,-41.016,-31.250,-28.320,-39.551,0.000
1714026312.167,-42.969,-32.715,-33.691,-37.598,0.000
1714026312.171,-36.621,-26.855,-41.016,-29.297,0.000
1714026312.175,-31.738,-22.949,-36.621,-30.762,0.000
1714026312.179,-23.926,-20.996,-37.598,-35.156,0.000
1714026312.183,-11.719,-21.484,-42.480,-22.949,0.000
1714026312.187,-19.531,-25.879,-32.715,-20.508,0.000
1714026312.189,-33.203,-30.273,-24.902,-32.715,0.000
1714026312.193,-36.621,-31.250,-34.668,-34.668,0.000
1714026312.197,-38.574,-39.062,-40.039,-33.203,0.000
1714026312.200,-33.691,-40.039,-26.367,-27.832,0.000
1714026312.204,-38.574,-35.156,-26.367,-36.133,0.000
1714026312.208,-41.992,-30.273,-33.691,-47.363,0.000
1714026312.212,-35.645,-27.344,-33.203,-42.969,0.000
1714026312.216,-37.109,-31.738,-32.227,-32.227,0.000
1714026312.220,-37.598,-37.598,-29.297,-34.668,0.000
1714026312.224,-37.598,-41.016,-25.391,-42.969,0.000
1714026312.228,-36.133,-33.691,-23.926,-35.156,0.000
1714026312.232,-36.133,-34.668,-38.086,-31.738,0.000
1714026312.241,-40.039,-40.039,-39.551,-40.039,0.000
1714026312.245,-41.016,-36.621,-26.855,-36.133,0.000
1714026312.249,-37.109,-32.715,-22.461,-28.320,0.000
1714026312.253,-30.273,-23.438,-17.090,-23.438,0.000
1714026312.257,-25.879,-20.996,-13.672,-20.996,0.000
1714026312.260,-23.438,-28.320,-18.555,-22.461,0.000
1714026312.264,-25.879,-30.273,-25.391,-19.043,0.000
1714026312.268,-24.414,-25.391,-26.855,-18.555,0.000
1714026312.272,-23.926,-20.508,-24.902,-20.020,0.000
1714026312.276,-25.391,-19.043,-26.367,-19.043,0.000
1714026312.280,-21.973,-18.066,-24.414,-22.949,0.000
1714026312.284,-22.949,-20.020,-24.902,-24.902,0.000
1714026312.283,-23.438,-21.484,-27.344,-22.461,0.000
1714026312.287,-20.508,-24.902,-27.832,-21.973,0.000
1714026312.290,-21.973,-25.391,-28.809,-26.855,0.000
1714026312.294,-20.996,-21.973,-27.832,-21.484,0.000
1714026312.298,-21.484,-19.043,-25.391,-14.160,0.000
1714026312.302,-25.391,-24.414,-33.691,-22.461,0.000
1714026312.306,-30.762,-26.855,-35.645,-31.250,0.000
1714026312.310,-35.156,-22.461,-35.645,-32.715,0.000
1714026312.314,-36.621,-23.926,-38.574,-30.762,0.000
1714026312.318,-35.645,-33.203,-37.109,-27.344,0.000
1714026312.322,-32.227,-38.574,-34.668,-26.367,0.000
1714026312.326,-35.156,-30.762,-31.250,-35.645,0.000
1714026312.333,-35.645,-23.438,-26.855,-32.715,0.000
1714026312.337,-28.809,-22.461,-20.508,-19.531,0.000
1714026312.341,-27.344,-27.344,-25.879,-17.090,0.000
1714026312.345,-33.203,-28.320,-33.691,-18.066,0.000
1714026312.349,-29.297,-26.367,-32.227,-18.555,0.000
1714026312.353,-22.949,-31.738,-26.367,-18.555,0.000
1714026312.356,-22.949,-35.645,-25.391,-21.973,0.000
1714026312.360,-25.391,-31.250,-29.297,-26.367,0.000
1714026312.364,-32.227,-31.738,-36.621,-25.391,0.000
1714026312.368,-34.180,-34.180,-39.551,-24.902,0.000
1714026312.372,-31.250,-29.297,-38.574,-34.668,0.000
1714026312.376,-31.250,-25.879,-38.086,-35.156,0.000
1714026312.381,-36.133,-26.367,-36.133,-34.180,0.000
1714026312.385,-27.832,-23.926,-25.391,-28.809,0.000
1714026312.388,-18.066,-22.949,-28.809,-28.809,0.000
1714026312.392,-14.648,-24.902,-39.551,-31.738,0.000
1714026312.396,-6.348,-26.367,-36.133,-34.180,0.000
1714026312.400,0.000,-24.902,-31.250,-29.297,0.000
1714026312.404,-4.395,-21.484,-36.133,-22.949,0.000
1714026312.408,-15.625,-24.414,-39.551,-35.645,0.000
1714026312.412,-21.484,-28.320,-35.645,-34.668,0.000
1714026312.416,-23.926,-27.344,-34.180,-28.809,0.000
1714026312.420,-24.414,-30.273,-30.762,-28.320,0.000
1714026312.424,-29.297,-27.832,-24.414,-17.578,0.000
1714026312.428,-40.039,-27.832,-27.344,-21.973,0.000
1714026312.431,-42.969,-26.367,-29.785,-31.738,0.000
1714026312.435,-40.039,-24.902,-31.738,-33.203,0.000
1714026312.439,-40.039,-28.809,-33.203,-33.203,0.000
1714026312.443,-38.086,-25.391,-29.297,-29.785,0.000
1714026312.447,-41.504,-25.879,-27.344,-37.598,0.000
1714026312.451,-41.504,-27.832,-24.902,-40.527,0.000
1714026312.455,-37.109,-27.344,-19.043,-31.738,0.000
1714026312.459,-35.156,-31.250,-21.484,-27.344,0.000
1714026312.463,-33.691,-31.738,-17.090,-28.809,0.000
1714026312.467,-30.273,-29.785,-13.672,-30.273,0.000
1714026312.470,-26.855,-30.273,-21.973,-26.367,0.000
1714026312.473,-28.809,-29.297,-25.391,-29.785,0.000
1714026312.477,-29.297,-25.879,-20.508,-33.203,0.000
1714026312.481,-33.203,-27.832,-20.508,-35.156,0.000
1714026312.485,-32.715,-33.203,-26.855,-32.227,0.000
1714026312.489,-29.785,-30.273,-25.879,-26.367,0.000
1714026312.493,-35.156,-28.809,-24.902,-26.855,0.000
1714026312.497,-36.133,-30.762,-28.320,-31.250,0.000
1714026312.500,-30.762,-32.227,-29.785,-28.809,0.000
1714026312.504,-29.785,-31.738,-23.438,-21.484,0.000
1714026312.508,-30.273,-26.855,-20.020,-20.508,0.000
1714026312.512,-37.598,-29.297,-22.949,-24.902,0.000
1714026312.516,-41.504,-28.320,-21.484,-28.809,0.000
1714026312.519,-40.039,-27.344,-19.043,-26.855,0.000
1714026312.522,-42.969,-35.156,-21.973,-24.902,0.000
1714026312.526,-43.457,-36.133,-30.762,-33.203,0.000
1714026312.530,-41.504,-36.133,-29.785,-34.180,0.000
1714026312.534,-41.016,-37.109,-25.879,-25.391,0.000
1714026312.538,-35.156,-31.250,-28.320,-20.508,0.000
1714026312.542,-22.949,-29.785,-27.832,-15.137,0.000
1714026312.546,-24.902,-34.668,-25.391,-17.090,0.000
1714026312.550,-31.250,-27.832,-26.855,-25.879,0.000
1714026312.554,-30.273,-23.926,-31.250,-22.949,0.000
1714026312.558,-22.949,-23.926,-28.320,-17.090,0.000
1714026312.562,-20.996,-21.484,-22.461,-19.043,0.000
1714026312.564,-25.879,-18.555,-23.438,-18.555,0.000
1714026312.568,-23.926,-15.137,-19.531,-15.137,0.000
1714026312.571,-28.809,-17.578,-18.066,-26.367,0.000
1714026312.575,-34.668,-22.949,-25.879,-37.598,0.000
1714026312.579,-38.086,-29.785,-30.762,-36.133,0.000
1714026312.583,-35.156,-27.344,-27.344,-29.297,0.000
1714026312.587,-28.320,-25.391,-20.996,-24.414,0.000
1714026312.591,-25.879,-24.902,-21.973,-22.949,0.000
1714026312.595,-29.785,-21.484,-21.973,-32.715,0.000
1714026312.599,-27.832,-23.438,-19.043,-25.391,0.000
1714026312.603,-24.414,-24.902,-20.508,-21.973,0.000
1714026312.607,-30.762,-20.996,-22.461,-36.621,0.000
1714026312.609,-32.715,-21.973,-22.461,-33.203,0.000
1714026312.613,-31.738,-30.762,-26.855,-27.344,0.000
1714026312.617,-35.156,-29.785,-32.715,-31.250,0.000
1714026312.620,-32.227,-20.508,-27.832,-33.691,0.000
1714026312.624,-33.691,-22.461,-29.297,-43.457,0.000
1714026312.628,-37.598,-24.902,-37.598,-43.457,0.000
1714026312.632,-38.086,-25.391,-31.250,-34.668,0.000
1714026312.636,-39.062,-21.973,-19.043,-32.715,0.000
1714026312.640,-38.086,-21.973,-18.555,-34.180,0.000
1714026312.644,-34.180,-24.414,-22.461,-34.180,0.000
1714026312.648,-30.273,-20.996,-32.715,-30.273,0.000
1714026312.652,-27.344,-18.555,-36.133,-23.926,0.000
1714026312.654,-35.645,-25.879,-29.785,-33.691,0.000
1714026312.658,-39.551,-27.832,-29.785,-40.527,0.000
1714026312.662,-34.668,-21.973,-29.297,-32.715,0.000
1714026312.666,-32.227,-20.020,-25.391,-29.297,0.000
1714026312.669,-31.738,-20.996,-21.484,-32.715,0.000
1714026312.673,-32.227,-21.973,-23.926,-31.250,0.000
1714026312.677,-31.250,-20.996,-23.438,-26.367,0.000
1714026312.681,-32.715,-21.484,-18.066,-28.809,0.000
1714026312.685,-28.320,-16.113,-20.996,-26.855,0.000
1714026312.689,-32.227,-17.578,-35.156,-26.855,0.000
1714026312.693,-38.086,-24.902,-38.574,-29.785,0.000
1714026312.697,-30.273,-22.461,-29.785,-23.438,0.000
1714026312.706,-30.762,-16.602,-22.461,-24.414,0.000
1714026312.710,-38.086,-21.484,-24.902,-36.621,0.000
1714026312.714,-33.203,-23.926,-29.785,-36.621,0.000
1714026312.718,-30.273,-22.461,-27.344,-32.227,0.000
1714026312.722,-30.762,-22.461,-24.902,-28.809,0.000
1714026312.726,-29.297,-25.391,-29.785,-31.738,0.000
1714026312.729,-28.809,-27.832,-24.902,-32.715,0.000
1714026312.733,-24.902,-24.414,-15.137,-24.902,0.000
1714026312.737,-23.438,-24.414,-20.508,-23.926,0.000
1714026312.741,-26.855,-25.391,-24.414,-14.160,0.000
1714026312.745,-34.180,-21.484,-21.484,-15.137,0.000
1714026312.749,-35.156,-20.996,-28.320,-22.949,0.000
1714026312.755,-26.367,-22.461,-26.367,-23.438,0.000
1714026312.758,-26.855,-20.508,-23.438,-30.273,0.000
1714026312.762,-33.203,-22.461,-22.461,-37.109,0.000
1714026312.766,-32.227,-25.391,-21.484,-31.738,0.000
1714026312.770,-29.297,-22.461,-25.391,-28.320,0.000
1714026312.774,-28.809,-25.879,-31.250,-30.273,0.000
1714026312.778,-29.785,-32.715,-33.203,-31.738,0.000
1714026312.782,-26.855,-29.785,-26.367,-27.344,0.000
1714026312.786,-26.367,-25.879,-36.133,-26.367,0.000
1714026312.790,-29.785,-30.762,-40.039,-30.762,0.000
1714026312.794,-27.832,-29.297,-36.133,-33.203,0.000
1714026312.798,-20.996,-21.484,-38.574,-32.227,0.000
1714026312.802,-26.367,-21.973,-33.203,-26.855,0.000
1714026312.805,-30.762,-22.461,-32.715,-19.531,0.000
1714026312.809,-24.414,-16.602,-41.504,-21.484,0.000
1714026312.813,-22.949,-24.414,-40.039,-26.855,0.000
1714026312.817,-31.738,-29.785,-41.016,-26.367,0.000
1714026312.821,-28.809,-24.902,-41.992,-20.996,0.000
1714026312.825,-23.926,-22.949,-34.180,-22.949,0.000
1714026312.829,-26.855,-25.391,-28.809,-25.391,0.000
1714026312.833,-22.461,-28.320,-35.156,-16.602,0.000
1714026312.837,-20.020,-28.809,-31.738,-13.672,0.000
1714026312.841,-18.555,-27.832,-32.227,-15.137,0.000
1714026312.844,-20.020,-26.367,-34.180,-17.090,0.000
1714026312.848,-23.926,-24.414,-22.949,-15.137,0.000
1714026312.852,-24.414,-26.855,-25.879,-16.113,0.000
1714026312.856,-25.391,-24.902,-27.344,-16.113,0.000
1714026312.860,-20.508,-19.531,-20.508,-12.207,0.000
1714026312.863,-0.977,-19.531,-21.973,-3.906,0.000
1714026312.867,-2.441,-25.879,-25.391,-8.789,0.000
1714026312.871,-26.855,-26.367,-24.414,-32.715,0.000
1714026312.875,-32.227,-23.438,-22.461,-38.086,0.000
1714026312.879,-27.832,-26.855,-20.508,-28.320,0.000
1714026312.883,-22.949,-30.273,-14.648,-19.043,0.000
1714026312.887,-20.020,-35.156,-14.160,-16.113,0.000
1714026312.891,-21.973,-38.574,-19.531,-20.996,0.000
1714026312.893,-21.973,-37.109,-18.066,-22.461,0.000
1714026312.897,-21.484,-37.598,-20.996,-23.926,0.000
1714026312.901,-22.949,-37.109,-28.809,-26.367,0.000
1714026312.905,-19.043,-37.109,-28.809,-23.926,0.000
1714026312.909,-19.531,-39.551,-24.902,-24.414,0.000
1714026312.913,-23.438,-37.598,-18.555,-28.809,0.000
1714026312.917,-28.320,-41.504,-24.902,-25.879,0.000
1714026312.921,-25.391,-42.969,-35.156,-13.672,0.000
1714026312.925,-27.344,-37.598,-27.344,-17.578,0.000
1714026312.929,-33.691,-38.574,-16.113,-21.484,0.000
1714026312.932,-27.344,-32.227,-19.043,-16.602,0.000
1714026312.936,-19.531,-28.809,-19.531,-17.578,0.000
1714026312.939,-21.484,-32.715,-11.719,-21.973,0.000
1714026312.942,-28.809,-34.668,-15.625,-25.391,0.000
1714026312.946,-31.738,-30.762,-16.602,-20.508,0.000
1714026312.950,-30.273,-27.832,-12.207,-16.113,0.000
1714026312.954,-20.996,-28.320,-15.625,-12.695,0.000
1714026312.958,-17.090,-25.879,-19.043,-14.160,0.000
1714026312.962,-26.367,-27.832,-22.461,-19.531,0.000
1714026312.966,-23.926,-26.367,-20.508,-13.184,0.000
1714026312.970,-18.555,-26.367,-14.160,-14.648,0.000
1714026312.974,-21.973,-33.203,-16.602,-20.508,0.000
1714026312.978,-23.438,-32.715,-19.043,-22.461,0.000
1714026312.981,-21.484,-31.250,-18.066,-22.461,0.000
1714026312.984,-22.949,-33.691,-21.973,-22.461,0.000
1714026312.988,-26.367,-36.133,-27.344,-20.996,0.000
1714026312.992,-27.832,-32.715,-29.785,-20.020,0.000
1714026312.996,-22.461,-22.461,-24.902,-17.578,0.000
1714026313.000,-15.625,-21.484,-18.555,-7.812,0.000
1714026313.003,-13.184,-21.973,-19.531,-10.254,0.000
1714026313.007,-13.672,-22.949,-20.020,-18.555,0.000
1714026313.011,-20.508,-28.320,-19.531,-25.391,0.000
1714026313.015,-26.367,-30.762,-18.066,-22.461,0.000
1714026313.019,-24.902,-27.344,-17.090,-21.484,0.000
1714026313.023,-25.391,-27.344,-24.902,-30.273,0.000
1714026313.027,-29.785,-24.902,-25.391,-34.668,0.000
1714026313.029,-28.320,-24.902,-24.902,-25.879,0.000
1714026313.033,-28.809,-34.180,-24.414,-26.855,0.000
1714026313.037,-32.715,-34.180,-24.414,-35.156,0.000
1714026313.041,-35.645,-30.762,-29.297,-40.039,0.000
1714026313.045,-29.785,-31.250,-20.020,-30.273,0.000
1714026313.049,-22.461,-28.809,-17.578,-20.996,0.000
1714026313.053,-27.344,-27.832,-31.250,-29.297,0.000
1714026313.056,-29.297,-29.785,-29.297,-37.598,0.000
1714026313.060,-29.785,-28.809,-23.926,-34.668,0.000
1714026313.064,-27.832,-22.949,-26.367,-29.297,0.000
1714026313.068,-22.949,-19.531,-22.461,-26.855,0.000
1714026313.072,-25.391,-19.531,-20.508,-31.738,0.000
1714026313.081,-27.344,-23.438,-25.391,-39.062,0.000
1714026313.085,-26.367,-25.391,-26.855,-36.621,0.000
1714026313.089,-24.902,-23.438,-22.461,-32.227,0.000
1714026313.093,-20.508,-22.461,-22.461,-32.227,0.000
1714026313.097,-20.020,-21.973,-24.902,-31.250,0.000
1714026313.101,-25.879,-22.949,-29.785,-28.809,0.000
1714026313.105,-29.297,-20.508,-29.297,-28.809,0.000
1714026313.108,-32.227,-20.996,-27.344,-28.809,0.000
1714026313.112,-32.227,-22.461,-30.273,-29.785,0.000
1714026313.116,-33.691,-27.832,-24.414,-30.762,0.000
1714026313.120,-37.109,-27.832,-23.438,-32.227,0.000
1714026313.124,-27.832,-26.855,-25.391,-31.738,0.000
1714026313.130,-23.438,-29.297,-25.879,-32.227,0.000
1714026313.134,-25.879,-21.973,-17.090,-27.832,0.000
1714026313.138,-21.484,-20.020,-8.301,-22.461,0.000
1714026313.142,-22.461,-27.832,-8.301,-26.855,0.000
1714026313.145,-27.832,-29.297,-15.137,-36.133,0.000
1714026313.149,-33.203,-29.785,-20.020,-42.480,0.000
1714026313.153,-34.668,-30.273,-14.160,-36.133,0.000
1714026313.157,-32.227,-29.297,-5.859,-26.367,0.000
1714026313.161,-33.203,-33.691,-9.277,-34.180,0.000
1714026313.165,-37.598,-36.133,-20.020,-35.156,0.000
1714026313.169,-30.762,-27.832,-15.137,-30.762,0.000
1714026313.173,-19.531,-18.555,-7.324,-23.438,0.000
1714026313.177,-22.461,-23.438,-11.719,-22.461,0.000
1714026313.181,-24.414,-28.320,-23.438,-34.180,0.000
1714026313.184,-17.578,-30.273,-35.156,-36.621,0.000
1714026313.188,-22.461,-33.203,-22.949,-31.738,0.000
1714026313.192,-23.926,-36.133,-10.742,-31.738,0.000
1714026313.196,-25.391,-38.574,-19.043,-30.762,0.000
1714026313.200,-26.367,-31.738,-16.602,-25.879,0.000
1714026313.204,-20.996,-31.738,-13.672,-19.531,0.000
1714026313.208,-15.625,-28.320,-19.043,-8.301,0.000
1714026313.212,-18.066,-22.949,-15.625,-15.625,0.000
1714026313.216,-21.484,-27.344,-20.996,-23.438,0.000
1714026313.220,-20.508,-30.273,-23.438,-18.555,0.000
1714026313.223,-22.949,-32.715,-20.508,-18.555,0.000
