timestamps,TP9,AF7,AF8,TP10,Right AUX
1714027495.472,12.695,-31.738,-41.016,20.020,0.000
1714027495.476,16.113,-28.809,-42.480,20.020,0.000
1714027495.479,33.691,-27.832,-41.016,39.551,0.000
1714027495.483,43.457,-29.297,-43.457,44.434,0.000
1714027495.487,48.828,-31.250,-49.316,38.086,0.000
1714027495.491,53.711,-28.320,-45.898,45.410,0.000
1714027495.495,45.898,-23.438,-41.016,41.016,0.000
1714027495.499,51.270,-31.738,-42.480,39.551,0.000
1714027495.503,62.988,-37.598,-44.922,53.711,0.000
1714027495.507,61.523,-31.250,-44.922,49.316,0.000
1714027495.511,63.477,-29.297,-35.156,36.133,0.000
1714027495.515,73.730,-28.320,-30.273,40.039,0.000
1714027495.519,70.801,-28.320,-37.598,42.969,0.000
1714027495.523,68.359,-26.367,-38.086,49.316,0.000
1714027495.526,59.082,-27.832,-31.738,50.293,0.000
1714027495.530,43.457,-27.832,-26.367,46.387,0.000
1714027495.534,33.691,-24.414,-23.926,43.457,0.000
1714027495.538,21.973,-29.785,-26.855,40.527,0.000
1714027495.542,21.484,-30.273,-21.484,36.133,0.000
1714027495.546,19.531,-24.414,-18.555,28.320,0.000
1714027495.550,7.812,-26.855,-22.461,28.809,0.000
1714027495.554,7.812,-27.344,-22.949,29.297,0.000
1714027495.558,8.789,-23.438,-24.414,20.508,0.000
1714027495.562,-0.488,-28.809,-23.438,15.625,0.000
1714027495.566,-6.348,-32.227,-24.414,8.301,0.000
1714027495.569,-3.906,-29.785,-28.320,2.930,0.000
1714027495.573,1.465,-27.832,-22.949,7.324,0.000
1714027495.577,-1.465,-23.926,-18.066,3.906,0.000
1714027495.581,-4.395,-24.902,-16.113,2.441,0.000
1714027495.585,-6.836,-25.391,-20.996,6.836,0.000
1714027495.589,-12.695,-23.926,-20.996,0.000,0.000
1714027495.593,-19.043,-30.273,-19.043,-5.371,0.000
1714027495.597,-13.672,-28.320,-25.391,5.371,0.000
1714027495.601,-11.230,-24.414,-22.461,-2.441,0.000
1714027495.605,-12.207,-28.320,-19.043,-13.672,0.000
1714027495.609,-8.301,-23.926,-18.555,-8.301,0.000
1714027495.612,-10.254,-23.926,-20.020,-8.789,0.000
1714027495.616,-11.719,-31.738,-20.996,-11.719,0.000
1714027495.620,-12.207,-40.039,-28.809,-14.648,0.000
1714027495.624,-18.555,-40.527,-36.621,-17.090,0.000
1714027495.628,-21.973,-37.598,-31.250,-19.531,0.000
1714027495.632,-20.020,-37.598,-24.902,-18.066,0.000
1714027495.636,-21.484,-34.668,-20.996,-14.648,0.000
1714027495.640,-25.879,-32.227,-25.391,-12.207,0.000
1714027495.644,-19.531,-29.297,-27.344,-6.836,0.000
1714027495.648,-13.184,-20.508,-20.996,-12.695,0.000
1714027495.652,-14.160,-17.578,-20.508,-15.137,0.000
1714027495.655,-14.648,-20.020,-13.672,-13.672,0.000
1714027495.659,-12.207,-18.066,-15.625,-17.090,0.000
1714027495.663,-11.230,-22.949,-22.461,-20.020,0.000
1714027495.667,-13.184,-20.020,-26.855,-12.207,0.000
1714027495.671,-18.066,-24.414,-28.320,-5.859,0.000
1714027495.675,-21.484,-31.250,-23.926,-10.254,0.000
1714027495.679,-19.043,-26.367,-24.902,-8.301,0.000
1714027495.683,-17.090,-25.391,-26.855,-9.277,0.000
1714027495.687,-11.230,-23.926,-29.297,-9.277,0.000
1714027495.691,-15.625,-26.855,-32.227,-21.973,0.000
1714027495.694,-19.531,-25.879,-30.273,-28.320,0.000
1714027495.698,-13.184,-20.508,-25.879,-24.902,0.000
1714027495.702,-18.066,-21.973,-25.879,-24.902,0.000
1714027495.706,-30.762,-26.367,-33.203,-22.949,0.000
1714027495.710,-23.438,-25.879,-32.715,-22.949,0.000
1714027495.714,-16.113,-22.949,-23.926,-20.020,0.000
1714027495.718,-20.020,-21.484,-22.461,-19.043,0.000
1714027495.722,-21.484,-21.484,-22.949,-20.020,0.000
1714027495.726,-15.625,-20.996,-19.531,-13.184,0.000
1714027495.730,-21.973,-23.926,-20.996,-10.742,0.000
1714027495.733,-29.785,-27.344,-23.438,-21.973,0.000
1714027495.737,-32.227,-22.461,-21.973,-27.832,0.000
1714027495.741,-40.039,-21.973,-21.973,-24.902,0.000
1714027495.745,-39.062,-24.902,-25.879,-34.668,0.000
1714027495.749,-26.367,-19.531,-31.250,-30.762,0.000
1714027495.753,-32.227,-26.855,-27.344,-31.738,0.000
1714027495.757,-34.180,-23.438,-24.902,-34.180,0.000
1714027495.761,-29.297,-20.020,-20.020,-32.715,0.000
1714027495.765,-55.664,-33.691,-20.508,-62.988,0.000
1714027495.768,-81.543,-32.715,-19.531,-84.473,0.000
1714027495.772,-104.492,-28.809,-9.766,-90.332,0.000
1714027495.776,-119.629,-31.738,-6.348,-98.145,0.000
1714027495.780,-125.977,-34.180,0.000,-112.793,0.000
1714027495.784,-128.418,-32.227,9.277,-125.977,0.000
1714027495.788,-141.602,-31.738,13.184,-144.043,0.000
1714027495.792,-165.039,-32.227,15.137,-164.551,0.000
1714027495.796,-172.363,-33.691,20.996,-159.180,0.000
1714027495.800,-177.734,-37.598,20.996,-168.945,0.000
1714027495.803,-180.176,-45.410,23.438,-170.410,0.000
1714027495.807,-170.898,-39.062,26.367,-161.133,0.000
1714027495.811,-166.504,-26.367,28.809,-162.109,0.000
1714027495.815,-168.945,-25.391,19.043,-165.527,0.000
1714027495.819,-162.598,-26.855,5.859,-161.133,0.000
1714027495.823,-158.691,-27.832,6.348,-147.461,0.000
1714027495.827,-146.484,-27.832,3.906,-133.789,0.000
1714027495.831,-137.695,-21.973,-3.418,-130.859,0.000
1714027495.835,-132.812,-19.043,-5.859,-127.930,0.000
1714027495.839,-118.164,-26.367,-7.324,-113.770,0.000
1714027495.843,-122.070,-25.879,-8.789,-118.652,0.000
1714027495.847,-119.141,-20.508,-11.719,-122.559,0.000
1714027495.850,-96.680,-18.555,-23.926,-103.516,0.000
1714027495.854,-83.496,-20.020,-22.949,-91.797,0.000
1714027495.858,-82.031,-28.320,-24.902,-88.867,0.000
1714027495.862,-72.754,-26.855,-32.227,-77.148,0.000
1714027495.866,-58.594,-21.484,-37.109,-66.406,0.000
1714027495.870,-53.223,-19.043,-40.527,-62.012,0.000
1714027495.874,-52.246,-19.043,-42.969,-59.570,0.000
1714027495.878,-49.805,-32.715,-41.504,-51.758,0.000
1714027495.882,-41.016,-32.227,-39.062,-36.621,0.000
1714027495.886,-30.762,-22.949,-44.434,-29.297,0.000
1714027495.890,-25.879,-24.414,-51.270,-27.832,0.000
1714027495.894,-25.879,-22.949,-54.199,-29.297,0.000
1714027495.897,-23.926,-21.484,-51.758,-32.715,0.000
1714027495.901,-20.508,-26.367,-51.270,-34.668,0.000
1714027495.905,-18.555,-22.949,-52.734,-33.203,0.000
1714027495.909,-15.137,-16.113,-52.734,-22.461,0.000
1714027495.913,-15.137,-18.555,-54.688,-17.578,0.000
1714027495.917,-10.742,-20.020,-58.594,-22.461,0.000
1714027495.921,-11.719,-20.020,-56.641,-19.043,0.000
1714027495.925,-12.695,-18.555,-58.105,-5.371,0.000
1714027495.929,-1.465,-19.531,-53.223,0.977,0.000
1714027495.933,1.465,-27.344,-41.992,0.000,0.000
1714027495.937,1.465,-24.414,-53.223,5.371,0.000
1714027495.941,3.418,-19.043,-50.781,7.324,0.000
1714027495.944,1.953,-15.625,-40.039,7.324,0.000
1714027495.948,1.465,-15.137,-46.875,-1.953,0.000
1714027495.952,0.000,-23.438,-52.246,-8.301,0.000
1714027495.956,-2.441,-26.367,-52.734,1.465,0.000
1714027495.960,5.371,-19.531,-52.246,9.277,0.000
1714027495.964,2.930,-15.625,-47.852,-0.488,0.000
1714027495.968,-5.371,-20.508,-49.316,-4.883,0.000
1714027495.972,2.441,-16.602,-47.363,10.742,0.000
1714027495.976,5.859,-10.254,-37.109,14.648,0.000
1714027495.980,0.488,-17.578,-31.738,4.395,0.000
1714027495.983,2.930,-20.508,-37.598,3.418,0.000
1714027495.987,-5.371,-19.531,-45.898,-3.906,0.000
1714027495.991,-18.555,-22.461,-51.758,-13.184,0.000
1714027495.995,-11.230,-19.531,-54.199,-7.324,0.000
1714027495.999,-1.953,-19.043,-51.758,-3.418,0.000
1714027496.003,-1.465,-20.020,-45.898,-7.324,0.000
1714027496.007,-3.906,-14.648,-38.086,-10.742,0.000
1714027496.011,-4.395,-16.602,-34.668,-0.488,0.000
1714027496.015,-4.883,-22.949,-36.621,7.324,0.000
1714027496.019,-4.395,-23.438,-38.086,1.953,0.000
1714027496.023,3.418,-17.578,-36.621,2.930,0.000
1714027496.026,0.000,-12.207,-35.156,13.184,0.000
1714027496.030,-3.906,-14.160,-33.691,13.184,0.000
1714027496.034,-1.465,-12.695,-26.855,2.441,0.000
1714027496.038,-4.395,-12.695,-20.508,0.977,0.000
1714027496.042,-6.348,-18.066,-23.926,0.000,0.000
1714027496.046,-6.348,-16.113,-29.785,-8.789,0.000
1714027496.050,-5.371,-12.695,-29.785,-15.137,0.000
1714027496.054,-5.859,-19.531,-29.785,-17.090,0.000
1714027496.058,-14.648,-25.391,-31.250,-20.508,0.000
1714027496.062,-14.648,-21.484,-32.227,-14.160,0.000
1714027496.065,-12.695,-20.508,-29.785,-10.742,0.000
1714027496.069,-12.207,-25.879,-25.879,-12.207,0.000
1714027496.073,-10.742,-28.320,-24.902,-9.277,0.000
1714027496.077,-11.719,-22.461,-27.344,-12.695,0.000
1714027496.081,-15.137,-13.672,-24.414,-16.113,0.000
1714027496.085,-14.160,-9.766,-21.484,-17.578,0.000
1714027496.089,-9.766,-8.789,-21.484,-17.578,0.000
1714027496.093,-13.184,-16.113,-24.902,-11.719,0.000
1714027496.097,-13.184,-20.508,-24.414,-1.953,0.000
1714027496.101,-12.207,-20.508,-19.043,-9.766,0.000
1714027496.104,-10.254,-22.949,-22.949,-20.020,0.000
1714027496.108,-14.160,-20.996,-26.367,-8.789,0.000
1714027496.112,-20.020,-21.484,-20.020,-9.766,0.000
1714027496.116,-17.578,-22.461,-17.578,-17.578,0.000
1714027496.120,-20.996,-19.043,-21.484,-17.090,0.000
1714027496.124,-25.391,-19.043,-21.973,-22.461,0.000
1714027496.128,-21.484,-21.484,-20.996,-20.996,0.000
1714027496.132,-19.043,-18.066,-22.949,-15.137,0.000
1714027496.136,-20.508,-15.137,-25.391,-14.648,0.000
1714027496.140,-21.973,-22.949,-18.555,-8.789,0.000
1714027496.143,-20.996,-27.344,-18.066,-6.836,0.000
1714027496.147,-19.531,-20.996,-25.391,-12.695,0.000
1714027496.151,-18.555,-17.090,-27.832,-19.043,0.000
1714027496.155,-17.090,-24.414,-25.391,-20.996,0.000
1714027496.159,-16.113,-19.531,-24.902,-21.973,0.000
1714027496.163,-18.555,-16.602,-25.391,-23.438,0.000
1714027496.167,-19.531,-28.320,-22.461,-29.297,0.000
1714027496.171,-14.648,-25.391,-26.855,-27.344,0.000
1714027496.175,-15.137,-22.461,-30.762,-28.809,0.000
1714027496.178,-19.531,-26.367,-28.809,-28.320,0.000
1714027496.182,-18.555,-21.973,-29.785,-30.273,0.000
1714027496.186,-20.508,-21.484,-31.250,-36.133,0.000
1714027496.190,-24.414,-28.320,-31.738,-37.109,0.000
1714027496.194,-21.484,-30.762,-36.133,-35.156,0.000
1714027496.198,-22.949,-31.738,-35.156,-30.762,0.000
1714027496.202,-26.855,-28.320,-33.691,-30.273,0.000
1714027496.206,-23.438,-22.949,-31.738,-23.438,0.000
1714027496.210,-23.926,-26.367,-21.973,-19.531,0.000
1714027496.214,-24.414,-27.344,-31.738,-28.809,0.000
1714027496.217,-25.879,-32.227,-39.062,-33.203,0.000
1714027496.222,-33.203,-35.156,-28.320,-29.785,0.000
1714027496.225,-34.180,-29.297,-30.273,-25.879,0.000
1714027496.229,-26.855,-25.879,-34.180,-25.391,0.000
1714027496.233,-19.043,-20.508,-24.414,-31.738,0.000
1714027496.237,-16.602,-15.137,-19.043,-30.762,0.000
1714027496.241,-19.043,-20.996,-24.902,-25.391,0.000
1714027496.245,-23.438,-24.902,-23.438,-30.273,0.000
1714027496.249,-26.367,-20.996,-24.414,-32.715,0.000
1714027496.253,-26.367,-19.531,-32.227,-25.391,0.000
1714027496.257,-24.414,-20.020,-31.250,-17.090,0.000
1714027496.261,-26.367,-20.508,-22.949,-18.066,0.000
1714027496.264,-22.461,-24.414,-20.020,-19.043,0.000
1714027496.269,-16.602,-28.320,-26.855,-14.648,0.000
1714027496.272,-13.184,-30.762,-33.691,-13.672,0.000
1714027496.276,-17.578,-28.320,-31.738,-20.508,0.000
1714027496.280,-25.879,-20.996,-27.832,-31.250,0.000
1714027496.284,-21.973,-26.855,-33.203,-31.738,0.000
1714027496.288,-19.043,-30.273,-36.133,-24.414,0.000
1714027496.292,-18.066,-25.879,-33.691,-21.973,0.000
1714027496.296,-15.625,-19.531,-27.344,-25.879,0.000
1714027496.300,-18.555,-21.973,-29.297,-24.902,0.000
1714027496.304,-23.438,-30.273,-36.133,-23.438,0.000
1714027496.308,-20.996,-29.785,-31.738,-25.879,0.000
1714027496.311,-11.719,-29.785,-23.926,-18.555,0.000
1714027496.315,-12.695,-26.367,-27.344,-21.973,0.000
1714027496.319,-12.207,-25.879,-37.109,-34.180,0.000
1714027496.323,0.488,-25.391,-36.133,-34.180,0.000
1714027496.327,3.906,-21.484,-30.762,-31.738,0.000
1714027496.331,0.977,-20.020,-32.227,-35.156,0.000
1714027496.335,3.418,-20.020,-30.273,-30.762,0.000
1714027496.339,6.348,-22.949,-21.973,-8.301,0.000
1714027496.343,4.883,-21.973,-24.414,0.977,0.000
1714027496.347,-17.578,-16.602,-23.438,-11.719,0.000
1714027496.351,-35.156,-19.531,-18.555,-23.926,0.000
1714027496.355,-34.180,-25.879,-28.320,-27.344,0.000
1714027496.358,-28.320,-23.438,-32.227,-23.926,0.000
1714027496.362,-15.625,-19.043,-31.738,-12.207,0.000
1714027496.366,-22.461,-24.902,-31.738,-8.301,0.000
1714027496.370,-17.090,-28.320,-28.320,-6.836,0.000
1714027496.374,-9.277,-20.020,-33.691,-6.836,0.000
1714027496.378,-20.996,-24.414,-38.574,-21.484,0.000
1714027496.382,-0.977,-32.715,-37.598,-7.812,0.000
1714027496.386,13.672,-34.668,-36.621,3.906,0.000
1714027496.390,-1.465,-42.480,-39.551,-3.906,0.000
1714027496.394,12.695,-34.180,-36.621,15.625,0.000
1714027496.398,18.555,-21.484,-26.367,11.719,0.000
1714027496.401,11.719,-23.438,-27.344,-0.488,0.000
1714027496.405,33.691,-24.902,-30.273,15.625,0.000
1714027496.409,31.250,-24.414,-22.461,17.578,0.000
1714027496.413,20.020,-22.461,-27.832,11.230,0.000
1714027496.417,25.391,-20.508,-33.691,22.949,0.000
1714027496.421,23.926,-25.391,-28.809,18.555,0.000
1714027496.425,16.113,-30.762,-33.691,2.441,0.000
1714027496.429,15.137,-32.227,-38.574,2.441,0.000
1714027496.433,21.484,-27.344,-33.691,-0.488,0.000
1714027496.437,25.879,-24.902,-29.785,3.418,0.000
1714027496.440,22.949,-38.086,-29.297,5.859,0.000
1714027496.444,21.484,-37.598,-21.484,4.883,0.000
1714027496.448,17.090,-22.949,-14.160,7.812,0.000
1714027496.452,5.371,-23.438,-21.973,2.930,0.000
1714027496.456,-7.812,-29.297,-34.180,-6.836,0.000
1714027496.460,-5.371,-29.297,-33.203,-3.418,0.000
1714027496.464,-1.465,-33.691,-31.250,-4.395,0.000
1714027496.468,-7.324,-34.668,-33.691,-5.859,0.000
1714027496.472,-2.930,-30.273,-27.832,0.977,0.000
1714027496.476,-1.953,-37.598,-20.020,-1.465,0.000
1714027496.479,-3.418,-41.016,-23.438,0.977,0.000
1714027496.483,-0.977,-34.668,-29.785,-0.488,0.000
1714027496.487,-4.883,-27.832,-27.344,-11.230,0.000
1714027496.491,-5.859,-33.203,-31.250,-9.766,0.000
1714027496.495,-1.953,-32.227,-30.762,-4.883,0.000
1714027496.499,-7.324,-23.926,-24.902,-3.906,0.000
1714027496.503,-13.184,-25.879,-27.344,-5.371,0.000
1714027496.507,-11.719,-27.344,-29.785,-6.348,0.000
1714027496.511,-12.207,-36.621,-32.227,-5.371,0.000
1714027496.514,-14.160,-36.621,-30.762,-14.160,0.000
1714027496.518,-3.418,-17.578,-34.180,-20.508,0.000
1714027496.522,-0.488,-23.926,-30.273,-17.090,0.000
1714027496.526,-7.812,-37.109,-22.949,-6.836,0.000
1714027496.530,-2.441,-26.855,-17.090,-6.348,0.000
1714027496.534,0.000,-19.043,-15.137,-7.324,0.000
1714027496.538,-3.906,-22.949,-27.832,-1.465,0.000
1714027496.542,-9.277,-27.344,-38.574,-10.254,0.000
1714027496.546,-10.254,-24.902,-35.156,-14.648,0.000
1714027496.549,-7.324,-20.996,-31.738,-13.184,0.000
1714027496.553,-9.277,-26.367,-28.809,-22.461,0.000
1714027496.557,-12.695,-26.367,-31.738,-26.855,0.000
1714027496.561,-11.719,-31.250,-35.156,-23.438,0.000
1714027496.565,-13.184,-31.738,-26.855,-22.461,0.000
1714027496.569,-12.207,-27.832,-20.020,-8.789,0.000
1714027496.573,-14.160,-33.203,-22.461,-8.301,0.000
1714027496.577,-17.090,-33.203,-22.949,-19.531,0.000
1714027496.581,-12.207,-29.785,-27.832,-13.672,0.000
1714027496.585,-12.695,-27.832,-32.227,-8.301,0.000
1714027496.589,-17.578,-25.879,-31.250,-20.508,0.000
1714027496.592,-18.066,-24.414,-28.809,-29.297,0.000
1714027496.596,-23.438,-29.297,-30.273,-27.832,0.000
1714027496.600,-24.414,-30.762,-25.879,-26.855,0.000
1714027496.604,-18.066,-30.762,-18.066,-19.043,0.000
1714027496.608,-19.043,-28.809,-18.066,-16.602,0.000
1714027496.612,-29.785,-30.273,-25.391,-20.020,0.000
1714027496.616,-28.809,-33.203,-25.391,-19.531,0.000
1714027496.620,-20.508,-29.297,-24.902,-19.043,0.000
1714027496.624,-23.438,-27.832,-28.809,-21.973,0.000
1714027496.628,-28.320,-31.250,-30.762,-17.578,0.000
1714027496.632,-25.391,-30.273,-28.320,-13.672,0.000
1714027496.636,-22.461,-19.531,-23.926,-25.879,0.000
1714027496.639,-21.484,-17.578,-23.926,-29.297,0.000
1714027496.643,-20.020,-23.438,-19.531,-19.531,0.000
1714027496.647,-19.043,-25.879,-18.555,-19.531,0.000
1714027496.651,-19.043,-20.020,-20.508,-22.949,0.000
1714027496.655,-28.809,-15.137,-24.414,-24.902,0.000
1714027496.659,-29.785,-18.066,-27.344,-20.508,0.000
1714027496.663,-26.855,-26.367,-21.484,-18.555,0.000
1714027496.667,-24.414,-26.367,-22.949,-22.461,0.000
1714027496.671,-21.484,-20.020,-27.344,-24.902,0.000
1714027496.675,-20.508,-20.996,-24.902,-20.508,0.000
1714027496.679,-16.602,-21.973,-22.949,-16.602,0.000
1714027496.683,-17.578,-25.391,-21.484,-23.438,0.000
1714027496.686,-17.090,-23.438,-19.531,-23.926,0.000
1714027496.690,-25.391,-18.555,-20.996,-22.949,0.000
1714027496.694,-27.832,-20.508,-25.879,-16.602,0.000
1714027496.698,-20.996,-21.973,-25.879,-16.602,0.000
1714027496.702,-23.926,-19.043,-18.066,-21.973,0.000
1714027496.706,-22.949,-20.996,-10.742,-17.090,0.000
1714027496.710,-31.738,-25.879,-20.996,-28.809,0.000
1714027496.714,-34.668,-30.762,-29.785,-40.039,0.000
1714027496.718,-24.902,-30.273,-24.414,-32.227,0.000
1714027496.722,-20.508,-26.855,-25.879,-24.414,0.000
1714027496.726,-25.391,-27.832,-33.203,-22.949,0.000
1714027496.729,-33.691,-34.180,-35.645,-30.273,0.000
1714027496.733,-28.320,-33.691,-33.203,-30.273,0.000
1714027496.737,-25.879,-26.855,-26.855,-25.879,0.000
1714027496.741,-26.855,-20.020,-20.508,-23.926,0.000
1714027496.745,-28.320,-20.996,-24.902,-27.344,0.000
1714027496.749,-25.879,-31.250,-29.785,-35.645,0.000
1714027496.753,-26.855,-33.203,-34.180,-42.480,0.000
1714027496.757,-28.320,-32.227,-35.645,-35.645,0.000
1714027496.761,-23.926,-28.809,-29.297,-28.320,0.000
1714027496.765,-22.461,-22.461,-29.297,-30.762,0.000
1714027496.769,-22.461,-22.949,-30.273,-32.715,0.000
1714027496.772,-24.414,-24.902,-28.320,-30.762,0.000
1714027496.776,-25.391,-24.902,-25.391,-23.438,0.000
1714027496.780,-26.855,-29.297,-27.832,-25.391,0.000
1714027496.784,-31.738,-27.344,-28.320,-31.250,0.000
1714027496.788,-33.203,-22.461,-23.926,-32.227,0.000
1714027496.792,-29.785,-27.832,-26.855,-30.762,0.000
1714027496.796,-27.832,-29.297,-27.344,-33.691,0.000
1714027496.800,-24.902,-26.367,-25.879,-31.250,0.000
1714027496.804,-27.344,-25.391,-32.715,-29.785,0.000
1714027496.808,-33.691,-24.902,-40.039,-40.039,0.000
1714027496.811,-32.227,-28.809,-41.992,-39.551,0.000
1714027496.815,-32.227,-28.320,-38.086,-35.156,0.000
1714027496.819,-25.391,-27.344,-27.344,-34.668,0.000
1714027496.823,-14.648,-23.438,-27.344,-33.691,0.000
1714027496.827,-20.020,-20.996,-33.203,-31.738,0.000
1714027496.831,-24.902,-21.484,-29.297,-29.297,0.000
1714027496.835,-20.996,-20.996,-29.297,-30.762,0.000
1714027496.839,-21.484,-21.484,-34.180,-35.156,0.000
1714027496.843,-23.438,-18.066,-25.879,-36.133,0.000
1714027496.847,-17.578,-13.184,-17.578,-36.621,0.000
1714027496.850,-20.020,-15.137,-19.043,-37.109,0.000
1714027496.854,-19.531,-20.996,-24.902,-22.949,0.000
1714027496.858,-16.602,-23.926,-26.855,-19.531,0.000
1714027496.862,-19.531,-24.414,-21.484,-29.785,0.000
1714027496.866,-20.508,-23.438,-17.578,-33.203,0.000
1714027496.870,-20.996,-24.414,-19.043,-29.785,0.000
1714027496.874,-20.020,-22.461,-15.137,-27.832,0.000
1714027496.878,-29.785,-19.531,-15.625,-32.227,0.000
1714027496.882,-27.832,-19.043,-21.484,-36.621,0.000
1714027496.885,-23.438,-21.484,-20.020,-36.133,0.000
1714027496.889,-24.414,-20.508,-18.555,-28.809,0.000
1714027496.893,-25.879,-19.531,-22.949,-20.996,0.000
1714027496.897,-27.344,-24.902,-23.438,-20.020,0.000
1714027496.901,-30.762,-30.762,-23.926,-22.949,0.000
1714027496.905,-37.109,-33.691,-25.879,-22.949,0.000
1714027496.909,-33.203,-29.785,-25.879,-23.926,0.000
1714027496.913,-32.227,-24.902,-25.391,-29.297,0.000
1714027496.917,-35.645,-28.320,-24.902,-34.668,0.000
1714027496.921,-35.645,-29.785,-36.621,-41.504,0.000
1714027496.924,-32.227,-25.391,-32.227,-40.039,0.000
1714027496.928,-34.180,-30.273,-26.855,-34.180,0.000
1714027496.932,-37.598,-33.691,-27.344,-28.809,0.000
1714027496.936,-30.762,-25.879,-21.484,-27.832,0.000
1714027496.940,-30.762,-27.344,-27.832,-31.738,0.000
1714027496.944,-32.227,-30.762,-29.297,-25.391,0.000
1714027496.948,-33.691,-31.250,-19.043,-24.902,0.000
1714027496.952,-34.180,-33.203,-25.879,-34.668,0.000
1714027496.956,-37.598,-30.762,-35.645,-37.598,0.000
1714027496.960,-38.574,-26.855,-34.180,-34.668,0.000
1714027496.963,-27.344,-23.438,-34.668,-34.180,0.000
1714027496.967,-25.391,-21.973,-29.297,-37.598,0.000
1714027496.971,-27.344,-29.297,-35.645,-41.504,0.000
1714027496.975,-27.832,-30.273,-41.504,-39.551,0.000
1714027496.979,-30.762,-18.555,-33.691,-34.180,0.000
1714027496.983,-26.367,-16.113,-26.855,-32.715,0.000
1714027496.987,-26.367,-23.926,-28.809,-31.738,0.000
1714027496.991,-37.109,-24.902,-32.227,-35.645,0.000
1714027496.995,-40.039,-24.902,-33.203,-34.668,0.000
1714027496.999,-33.203,-27.344,-39.551,-39.062,0.000
1714027497.003,-26.855,-29.297,-36.133,-41.016,0.000
1714027497.007,-36.133,-30.273,-30.273,-38.086,0.000
1714027497.010,-39.062,-27.344,-28.809,-35.645,0.000
1714027497.014,-29.785,-26.855,-22.949,-34.180,0.000
1714027497.018,-27.344,-28.809,-24.414,-38.574,0.000
1714027497.022,-23.438,-24.414,-23.438,-28.809,0.000
1714027497.026,-21.973,-17.090,-12.695,-27.832,0.000
1714027497.030,-22.461,-19.531,-14.160,-33.691,0.000
1714027497.034,-23.926,-22.949,-27.832,-38.574,0.000
1714027497.038,-24.414,-23.926,-28.320,-35.156,0.000
1714027497.042,-20.020,-22.461,-21.973,-25.391,0.000
1714027497.046,-13.184,-20.996,-22.461,-25.391,0.000
1714027497.050,-18.066,-25.879,-28.320,-28.809,0.000
1714027497.054,-24.902,-25.391,-29.785,-30.762,0.000
1714027497.057,-24.902,-23.438,-28.320,-26.367,0.000
1714027497.061,-30.762,-21.484,-22.461,-28.320,0.000
1714027497.065,-26.367,-19.531,-15.625,-32.715,0.000
1714027497.069,-19.531,-20.508,-16.602,-20.996,0.000
1714027497.073,-22.461,-19.531,-23.926,-23.926,0.000
1714027497.077,-24.414,-24.902,-33.691,-31.250,0.000
1714027497.081,-22.461,-28.809,-33.691,-24.902,0.000
1714027497.085,-28.809,-24.414,-26.855,-22.949,0.000
1714027497.089,-32.715,-21.973,-25.879,-21.484,0.000
1714027497.093,-24.902,-22.461,-27.832,-14.160,0.000
1714027497.097,-21.973,-21.484,-23.438,-9.277,0.000
1714027497.101,-23.926,-24.414,-29.297,-18.066,0.000
1714027497.104,-20.996,-22.949,-27.832,-27.832,0.000
1714027497.108,-20.020,-14.648,-22.949,-32.227,0.000
1714027497.112,-23.926,-20.020,-33.691,-35.645,0.000
1714027497.116,-22.949,-24.902,-38.574,-34.180,0.000
1714027497.120,-17.578,-23.438,-41.992,-33.203,0.000
1714027497.124,-10.254,-25.879,-36.621,-24.414,0.000
1714027497.128,-10.742,-32.227,-26.855,-20.508,0.000
1714027497.132,-10.254,-33.203,-27.344,-24.902,0.000
1714027497.136,-11.719,-27.832,-25.391,-20.020,0.000
1714027497.140,-19.043,-27.344,-22.461,-10.742,0.000
1714027497.143,-21.484,-26.367,-23.438,-16.113,0.000
1714027497.147,-22.461,-25.391,-22.461,-25.391,0.000
1714027497.151,-23.926,-30.273,-30.762,-25.879,0.000
1714027497.155,-23.438,-28.809,-32.227,-24.902,0.000
1714027497.159,-22.949,-24.902,-20.996,-20.508,0.000
1714027497.163,-23.438,-24.414,-17.090,-25.391,0.000
1714027497.167,-25.879,-29.785,-28.320,-35.156,0.000
1714027497.171,-19.531,-30.762,-33.691,-37.598,0.000
1714027497.175,-7.812,-22.461,-25.879,-31.250,0.000
1714027497.179,-1.465,-23.438,-24.414,-28.809,0.000
1714027497.183,-4.395,-33.691,-28.809,-30.762,0.000
1714027497.186,-5.859,-28.809,-31.738,-23.438,0.000
1714027497.190,-9.277,-21.484,-30.273,-19.531,0.000
1714027497.194,-15.625,-29.785,-33.203,-29.785,0.000
1714027497.198,-19.043,-28.809,-30.273,-34.180,0.000
1714027497.202,-22.461,-19.043,-24.414,-25.879,0.000
1714027497.206,-29.785,-17.578,-26.367,-26.367,0.000
1714027497.210,-30.273,-17.578,-25.391,-25.391,0.000
1714027497.214,-26.855,-19.043,-28.809,-22.461,0.000
1714027497.218,-28.320,-24.414,-33.203,-22.461,0.000
1714027497.222,-26.855,-31.250,-35.156,-26.367,0.000
1714027497.225,-16.113,-29.785,-37.109,-21.484,0.000
1714027497.229,-19.531,-25.879,-33.203,-14.648,0.000
1714027497.233,-31.738,-30.762,-32.715,-21.973,0.000
1714027497.237,-29.297,-28.809,-23.438,-27.832,0.000
1714027497.241,-35.645,-24.414,-23.926,-33.691,0.000
1714027497.245,-26.367,-23.438,-29.785,-31.250,0.000
1714027497.249,-18.066,-26.367,-24.414,-30.273,0.000
1714027497.253,-32.227,-27.832,-21.484,-40.527,0.000
1714027497.257,-33.203,-27.344,-20.508,-42.969,0.000
1714027497.260,-34.668,-24.902,-20.508,-42.480,0.000
1714027497.264,-33.691,-22.949,-19.043,-33.203,0.000
1714027497.268,-31.738,-22.949,-17.090,-32.227,0.000
1714027497.272,-31.738,-22.461,-16.113,-37.598,0.000
1714027497.276,-36.621,-25.879,-25.391,-39.062,0.000
1714027497.280,-33.203,-26.367,-27.344,-33.691,0.000
1714027497.284,-21.973,-32.227,-25.391,-27.832,0.000
1714027497.288,-39.062,-40.039,-23.926,-37.598,0.000
1714027497.292,-53.711,-36.133,-12.695,-45.410,0.000
1714027497.296,-73.242,-35.156,-11.719,-66.895,0.000
1714027497.299,-83.984,-42.969,-14.160,-81.543,0.000
1714027497.303,-90.820,-41.504,-14.160,-88.379,0.000
1714027497.307,-122.070,-33.203,-11.719,-120.117,0.000
1714027497.311,-143.066,-34.668,0.977,-136.719,0.000
1714027497.315,-152.832,-40.527,8.789,-145.020,0.000
1714027497.319,-175.781,-43.945,12.207,-166.016,0.000
1714027497.323,-182.617,-37.598,20.020,-167.969,0.000
1714027497.327,-172.852,-30.762,29.297,-156.738,0.000
1714027497.331,-173.828,-33.203,32.227,-163.086,0.000
1714027497.335,-183.105,-38.574,33.691,-176.758,0.000
1714027497.338,-194.336,-41.992,37.598,-183.105,0.000
1714027497.342,-183.594,-44.434,31.738,-174.316,0.000
1714027497.346,-169.434,-41.504,24.414,-155.273,0.000
1714027497.350,-162.598,-40.039,26.367,-152.344,0.000
1714027497.354,-147.461,-40.039,30.273,-138.672,0.000
1714027497.358,-152.344,-31.250,24.902,-142.578,0.000
1714027497.362,-157.227,-30.273,13.672,-157.715,0.000
1714027497.366,-133.301,-36.133,11.230,-135.742,0.000
1714027497.370,-112.305,-38.086,5.371,-121.582,0.000
1714027497.374,-114.258,-34.180,-10.742,-127.441,0.000
1714027497.378,-109.863,-30.762,-22.461,-116.699,0.000
1714027497.382,-100.098,-32.227,-21.484,-102.051,0.000
1714027497.385,-92.773,-29.785,-26.367,-103.027,0.000
1714027497.389,-76.172,-31.250,-28.320,-91.309,0.000
1714027497.393,-71.289,-27.832,-38.086,-86.426,0.000
1714027497.397,-66.895,-24.414,-46.387,-87.402,0.000
1714027497.401,-56.641,-28.320,-44.434,-79.102,0.000
1714027497.405,-55.176,-30.273,-42.969,-76.172,0.000
1714027497.409,-49.316,-28.320,-35.645,-65.918,0.000
1714027497.413,-38.574,-19.043,-37.598,-55.664,0.000
1714027497.417,-39.062,-18.555,-50.293,-56.152,0.000
1714027497.421,-33.691,-24.414,-57.129,-47.363,0.000
1714027497.425,-22.461,-23.926,-56.152,-33.691,0.000
1714027497.429,-18.066,-28.809,-50.293,-26.855,0.000
1714027497.432,-8.301,-24.902,-42.969,-25.391,0.000
1714027497.436,3.418,-16.113,-42.969,-19.531,0.000
1714027497.440,-3.418,-14.160,-47.852,-12.207,0.000
1714027497.444,-12.207,-14.160,-52.734,-13.672,0.000
1714027497.448,-7.324,-16.113,-51.270,-13.672,0.000
1714027497.452,-1.465,-13.672,-47.363,-10.254,0.000
1714027497.456,2.441,-15.625,-48.340,-7.812,0.000
1714027497.460,5.859,-20.020,-49.805,0.488,0.000
1714027497.464,9.766,-16.602,-41.504,0.977,0.000
1714027497.468,11.719,-18.066,-43.457,2.441,0.000
1714027497.472,17.090,-18.066,-56.152,18.066,0.000
1714027497.475,17.578,-17.090,-50.293,17.578,0.000
1714027497.479,10.742,-15.625,-43.945,5.859,0.000
1714027497.483,13.672,-16.113,-41.992,12.207,0.000
1714027497.487,14.160,-22.461,-40.527,14.160,0.000
1714027497.491,11.719,-15.625,-38.574,18.066,0.000
1714027497.495,15.137,-12.207,-37.109,23.438,0.000
1714027497.499,12.207,-22.461,-48.340,15.137,0.000
1714027497.503,8.301,-23.438,-47.852,10.254,0.000
1714027497.507,3.418,-23.438,-48.340,9.766,0.000
1714027497.511,-1.953,-25.391,-50.781,7.324,0.000
1714027497.515,0.488,-24.902,-44.922,9.766,0.000
1714027497.518,-1.953,-20.996,-36.133,7.812,0.000
1714027497.522,-6.836,-18.066,-35.645,6.348,0.000
1714027497.526,-6.836,-20.996,-50.293,0.977,0.000
1714027497.530,-4.883,-22.949,-51.270,-6.836,0.000
1714027497.534,-8.789,-19.531,-42.969,-6.348,0.000
1714027497.538,-4.395,-20.996,-41.992,2.441,0.000
1714027497.542,5.371,-22.461,-53.223,9.766,0.000
1714027497.546,0.488,-15.137,-46.875,8.789,0.000
1714027497.550,0.488,-10.254,-35.645,1.953,0.000
1714027497.554,-2.441,-18.555,-44.434,2.441,0.000
1714027497.557,-10.254,-20.020,-44.434,-1.953,0.000
1714027497.561,-9.277,-21.973,-43.457,-8.301,0.000
1714027497.565,-10.254,-23.438,-48.828,-9.766,0.000
1714027497.569,-12.695,-26.855,-44.434,-13.184,0.000
1714027497.573,-6.836,-31.250,-40.527,-1.953,0.000
1714027497.577,-7.324,-23.438,-37.598,2.930,0.000
1714027497.581,-4.883,-15.137,-28.320,-3.418,0.000
1714027497.585,-1.953,-16.602,-32.715,1.465,0.000
1714027497.589,-10.254,-22.949,-52.246,-6.348,0.000
1714027497.593,-9.766,-25.879,-47.852,-9.277,0.000
1714027497.596,-4.883,-24.414,-34.668,-3.906,0.000
1714027497.600,-9.277,-23.438,-42.480,-10.254,0.000
1714027497.604,-11.230,-25.879,-50.293,-8.301,0.000
1714027497.608,-7.324,-23.926,-43.457,-2.930,0.000
1714027497.612,-7.812,-21.973,-34.180,-7.812,0.000
1714027497.616,-7.812,-29.297,-36.133,-7.324,0.000
1714027497.620,-6.836,-34.668,-36.133,-10.254,0.000
1714027497.624,-8.789,-24.902,-35.156,-14.648,0.000
1714027497.628,-9.277,-20.508,-34.180,-14.648,0.000
1714027497.632,-4.883,-23.438,-29.297,-10.742,0.000
1714027497.636,0.488,-25.391,-27.832,-4.883,0.000
1714027497.640,-5.371,-31.250,-30.273,-9.766,0.000
1714027497.644,-10.254,-29.785,-34.180,-11.719,0.000
1714027497.647,-7.812,-28.809,-34.180,-17.090,0.000
1714027497.651,-8.789,-27.344,-30.762,-10.742,0.000
1714027497.655,-10.742,-21.973,-27.344,-7.324,0.000
1714027497.659,-13.672,-27.832,-25.879,-19.043,0.000
1714027497.663,-11.719,-24.902,-19.531,-15.625,0.000
1714027497.667,-10.742,-17.090,-18.066,-10.254,0.000
1714027497.671,-13.184,-22.461,-27.344,-12.207,0.000
1714027497.675,-17.090,-24.414,-30.762,-16.602,0.000
1714027497.679,-24.902,-26.855,-30.762,-17.578,0.000
1714027497.682,-33.203,-29.297,-29.297,-21.973,0.000
1714027497.686,-26.367,-22.461,-29.785,-25.391,0.000
1714027497.690,-25.391,-17.090,-30.762,-23.926,0.000
1714027497.694,-26.855,-25.391,-29.297,-11.230,0.000
1714027497.698,-22.461,-25.879,-37.598,-9.277,0.000
1714027497.702,-25.879,-25.391,-41.016,-25.879,0.000
1714027497.706,-26.855,-34.180,-40.527,-24.902,0.000
1714027497.710,-20.508,-35.156,-41.504,-10.742,0.000
1714027497.714,-19.043,-33.691,-32.227,-13.184,0.000
1714027497.718,-24.902,-34.180,-31.738,-33.203,0.000
1714027497.722,-22.949,-25.879,-36.621,-35.645,0.000
1714027497.726,-17.578,-14.160,-34.180,-19.043,0.000
1714027497.730,-19.043,-10.254,-26.855,-15.137,0.000
1714027497.733,-18.066,-23.926,-24.902,-19.531,0.000
1714027497.737,-12.695,-28.809,-24.414,-11.230,0.000
1714027497.741,-15.625,-27.344,-25.879,-5.859,0.000
1714027497.745,-26.855,-33.691,-30.762,-9.766,0.000
1714027497.749,-31.250,-31.738,-32.715,-14.160,0.000
1714027497.753,-27.832,-27.344,-34.180,-20.508,0.000
1714027497.757,-23.926,-27.344,-30.762,-18.066,0.000
1714027497.761,-21.484,-23.438,-25.879,-15.625,0.000
1714027497.765,-22.949,-26.367,-21.484,-11.719,0.000
1714027497.769,-27.344,-38.574,-20.020,-14.160,0.000
1714027497.773,-27.344,-35.156,-20.996,-25.391,0.000
1714027497.776,-26.855,-26.367,-26.855,-22.949,0.000
1714027497.780,-28.320,-27.344,-34.668,-23.926,0.000
1714027497.784,-26.367,-26.855,-34.180,-30.273,0.000
1714027497.788,-28.320,-24.902,-30.273,-27.832,0.000
1714027497.792,-29.785,-26.855,-31.250,-20.508,0.000
1714027497.796,-31.738,-26.855,-27.344,-27.832,0.000
1714027497.800,-29.297,-29.785,-29.785,-29.785,0.000
1714027497.804,-26.855,-32.227,-36.621,-19.531,0.000
1714027497.808,-21.973,-22.461,-36.133,-21.484,0.000
1714027497.812,-19.043,-25.391,-26.855,-18.555,0.000
1714027497.816,-24.902,-30.762,-24.414,-16.113,0.000
1714027497.820,-27.832,-24.414,-31.250,-24.902,0.000
1714027497.823,-26.855,-24.902,-36.133,-28.809,0.000
1714027497.827,-24.902,-28.320,-37.109,-30.273,0.000
1714027497.831,-28.809,-31.250,-37.109,-34.668,0.000
1714027497.835,-32.227,-37.598,-41.016,-31.250,0.000
1714027497.839,-25.391,-29.297,-42.480,-22.461,0.000
1714027497.843,-20.020,-19.531,-42.480,-18.555,0.000
1714027497.847,-23.926,-28.809,-41.016,-18.066,0.000
1714027497.851,-29.297,-28.809,-31.250,-18.555,0.000
1714027497.855,-33.691,-29.297,-38.574,-24.414,0.000
1714027497.859,-33.203,-35.156,-42.480,-25.879,0.000
1714027497.862,-29.297,-24.902,-24.414,-22.461,0.000
1714027497.866,-29.785,-21.973,-12.695,-27.832,0.000
1714027497.870,-33.203,-30.273,-27.344,-28.809,0.000
1714027497.874,-37.109,-34.180,-42.480,-23.438,0.000
1714027497.878,-33.203,-32.227,-38.086,-27.344,0.000
1714027497.882,-28.809,-28.809,-37.598,-29.785,0.000
1714027497.886,-28.320,-29.785,-45.410,-28.320,0.000
1714027497.890,-30.762,-34.180,-45.898,-23.926,0.000
1714027497.894,-28.809,-28.809,-30.762,-11.230,0.000
1714027497.898,-26.367,-25.391,-16.602,-14.648,0.000
1714027497.902,-32.715,-29.297,-21.484,-28.809,0.000
1714027497.905,-34.180,-31.738,-31.738,-26.855,0.000
1714027497.909,-26.855,-30.273,-33.203,-17.090,0.000
1714027497.913,-28.809,-27.344,-31.738,-26.367,0.000
1714027497.917,-28.320,-20.996,-31.738,-30.273,0.000
1714027497.921,-23.926,-16.602,-28.809,-29.785,0.000
1714027497.925,-26.367,-25.391,-24.902,-32.715,0.000
1714027497.929,-22.461,-28.809,-27.832,-22.461,0.000
1714027497.933,-19.043,-27.832,-35.156,-29.297,0.000
1714027497.937,-24.414,-35.645,-42.480,-35.645,0.000
1714027497.941,-16.602,-32.227,-43.457,-18.066,0.000
1714027497.944,-14.160,-25.879,-31.738,-13.672,0.000
1714027497.948,-24.414,-30.762,-12.695,-32.227,0.000
1714027497.952,-26.367,-31.738,-15.625,-45.898,0.000
1714027497.956,-18.555,-29.785,-20.508,-42.969,0.000
1714027497.960,-16.113,-35.645,-15.625,-40.527,0.000
1714027497.964,-21.484,-42.969,-21.484,-41.504,0.000
1714027497.968,-20.508,-46.875,-22.461,-34.180,0.000
1714027497.972,-15.625,-45.898,-19.043,-28.320,0.000
1714027497.976,-20.996,-42.480,-18.555,-29.297,0.000
1714027497.980,-25.879,-38.574,-21.973,-20.020,0.000
1714027497.983,-30.273,-37.109,-20.508,-14.648,0.000
1714027497.987,-41.016,-39.551,-12.207,-18.066,0.000
1714027497.991,-39.551,-40.527,-11.230,-14.648,0.000
1714027497.995,-33.203,-38.574,-13.672,-17.090,0.000
1714027497.999,-32.227,-38.086,-10.254,-19.531,0.000
1714027498.003,-37.109,-39.551,-13.184,-23.926,0.000
1714027498.007,-42.480,-35.645,-27.344,-26.367,0.000
1714027498.011,-35.645,-24.902,-27.832,-24.414,0.000
1714027498.015,-30.762,-19.531,-18.066,-26.855,0.000
1714027498.018,-36.133,-19.531,-26.367,-24.902,0.000
1714027498.022,-37.598,-25.879,-31.738,-22.461,0.000
1714027498.026,-31.250,-32.227,-25.391,-17.578,0.000
1714027498.030,-26.855,-27.832,-27.344,-19.531,0.000
1714027498.034,-26.855,-23.926,-26.855,-28.809,0.000
1714027498.038,-27.832,-24.414,-21.484,-25.879,0.000
1714027498.042,-33.203,-28.320,-22.949,-27.832,0.000
1714027498.046,-38.574,-31.250,-20.996,-28.320,0.000
1714027498.050,-35.645,-29.785,-27.344,-32.715,0.000
1714027498.053,-36.133,-27.344,-37.109,-35.156,0.000
1714027498.057,-41.992,-27.832,-36.133,-32.227,0.000
1714027498.061,-36.133,-32.227,-30.762,-29.785,0.000
1714027498.065,-29.785,-28.809,-22.461,-31.250,0.000
1714027498.069,-31.738,-23.926,-18.555,-27.344,0.000
1714027498.073,-32.227,-25.879,-25.391,-24.902,0.000
1714027498.077,-32.715,-24.902,-33.203,-29.785,0.000
1714027498.081,-38.574,-27.344,-35.645,-35.156,0.000
1714027498.085,-33.203,-27.344,-38.086,-30.762,0.000
1714027498.089,-29.785,-33.203,-32.715,-22.461,0.000
1714027498.093,-33.691,-39.062,-27.344,-27.832,0.000
1714027498.097,-31.738,-35.645,-30.762,-30.273,0.000
1714027498.101,-32.715,-32.227,-29.297,-33.691,0.000
1714027498.104,-27.832,-26.367,-20.020,-25.391,0.000
1714027498.108,-24.902,-20.508,-19.531,-20.020,0.000
1714027498.112,-32.227,-24.902,-20.996,-27.344,0.000
1714027498.116,-29.297,-27.344,-27.832,-30.273,0.000
1714027498.120,-27.832,-29.785,-32.227,-31.250,0.000
1714027498.124,-36.133,-34.180,-26.855,-39.551,0.000
1714027498.128,-38.086,-32.715,-30.273,-36.621,0.000
1714027498.132,-35.645,-27.832,-36.133,-27.344,0.000
1714027498.136,-39.062,-24.414,-33.203,-30.273,0.000
1714027498.140,-35.645,-21.973,-34.668,-25.879,0.000
1714027498.144,-27.832,-20.020,-33.691,-23.926,0.000
1714027498.147,-25.879,-21.484,-27.832,-23.438,0.000
1714027498.151,-25.879,-30.273,-23.926,-23.438,0.000
1714027498.155,-32.715,-35.645,-29.297,-25.879,0.000
1714027498.159,-33.691,-32.715,-45.898,-27.344,0.000
1714027498.163,-26.855,-33.691,-41.504,-29.297,0.000
1714027498.167,-33.203,-27.344,-33.203,-37.598,0.000
1714027498.171,-38.574,-21.973,-38.574,-42.969,0.000
1714027498.175,-31.738,-27.344,-44.922,-23.438,0.000
1714027498.179,-31.250,-28.320,-36.621,-17.578,0.000
1714027498.183,-22.461,-28.809,-18.555,-21.484,0.000
1714027498.187,-18.066,-26.855,-22.461,-20.020,0.000
1714027498.190,-29.297,-29.297,-27.344,-30.273,0.000
1714027498.194,-26.855,-32.227,-27.344,-30.273,0.000
1714027498.198,-23.438,-29.785,-27.832,-29.297,0.000
1714027498.202,-28.320,-25.391,-26.855,-27.344,0.000
1714027498.206,-27.832,-22.949,-29.785,-20.996,0.000
1714027498.210,-25.391,-26.367,-24.902,-22.949,0.000
1714027498.214,-28.320,-32.715,-22.949,-22.461,0.000
1714027498.218,-23.438,-29.785,-24.414,-17.578,0.000
1714027498.222,-22.461,-28.320,-28.809,-15.625,0.000
1714027498.226,-30.762,-29.785,-33.691,-21.484,0.000
1714027498.230,-27.832,-23.438,-33.203,-21.484,0.000
1714027498.233,-29.297,-19.531,-35.156,-25.391,0.000
1714027498.237,-22.461,-17.090,-22.461,-13.672,0.000
1714027498.241,-10.742,-17.578,-9.766,-3.418,0.000
1714027498.245,-8.789,-17.578,-19.531,-8.789,0.000
1714027498.249,-14.648,-19.531,-29.785,-17.578,0.000
1714027498.253,-23.438,-21.973,-31.250,-31.738,0.000
1714027498.257,-25.879,-26.855,-29.785,-31.738,0.000
1714027498.261,-29.297,-31.738,-28.809,-31.250,0.000
1714027498.265,-33.203,-29.297,-30.762,-30.273,0.000
1714027498.269,-36.133,-28.809,-25.879,-28.809,0.000
1714027498.273,-26.367,-29.297,-32.227,-20.996,0.000
1714027498.276,-17.578,-33.203,-39.062,-14.648,0.000
1714027498.280,-27.832,-37.109,-27.832,-20.508,0.000
1714027498.284,-43.945,-34.180,-25.391,-34.180,0.000
1714027498.288,-44.922,-31.738,-32.715,-43.945,0.000
1714027498.292,-31.738,-33.691,-26.367,-31.250,0.000
1714027498.296,-30.273,-27.832,-14.648,-25.879,0.000
1714027498.300,-30.273,-25.879,-19.043,-27.832,0.000
1714027498.304,-24.902,-34.668,-19.043,-20.508,0.000
1714027498.308,-29.297,-37.109,-19.043,-22.949,0.000
1714027498.312,-33.691,-37.598,-20.996,-22.949,0.000
1714027498.315,-29.297,-29.785,-17.578,-14.160,0.000
1714027498.319,-33.203,-25.879,-20.508,-16.113,0.000
1714027498.323,-40.039,-32.227,-24.414,-23.438,0.000
1714027498.327,-30.273,-35.156,-24.414,-19.531,0.000
1714027498.331,-30.762,-27.832,-25.391,-23.438,0.000
1714027498.335,-31.738,-28.320,-21.973,-30.273,0.000
1714027498.339,-22.949,-28.320,-19.043,-21.484,0.000
1714027498.343,-27.832,-26.855,-24.414,-22.949,0.000
1714027498.347,-28.809,-32.227,-25.879,-30.762,0.000
1714027498.351,-27.344,-41.992,-26.367,-34.180,0.000
1714027498.354,-27.832,-45.898,-30.273,-27.832,0.000
1714027498.358,-30.762,-35.156,-32.227,-22.949,0.000
1714027498.362,-30.273,-28.809,-26.367,-32.715,0.000
1714027498.366,-29.297,-34.180,-26.367,-30.762,0.000
1714027498.370,-26.367,-32.227,-24.902,-26.855,0.000
1714027498.374,-16.602,-24.902,-26.367,-22.949,0.000
1714027498.378,-25.879,-30.762,-27.832,-28.320,0.000
1714027498.382,-31.738,-36.621,-22.461,-30.762,0.000
1714027498.386,-26.855,-40.527,-20.020,-22.949,0.000
1714027498.390,-32.227,-43.457,-19.531,-28.809,0.000
1714027498.393,-29.785,-35.156,-21.484,-27.832,0.000
1714027498.397,-24.414,-26.855,-20.996,-20.020,0.000
1714027498.401,-25.879,-38.086,-27.344,-17.090,0.000
1714027498.405,-29.297,-40.039,-31.738,-20.996,0.000
1714027498.409,-31.738,-27.344,-24.414,-25.391,0.000
1714027498.413,-31.250,-27.344,-22.949,-24.902,0.000
1714027498.417,-27.344,-33.203,-21.973,-26.367,0.000
1714027498.421,-23.438,-31.738,-18.066,-26.855,0.000
1714027498.425,-24.414,-23.438,-17.578,-21.484,0.000
1714027498.428,-31.250,-23.926,-26.855,-22.461,0.000
1714027498.432,-38.086,-30.762,-30.273,-32.715,0.000
1714027498.436,-37.109,-25.879,-19.531,-29.297,0.000
1714027498.440,-33.203,-20.996,-14.160,-23.438,0.000
1714027498.444,-33.203,-29.785,-21.973,-30.273,0.000
1714027498.448,-32.227,-33.691,-27.832,-28.320,0.000
1714027498.452,-30.273,-29.297,-29.785,-27.344,0.000
1714027498.456,-27.344,-27.832,-31.738,-31.738,0.000
1714027498.460,-26.855,-30.273,-29.297,-35.156,0.000
1714027498.464,-24.902,-33.203,-31.250,-31.250,0.000
1714027498.467,-24.414,-28.809,-20.508,-28.320,0.000
1714027498.472,-29.785,-24.902,-11.719,-27.344,0.000
1714027498.475,-37.598,-42.480,-26.855,-20.508,0.000
1714027498.479,-40.039,-52.246,-39.551,-26.367,0.000
1714027498.483,-39.062,-35.645,-32.227,-34.180,0.000
1714027498.487,-34.180,-29.785,-31.250,-30.273,0.000
1714027498.491,-31.250,-33.203,-39.551,-35.156,0.000
1714027498.495,-33.691,-32.715,-30.762,-33.691,0.000
1714027498.499,-34.668,-32.715,-26.855,-30.273,0.000
1714027498.503,-36.621,-32.227,-35.645,-38.086,0.000
1714027498.507,-36.621,-29.785,-39.062,-35.645,0.000
1714027498.511,-28.809,-23.926,-40.039,-28.320,0.000
1714027498.515,-24.902,-27.344,-39.062,-31.738,0.000
1714027498.519,-26.367,-34.180,-31.738,-29.297,0.000
1714027498.522,-28.320,-25.879,-28.320,-23.438,0.000
1714027498.526,-27.344,-21.973,-27.344,-22.949,0.000
1714027498.530,-19.531,-28.320,-25.391,-23.926,0.000
1714027498.534,-17.578,-29.297,-32.227,-26.367,0.000
1714027498.538,-20.996,-26.855,-32.715,-20.508,0.000
1714027498.542,-25.391,-27.832,-28.320,-8.789,0.000
1714027498.546,-26.855,-23.438,-17.578,-12.695,0.000
1714027498.550,-16.602,-25.879,-8.301,-13.184,0.000
1714027498.554,-15.137,-27.344,-15.137,-10.742,0.000
1714027498.558,-15.137,-14.160,-21.484,-17.090,0.000
1714027498.561,-17.578,-18.066,-20.996,-21.484,0.000
1714027498.565,-20.508,-26.367,-18.066,-28.809,0.000
1714027498.569,-23.438,-25.391,-19.531,-22.949,0.000
1714027498.573,-27.832,-22.949,-20.020,-22.949,0.000
1714027498.577,-25.879,-21.973,-15.137,-22.949,0.000
1714027498.581,-20.508,-24.902,-7.812,-13.184,0.000
1714027498.585,-21.973,-25.391,-13.672,-16.602,0.000
1714027498.589,-24.414,-21.484,-22.949,-20.020,0.000
1714027498.593,-23.926,-19.531,-26.855,-20.020,0.000
1714027498.597,-28.809,-28.809,-25.391,-22.461,0.000
1714027498.601,-28.320,-33.203,-23.926,-28.809,0.000
1714027498.605,-29.297,-24.414,-26.855,-31.250,0.000
1714027498.608,-30.273,-21.484,-24.414,-27.832,0.000
1714027498.612,-29.785,-23.926,-22.949,-28.809,0.000
1714027498.616,-27.344,-22.461,-26.855,-27.832,0.000
1714027498.620,-26.367,-20.508,-27.344,-26.367,0.000
1714027498.624,-28.320,-26.367,-24.902,-24.902,0.000
1714027498.628,-25.879,-34.668,-22.949,-25.879,0.000
1714027498.632,-25.879,-31.738,-20.020,-31.250,0.000
1714027498.636,-27.832,-29.297,-22.461,-29.297,0.000
1714027498.640,-29.785,-36.133,-30.273,-20.020,0.000
1714027498.644,-33.203,-37.598,-34.180,-20.020,0.000
1714027498.647,-36.133,-39.551,-29.297,-31.250,0.000
1714027498.651,-33.691,-25.879,-24.414,-32.227,0.000
1714027498.655,-30.762,-18.066,-25.391,-28.320,0.000
1714027498.659,-27.832,-27.344,-15.137,-25.391,0.000
1714027498.663,-24.902,-24.902,-18.066,-25.879,0.000
1714027498.667,-25.879,-24.414,-26.367,-21.484,0.000
1714027498.671,-26.855,-28.320,-19.531,-18.555,0.000
1714027498.675,-26.855,-27.832,-28.320,-15.625,0.000
1714027498.679,-25.391,-31.250,-38.574,-17.578,0.000
1714027498.683,-21.484,-25.879,-37.109,-25.391,0.000
1714027498.687,-25.391,-25.391,-31.250,-21.484,0.000
1714027498.690,-27.344,-39.062,-26.367,-22.949,0.000
1714027498.694,-22.949,-31.738,-24.902,-25.879,0.000
1714027498.698,-29.785,-28.320,-34.180,-28.320,0.000
1714027498.702,-36.133,-36.621,-40.527,-28.320,0.000
1714027498.706,-21.484,-29.297,-35.156,-15.625,0.000
1714027498.710,-17.090,-21.973,-37.109,-13.672,0.000
1714027498.714,-30.273,-22.949,-37.109,-29.785,0.000
1714027498.718,-29.297,-16.602,-37.598,-40.527,0.000
1714027498.722,-28.809,-19.043,-47.852,-37.598,0.000
1714027498.726,-26.855,-25.391,-41.016,-38.086,0.000
1714027498.729,-21.484,-27.344,-38.086,-40.039,0.000
1714027498.733,-14.648,-25.879,-47.363,-40.039,0.000
1714027498.737,-5.859,-22.949,-37.598,-37.598,0.000
1714027498.741,-2.441,-24.902,-32.227,-29.785,0.000
1714027498.745,-7.324,-27.344,-35.645,-26.855,0.000
1714027498.749,-15.625,-25.879,-29.785,-30.273,0.000
1714027498.753,-18.066,-23.926,-20.996,-24.902,0.000
1714027498.757,-31.250,-26.367,-31.738,-23.926,0.000
1714027498.761,-46.875,-36.621,-48.340,-37.109,0.000
1714027498.764,-41.504,-40.039,-35.645,-27.832,0.000
1714027498.768,-34.180,-36.621,-34.180,-20.996,0.000
1714027498.772,-31.738,-27.832,-41.016,-22.949,0.000
1714027498.776,-32.715,-19.531,-36.133,-16.113,0.000
1714027498.780,-33.691,-20.996,-24.902,-21.484,0.000
1714027498.784,-35.156,-25.879,-25.879,-33.203,0.000
1714027498.788,-42.969,-34.668,-39.551,-41.504,0.000
1714027498.792,-45.410,-39.551,-40.527,-43.945,0.000
1714027498.796,-36.621,-37.109,-35.156,-31.250,0.000
1714027498.799,-29.785,-31.250,-31.738,-29.297,0.000
1714027498.803,-32.715,-27.832,-29.785,-32.227,0.000
1714027498.807,-33.691,-24.902,-28.320,-29.785,0.000
1714027498.811,-26.855,-19.531,-18.555,-19.043,0.000
1714027498.815,-24.902,-20.508,-17.578,-17.578,0.000
1714027498.819,-22.461,-28.320,-28.809,-20.996,0.000
1714027498.823,-21.484,-25.391,-37.109,-23.438,0.000
1714027498.827,-28.320,-25.879,-37.109,-29.785,0.000
1714027498.831,-23.926,-29.785,-34.180,-30.762,0.000
1714027498.835,-16.113,-27.832,-25.391,-25.391,0.000
1714027498.839,-22.949,-28.320,-20.996,-21.973,0.000
1714027498.842,-29.785,-26.367,-20.508,-21.973,0.000
1714027498.846,-22.461,-22.461,-24.902,-16.113,0.000
1714027498.850,-18.555,-23.926,-32.227,-16.602,0.000
1714027498.854,-24.414,-28.320,-26.855,-25.391,0.000
1714027498.858,-28.809,-25.391,-24.902,-30.762,0.000
1714027498.862,-24.414,-25.391,-22.461,-21.484,0.000
1714027498.866,-24.414,-36.621,-17.578,-17.090,0.000
1714027498.870,-24.902,-30.273,-12.695,-24.902,0.000
1714027498.874,-27.832,-25.879,-20.508,-28.320,0.000
1714027498.878,-32.227,-31.738,-33.203,-27.832,0.000
1714027498.882,-28.320,-25.879,-24.902,-18.066,0.000
1714027498.886,-28.320,-22.461,-16.113,-21.484,0.000
1714027498.889,-33.203,-23.926,-22.461,-31.738,0.000
1714027498.893,-32.715,-26.855,-25.879,-30.762,0.000
1714027498.897,-23.438,-23.926,-18.555,-23.438,0.000
1714027498.901,-22.949,-24.414,-18.066,-29.297,0.000
1714027498.905,-26.855,-31.250,-20.508,-31.250,0.000
1714027498.909,-23.438,-27.344,-24.414,-27.344,0.000
1714027498.913,-28.320,-25.391,-30.762,-25.879,0.000
1714027498.917,-34.180,-25.391,-31.250,-21.973,0.000
1714027498.921,-28.809,-28.320,-26.855,-26.855,0.000
1714027498.925,-25.879,-31.250,-25.879,-19.043,0.000
1714027498.929,-27.832,-26.855,-24.414,-15.137,0.000
1714027498.932,-29.785,-30.273,-16.602,-26.367,0.000
1714027498.936,-31.738,-35.156,-19.531,-27.832,0.000
1714027498.940,-31.738,-38.086,-32.715,-26.855,0.000
1714027498.944,-32.227,-29.297,-34.180,-31.738,0.000
1714027498.948,-31.250,-25.391,-22.949,-35.645,0.000
1714027498.952,-31.250,-34.668,-23.438,-34.180,0.000
1714027498.956,-36.133,-35.645,-27.344,-31.250,0.000
1714027498.960,-29.785,-26.367,-15.625,-23.926,0.000
1714027498.964,-25.879,-19.531,-15.625,-26.367,0.000
1714027498.968,-30.762,-24.902,-29.785,-33.203,0.000
1714027498.972,-26.367,-31.738,-29.785,-25.879,0.000
1714027498.976,-18.555,-27.344,-22.949,-22.949,0.000
1714027498.979,-21.484,-24.414,-20.996,-29.785,0.000
1714027498.983,-28.320,-29.297,-23.438,-26.367,0.000
1714027498.987,-31.250,-31.250,-29.297,-24.902,0.000
1714027498.991,-35.645,-26.367,-25.879,-27.344,0.000
1714027498.995,-30.273,-21.973,-26.367,-22.461,0.000
1714027498.999,-23.926,-21.484,-26.855,-19.531,0.000
1714027499.003,-27.344,-23.438,-25.391,-24.414,0.000
1714027499.007,-31.250,-23.926,-24.902,-25.879,0.000
1714027499.011,-33.203,-22.949,-20.508,-24.414,0.000
1714027499.015,-29.785,-19.531,-29.297,-24.414,0.000
1714027499.019,-25.879,-20.020,-32.227,-24.414,0.000
1714027499.022,-28.320,-20.996,-20.508,-25.879,0.000
1714027499.026,-30.273,-21.484,-9.766,-23.438,0.000
1714027499.030,-33.691,-28.809,-20.508,-28.809,0.000
1714027499.034,-37.109,-27.832,-36.133,-30.273,0.000
1714027499.038,-37.109,-27.832,-29.785,-31.250,0.000
1714027499.042,-35.156,-29.785,-28.320,-28.809,0.000
1714027499.046,-34.668,-27.344,-29.297,-22.461,0.000
1714027499.050,-32.715,-25.391,-18.555,-28.320,0.000
1714027499.054,-28.809,-21.484,-19.531,-31.738,0.000
1714027499.058,-30.762,-19.043,-23.438,-27.344,0.000
1714027499.062,-39.551,-24.902,-24.902,-27.344,0.000
1714027499.066,-36.133,-28.809,-31.250,-29.297,0.000
1714027499.070,-21.484,-29.785,-34.668,-20.508,0.000
1714027499.074,-28.809,-29.785,-33.691,-18.066,0.000
1714027499.077,-41.504,-28.320,-24.902,-32.227,0.000
1714027499.081,-36.133,-23.438,-25.391,-31.738,0.000
1714027499.085,-29.785,-20.508,-19.043,-16.602,0.000
1714027499.089,-38.086,-25.879,-20.996,-20.020,0.000
1714027499.093,-36.621,-30.762,-31.250,-19.043,0.000
1714027499.097,-27.832,-29.297,-26.855,-12.695,0.000
1714027499.101,-31.738,-32.227,-27.832,-19.531,0.000
1714027499.105,-39.062,-36.133,-36.133,-22.461,0.000
1714027499.109,-36.133,-29.297,-33.691,-16.602,0.000
1714027499.112,-27.344,-20.020,-20.508,-19.531,0.000
1714027499.116,-31.250,-22.461,-12.695,-32.715,0.000
1714027499.120,-30.762,-27.832,-15.137,-24.902,0.000
1714027499.124,-32.227,-24.414,-27.344,-20.020,0.000
1714027499.128,-41.504,-23.926,-31.738,-29.785,0.000
1714027499.132,-38.086,-25.391,-32.227,-30.762,0.000
1714027499.136,-33.203,-21.973,-23.926,-28.809,0.000
1714027499.140,-32.715,-21.484,-13.184,-27.344,0.000
1714027499.144,-33.691,-27.832,-21.973,-27.832,0.000
1714027499.148,-32.227,-29.785,-25.879,-28.809,0.000
1714027499.151,-31.250,-26.367,-27.832,-26.855,0.000
1714027499.155,-35.156,-22.949,-33.203,-23.438,0.000
1714027499.159,-34.668,-23.926,-39.062,-23.926,0.000
1714027499.163,-32.715,-24.902,-34.668,-22.949,0.000
1714027499.167,-28.809,-24.414,-22.949,-25.391,0.000
1714027499.171,-28.809,-29.297,-24.902,-21.973,0.000
1714027499.175,-27.832,-30.762,-27.344,-20.020,0.000
1714027499.179,-28.809,-30.273,-27.344,-30.762,0.000
1714027499.183,-35.156,-30.273,-37.109,-41.016,0.000
1714027499.186,-30.762,-26.855,-41.016,-31.738,0.000
1714027499.190,-24.414,-22.461,-33.203,-21.484,0.000
1714027499.194,-29.785,-29.297,-28.320,-18.066,0.000
1714027499.198,-29.785,-32.715,-19.531,-17.090,0.000
1714027499.202,-25.879,-21.484,-20.508,-21.484,0.000
1714027499.206,-33.691,-21.484,-30.762,-24.902,0.000
1714027499.210,-38.574,-31.738,-37.109,-32.715,0.000
1714027499.214,-35.156,-30.762,-36.133,-33.203,0.000
1714027499.218,-38.574,-35.645,-30.762,-31.738,0.000
1714027499.222,-37.109,-38.086,-31.738,-27.344,0.000
1714027499.226,-33.691,-25.391,-31.738,-24.414,0.000
1714027499.230,-32.227,-20.996,-29.297,-28.809,0.000
1714027499.233,-29.297,-24.902,-28.320,-36.621,0.000
1714027499.237,-25.879,-20.996,-27.832,-32.227,0.000
1714027499.241,-28.320,-21.973,-22.461,-19.531,0.000
1714027499.245,-27.832,-21.484,-15.137,-19.531,0.000
1714027499.249,-22.949,-13.184,-19.531,-19.043,0.000
1714027499.253,-23.926,-21.973,-19.531,-16.602,0.000
1714027499.257,-28.809,-29.297,-19.043,-21.484,0.000
1714027499.261,-30.762,-23.926,-20.508,-21.484,0.000
1714027499.265,-35.645,-25.391,-25.879,-18.555,0.000
1714027499.269,-37.109,-30.762,-31.250,-28.320,0.000
1714027499.273,-33.691,-27.344,-22.461,-32.227,0.000
1714027499.277,-34.180,-24.414,-19.531,-32.227,0.000
1714027499.280,-38.086,-27.344,-24.414,-36.621,0.000
1714027499.284,-35.645,-24.414,-23.926,-28.809,0.000
1714027499.288,-24.902,-19.531,-26.855,-21.973,0.000
1714027499.292,-26.367,-21.973,-26.367,-20.996,0.000
1714027499.296,-32.715,-20.508,-26.855,-22.461,0.000
1714027499.300,-27.832,-23.438,-32.227,-22.949,0.000
1714027499.304,-28.320,-30.762,-32.227,-24.414,0.000
1714027499.308,-36.621,-30.762,-27.832,-29.297,0.000
1714027499.312,-38.574,-33.691,-27.832,-30.762,0.000
1714027499.316,-33.691,-30.762,-29.297,-33.203,0.000
1714027499.320,-30.762,-22.461,-23.926,-32.715,0.000
1714027499.323,-34.180,-20.020,-26.367,-34.180,0.000
1714027499.327,-32.715,-19.531,-30.273,-30.762,0.000
1714027499.331,-29.785,-22.461,-28.809,-27.344,0.000
1714027499.335,-30.273,-31.250,-20.508,-21.973,0.000
1714027499.339,-40.039,-36.133,-27.832,-25.391,0.000
1714027499.343,-41.504,-30.762,-42.480,-26.367,0.000
1714027499.347,-38.086,-31.250,-37.598,-19.531,0.000
1714027499.351,-38.086,-26.367,-32.715,-26.367,0.000
1714027499.355,-31.250,-24.414,-33.691,-27.344,0.000
1714027499.359,-27.344,-25.879,-26.855,-22.461,0.000
1714027499.363,-31.738,-22.949,-20.508,-22.461,0.000
1714027499.366,-37.598,-23.438,-27.832,-35.645,0.000
1714027499.370,-34.180,-24.414,-33.691,-32.227,0.000
1714027499.374,-37.109,-29.297,-34.180,-20.020,0.000
1714027499.378,-37.109,-26.367,-26.367,-18.555,0.000
1714027499.382,-29.785,-23.438,-20.996,-19.531,0.000
1714027499.386,-27.832,-26.367,-20.020,-24.902,0.000
1714027499.390,-21.973,-25.879,-20.020,-16.602,0.000
1714027499.394,-20.508,-26.855,-15.137,-9.766,0.000
1714027499.398,-26.367,-31.738,-16.113,-17.090,0.000
1714027499.402,-25.879,-21.484,-28.320,-22.949,0.000
1714027499.405,-20.508,-15.625,-25.391,-17.578,0.000
1714027499.409,-18.555,-24.902,-23.438,-18.066,0.000
1714027499.413,-17.090,-24.414,-22.949,-26.367,0.000
1714027499.417,-14.648,-21.973,-18.555,-24.902,0.000
1714027499.421,-19.531,-23.926,-24.902,-24.902,0.000
1714027499.425,-22.461,-26.367,-23.438,-20.508,0.000
1714027499.429,-23.438,-23.438,-24.414,-23.926,0.000
1714027499.433,-23.438,-22.949,-33.203,-30.762,0.000
1714027499.437,-25.391,-22.949,-28.809,-22.949,0.000
1714027499.441,-26.367,-13.184,-18.066,-22.461,0.000
1714027499.444,-18.066,-14.160,-18.066,-25.879,0.000
1714027499.448,-19.531,-25.879,-24.414,-25.391,0.000
1714027499.452,-23.438,-26.855,-31.250,-29.785,0.000
1714027499.456,-22.949,-20.996,-27.344,-30.762,0.000
1714027499.460,-23.926,-16.602,-26.367,-26.367,0.000
1714027499.464,-25.391,-20.508,-32.227,-29.785,0.000
1714027499.468,-24.902,-19.043,-32.227,-34.180,0.000
1714027499.472,-24.414,-11.719,-31.738,-30.762,0.000
1714027499.476,-32.715,-16.602,-35.156,-28.320,0.000
1714027499.480,-35.156,-30.273,-38.086,-29.297,0.000
1714027499.483,-37.598,-30.273,-43.945,-35.645,0.000
1714027499.487,-40.039,-21.973,-37.598,-41.016,0.000
1714027499.491,-28.320,-20.508,-33.203,-34.668,0.000
1714027499.495,-23.438,-18.555,-36.621,-30.273,0.000
1714027499.499,-23.438,-17.578,-30.273,-32.227,0.000
1714027499.503,-23.438,-18.066,-33.691,-33.691,0.000
1714027499.507,-29.297,-16.602,-33.203,-32.227,0.000
1714027499.511,-34.180,-22.949,-35.156,-32.715,0.000
1714027499.515,-34.668,-35.645,-40.527,-27.832,0.000
1714027499.519,-30.762,-28.320,-35.156,-26.855,0.000
1714027499.522,-29.297,-22.949,-28.320,-30.273,0.000
1714027499.526,-30.273,-25.391,-30.762,-21.973,0.000
1714027499.530,-32.227,-22.949,-24.902,-26.855,0.000
1714027499.534,-33.691,-25.391,-19.531,-35.156,0.000
1714027499.538,-28.809,-23.438,-27.832,-32.715,0.000
1714027499.542,-24.414,-15.137,-28.809,-26.855,0.000
1714027499.546,-27.344,-23.926,-31.250,-27.832,0.000
1714027499.550,-27.832,-30.762,-34.668,-33.203,0.000
1714027499.554,-24.902,-20.508,-27.832,-24.414,0.000
1714027499.557,-31.250,-22.949,-28.320,-24.902,0.000
1714027499.561,-31.738,-26.855,-31.738,-25.391,0.000
1714027499.565,-26.855,-24.414,-33.691,-22.461,0.000
1714027499.569,-19.531,-24.902,-36.621,-23.438,0.000
1714027499.573,-11.719,-19.531,-39.062,-19.531,0.000
1714027499.577,-7.812,-17.578,-34.668,-28.809,0.000
1714027499.581,-1.953,-20.996,-24.902,-36.621,0.000
1714027499.585,3.906,-25.879,-27.344,-31.250,0.000
1714027499.589,-2.930,-23.438,-35.156,-18.066,0.000
1714027499.593,-15.625,-19.043,-33.203,-15.625,0.000
1714027499.597,-16.113,-25.391,-35.156,-15.625,0.000
1714027499.601,-13.184,-25.391,-41.504,-13.672,0.000
1714027499.604,-27.344,-26.855,-41.016,-17.090,0.000
1714027499.608,-48.828,-35.645,-38.086,-22.949,0.000
1714027499.612,-49.805,-34.668,-29.297,-25.391,0.000
1714027499.616,-44.434,-36.133,-28.320,-26.855,0.000
1714027499.620,-44.434,-39.551,-33.203,-32.227,0.000
1714027499.624,-44.434,-36.133,-32.227,-34.180,0.000
1714027499.628,-35.156,-32.715,-33.203,-15.137,0.000
1714027499.632,-30.762,-31.738,-28.320,-6.348,0.000
1714027499.636,-35.645,-28.320,-22.461,-13.184,0.000
1714027499.640,-38.574,-28.809,-23.438,-19.043,0.000
1714027499.644,-41.504,-31.250,-25.879,-20.508,0.000
1714027499.648,-36.133,-32.715,-20.020,-19.043,0.000
1714027499.651,-36.133,-33.203,-20.020,-23.438,0.000
1714027499.655,-37.598,-32.715,-21.973,-20.996,0.000
1714027499.659,-29.297,-26.855,-21.484,-15.137,0.000
1714027499.663,-20.508,-19.531,-22.949,-18.066,0.000
1714027499.667,-22.461,-16.602,-26.367,-26.367,0.000
1714027499.671,-22.949,-20.020,-26.367,-27.344,0.000
1714027499.675,-17.090,-21.484,-30.762,-20.508,0.000
1714027499.679,-20.508,-17.090,-30.762,-18.555,0.000
1714027499.683,-22.461,-19.043,-23.438,-26.855,0.000
1714027499.687,-17.578,-29.297,-26.855,-28.809,0.000
1714027499.691,-19.531,-22.461,-27.344,-33.691,0.000
1714027499.694,-25.879,-19.531,-34.180,-41.016,0.000
1714027499.698,-30.762,-26.367,-42.480,-35.645,0.000
1714027499.702,-26.367,-23.926,-36.133,-28.809,0.000
1714027499.706,-16.602,-17.578,-22.949,-28.320,0.000
1714027499.710,-13.672,-18.066,-19.043,-27.344,0.000
1714027499.714,-11.230,-18.066,-20.020,-21.484,0.000
1714027499.718,-18.555,-20.020,-23.926,-20.996,0.000
1714027499.722,-24.414,-23.926,-31.738,-19.531,0.000
1714027499.726,-26.367,-28.320,-37.598,-24.414,0.000
1714027499.730,-32.227,-27.344,-31.738,-35.156,0.000
1714027499.734,-33.203,-20.508,-24.902,-34.668,0.000
1714027499.737,-34.180,-26.855,-22.461,-34.668,0.000
1714027499.741,-33.691,-31.738,-25.391,-34.668,0.000
1714027499.745,-24.902,-25.391,-22.949,-24.902,0.000
1714027499.749,-21.973,-26.367,-22.461,-25.391,0.000
1714027499.753,-27.344,-28.809,-35.645,-33.203,0.000
1714027499.757,-28.809,-27.344,-38.574,-22.461,0.000
1714027499.761,-30.762,-30.273,-30.273,-18.066,0.000
1714027499.765,-30.762,-32.227,-25.879,-20.996,0.000
1714027499.769,-24.902,-28.809,-24.414,-14.160,0.000
1714027499.773,-24.414,-21.484,-23.438,-19.043,0.000
1714027499.776,-21.484,-20.020,-26.367,-11.719,0.000
1714027499.780,-18.066,-18.066,-24.902,-9.277,0.000
1714027499.784,-20.996,-17.090,-21.973,-18.066,0.000
1714027499.788,-23.438,-21.484,-25.391,-20.020,0.000
1714027499.792,-24.902,-31.738,-26.367,-25.879,0.000
1714027499.796,-23.438,-29.785,-28.320,-24.414,0.000
1714027499.800,-19.043,-22.461,-26.855,-24.902,0.000
1714027499.804,-18.555,-22.949,-16.113,-27.344,0.000
1714027499.808,-24.414,-22.949,-26.367,-26.855,0.000
1714027499.812,-26.367,-27.344,-37.109,-18.066,0.000
1714027499.816,-28.809,-32.227,-31.738,-15.625,0.000
1714027499.819,-27.344,-20.508,-21.973,-23.926,0.000
1714027499.823,-24.902,-13.672,-18.066,-23.926,0.000
1714027499.827,-27.832,-18.555,-22.461,-27.344,0.000
1714027499.831,-27.832,-17.578,-25.879,-31.738,0.000
1714027499.835,-23.438,-20.020,-31.250,-26.855,0.000
1714027499.839,-26.367,-20.020,-37.598,-25.391,0.000
1714027499.843,-26.367,-16.113,-35.645,-21.484,0.000
1714027499.847,-23.438,-18.555,-30.273,-15.625,0.000
1714027499.851,-23.438,-20.996,-26.367,-20.996,0.000
1714027499.855,-21.484,-19.043,-31.250,-14.648,0.000
1714027499.858,-17.090,-19.043,-26.367,-3.418,0.000
1714027499.862,-22.949,-24.414,-14.160,-20.996,0.000
1714027499.866,-32.227,-31.738,-23.926,-30.762,0.000
1714027499.870,-32.227,-27.344,-37.109,-32.227,0.000
1714027499.874,-29.785,-21.973,-36.621,-35.156,0.000
1714027499.878,-29.297,-21.973,-28.809,-26.855,0.000
1714027499.882,-32.715,-22.949,-22.461,-22.949,0.000
1714027499.886,-34.668,-23.438,-30.762,-32.227,0.000
1714027499.890,-33.691,-20.996,-36.133,-33.691,0.000
1714027499.893,-30.762,-19.531,-26.855,-23.926,0.000
1714027499.897,-31.250,-24.902,-13.672,-29.297,0.000
1714027499.901,-32.715,-31.250,-18.066,-33.203,0.000
1714027499.905,-33.203,-36.133,-31.250,-31.250,0.000
1714027499.909,-32.715,-32.227,-32.715,-33.203,0.000
1714027499.913,-22.461,-28.320,-27.344,-28.809,0.000
1714027499.917,-19.531,-28.320,-30.273,-24.414,0.000
1714027499.921,-28.320,-21.484,-33.203,-26.855,0.000
1714027499.925,-29.297,-20.020,-21.484,-28.320,0.000
1714027499.928,-18.066,-31.738,-20.508,-19.043,0.000
1714027499.932,-15.137,-35.645,-30.273,-16.602,0.000
1714027499.936,-26.367,-22.949,-32.227,-28.809,0.000
1714027499.940,-31.738,-18.555,-28.320,-33.691,0.000
1714027499.944,-32.227,-23.438,-34.180,-31.250,0.000
1714027499.948,-27.832,-19.531,-34.668,-24.414,0.000
1714027499.952,-24.414,-17.090,-23.438,-24.902,0.000
1714027499.956,-24.414,-16.113,-25.879,-24.902,0.000
1714027499.960,-35.645,-19.531,-34.668,-28.809,0.000
1714027499.964,-38.574,-29.785,-35.156,-34.668,0.000
1714027499.968,-32.227,-33.203,-33.203,-27.832,0.000
1714027499.972,-32.715,-34.668,-36.133,-27.344,0.000
1714027499.975,-26.855,-29.785,-32.715,-27.832,0.000
1714027499.979,-21.973,-23.438,-25.391,-26.367,0.000
1714027499.983,-26.367,-20.020,-24.902,-28.809,0.000
1714027499.987,-20.508,-13.184,-20.508,-17.090,0.000
1714027499.991,-21.484,-16.602,-29.785,-21.484,0.000
1714027499.995,-29.297,-27.344,-38.086,-32.715,0.000
1714027499.999,-23.438,-30.273,-33.203,-25.879,0.000
1714027500.003,-18.555,-26.367,-27.832,-12.695,0.000
1714027500.007,-20.020,-27.832,-34.180,-11.230,0.000
1714027500.011,-21.484,-26.855,-34.180,-23.926,0.000
1714027500.015,-22.461,-17.578,-32.227,-38.574,0.000
1714027500.019,-23.926,-16.602,-26.855,-33.691,0.000
1714027500.022,-28.809,-24.414,-25.879,-27.344,0.000
1714027500.026,-29.297,-30.273,-41.504,-34.180,0.000
1714027500.030,-35.645,-30.762,-44.922,-39.551,0.000
1714027500.034,-37.109,-27.832,-37.598,-31.250,0.000
1714027500.038,-22.949,-24.414,-29.297,-20.996,0.000
1714027500.042,-17.090,-20.508,-24.414,-20.508,0.000
1714027500.046,-14.648,-20.996,-20.996,-17.090,0.000
1714027500.050,-11.230,-17.578,-18.066,-8.789,0.000
1714027500.054,-18.066,-20.996,-23.926,-20.508,0.000
1714027500.058,-22.461,-25.391,-29.297,-26.367,0.000
1714027500.062,-24.414,-19.531,-33.203,-20.020,0.000
1714027500.065,-28.320,-15.625,-32.715,-26.367,0.000
1714027500.069,-28.809,-20.020,-30.762,-26.855,0.000
1714027500.073,-29.297,-20.996,-26.855,-30.762,0.000
1714027500.077,-34.668,-23.438,-25.879,-34.668,0.000
1714027500.081,-37.598,-25.879,-30.762,-35.156,0.000
1714027500.085,-37.598,-16.602,-41.504,-38.574,0.000
1714027500.089,-36.621,-15.625,-41.992,-37.598,0.000
1714027500.093,-36.133,-19.531,-30.273,-32.227,0.000
1714027500.097,-31.738,-21.973,-23.926,-27.344,0.000
1714027500.101,-31.738,-27.344,-28.809,-35.156,0.000
1714027500.105,-34.668,-27.344,-33.203,-38.086,0.000
1714027500.108,-29.785,-23.926,-26.855,-28.809,0.000
1714027500.112,-28.809,-27.344,-24.414,-31.250,0.000
1714027500.116,-30.762,-27.344,-23.926,-40.527,0.000
1714027500.120,-32.227,-25.391,-18.555,-38.574,0.000
1714027500.124,-26.855,-22.461,-21.484,-28.320,0.000
1714027500.128,-30.762,-21.973,-31.738,-34.180,0.000
1714027500.132,-31.250,-24.414,-28.809,-32.715,0.000
1714027500.136,-22.461,-25.879,-27.344,-26.855,0.000
1714027500.140,-18.555,-20.508,-22.949,-15.625,0.000
1714027500.144,-14.160,-20.508,-15.625,-11.719,0.000
1714027500.148,-18.555,-22.461,-15.625,-29.297,0.000
1714027500.151,-21.484,-26.855,-20.020,-30.762,0.000
1714027500.155,-25.879,-32.715,-25.391,-28.809,0.000
1714027500.159,-34.180,-28.809,-28.320,-32.227,0.000
1714027500.163,-32.715,-25.391,-28.809,-25.879,0.000
1714027500.167,-27.832,-27.344,-27.344,-24.902,0.000
1714027500.171,-24.902,-29.297,-22.949,-25.879,0.000
1714027500.175,-24.902,-26.367,-19.531,-22.949,0.000
1714027500.179,-23.438,-23.438,-16.602,-20.020,0.000
1714027500.183,-19.531,-27.832,-21.484,-28.809,0.000
1714027500.187,-18.555,-33.203,-26.367,-35.156,0.000
1714027500.190,-21.973,-28.809,-20.508,-30.762,0.000
1714027500.194,-25.391,-25.391,-21.484,-29.297,0.000
1714027500.198,-31.250,-27.344,-34.668,-35.156,0.000
1714027500.202,-34.180,-27.344,-32.227,-42.969,0.000
1714027500.206,-32.227,-29.785,-20.996,-40.527,0.000
1714027500.210,-35.156,-21.973,-24.902,-39.551,0.000
1714027500.214,-33.691,-21.973,-25.879,-36.133,0.000
1714027500.218,-33.691,-34.180,-25.391,-35.645,0.000
1714027500.222,-32.227,-33.203,-24.414,-33.203,0.000
1714027500.226,-29.785,-27.344,-21.973,-25.879,0.000
1714027500.229,-28.320,-21.484,-20.508,-21.973,0.000
1714027500.233,-30.273,-27.344,-10.254,-21.973,0.000
1714027500.237,-35.645,-36.133,-19.531,-36.133,0.000
1714027500.241,-37.598,-33.691,-29.785,-39.062,0.000
1714027500.245,-36.133,-29.785,-20.508,-33.203,0.000
1714027500.249,-32.227,-25.391,-23.926,-33.203,0.000
1714027500.253,-28.320,-21.484,-27.344,-33.691,0.000
1714027500.257,-28.320,-18.555,-21.973,-30.273,0.000
1714027500.261,-23.438,-13.672,-18.066,-32.227,0.000
1714027500.265,-24.414,-16.113,-15.137,-32.715,0.000
1714027500.268,-28.809,-19.531,-17.578,-31.738,0.000
1714027500.272,-25.391,-20.020,-19.531,-31.250,0.000
1714027500.276,-29.297,-19.043,-27.832,-28.320,0.000
1714027500.280,-29.785,-18.066,-28.320,-29.785,0.000
1714027500.284,-24.902,-23.438,-21.484,-22.461,0.000
1714027500.288,-22.461,-20.020,-20.508,-22.461,0.000
1714027500.292,-21.973,-14.648,-15.137,-32.715,0.000
1714027500.296,-25.391,-12.207,-13.672,-31.738,0.000
1714027500.299,-28.809,-18.555,-20.996,-26.855,0.000
1714027500.303,-31.738,-27.832,-31.738,-26.367,0.000
1714027500.307,-28.809,-22.949,-27.832,-28.809,0.000
1714027500.311,-25.879,-22.949,-16.602,-27.832,0.000
1714027500.315,-30.273,-25.879,-18.555,-29.297,0.000
1714027500.319,-36.621,-36.621,-23.926,-22.461,0.000
1714027500.323,-38.574,-40.527,-25.879,-13.672,0.000
1714027500.327,-35.156,-30.762,-26.855,-18.555,0.000
1714027500.331,-33.691,-29.785,-35.156,-21.973,0.000
1714027500.335,-29.785,-27.832,-42.480,-22.949,0.000
1714027500.339,-21.973,-23.926,-34.180,-18.555,0.000
1714027500.342,-28.320,-23.438,-23.438,-20.508,0.000
1714027500.347,-37.598,-27.344,-31.738,-29.297,0.000
1714027500.350,-37.598,-26.855,-34.668,-21.973,0.000
1714027500.354,-33.203,-25.391,-33.203,-22.949,0.000
1714027500.358,-30.762,-23.926,-33.203,-25.879,0.000
1714027500.362,-31.738,-21.973,-26.855,-26.855,0.000
1714027500.366,-27.344,-18.066,-23.438,-32.227,0.000
1714027500.370,-28.809,-17.090,-24.902,-33.691,0.000
1714027500.374,-30.762,-21.484,-26.367,-27.832,0.000
1714027500.378,-28.809,-17.578,-35.645,-29.297,0.000
1714027500.382,-24.414,-13.184,-39.062,-36.133,0.000
1714027500.386,-21.484,-20.996,-26.367,-35.645,0.000
1714027500.389,-26.367,-22.949,-24.902,-32.715,0.000
1714027500.393,-25.879,-18.555,-26.855,-23.438,0.000
1714027500.397,-23.438,-18.066,-19.531,-17.578,0.000
1714027500.401,-23.438,-26.367,-24.414,-21.973,0.000
1714027500.405,-17.578,-27.832,-30.273,-17.090,0.000
1714027500.409,-18.555,-23.438,-28.320,-11.230,0.000
1714027500.413,-20.508,-20.996,-25.391,-11.230,0.000
1714027500.417,-21.484,-15.137,-22.461,-17.578,0.000
1714027500.421,-22.949,-21.484,-23.438,-23.926,0.000
1714027500.425,-19.043,-32.227,-22.949,-16.113,0.000
1714027500.429,-20.508,-31.250,-27.344,-17.090,0.000
1714027500.433,-19.531,-17.578,-27.344,-24.414,0.000
1714027500.436,-20.020,-15.137,-20.508,-22.461,0.000
1714027500.440,-27.344,-21.973,-23.926,-23.438,0.000
1714027500.444,-28.320,-23.926,-28.320,-25.391,0.000
1714027500.448,-23.926,-23.438,-23.926,-26.367,0.000
1714027500.452,-22.949,-19.531,-25.391,-29.297,0.000
1714027500.456,-23.438,-23.438,-35.645,-27.832,0.000
1714027500.460,-24.414,-26.367,-30.273,-17.578,0.000
1714027500.464,-27.344,-26.367,-17.090,-21.484,0.000
1714027500.468,-28.809,-25.879,-29.297,-30.762,0.000
1714027500.472,-28.320,-25.391,-40.039,-16.602,0.000
1714027500.476,-28.320,-25.391,-21.484,-12.695,0.000
1714027500.479,-25.391,-23.438,-15.625,-21.484,0.000
1714027500.483,-25.879,-29.297,-31.738,-18.066,0.000
1714027500.487,-30.762,-29.297,-32.227,-18.555,0.000
1714027500.491,-31.738,-24.902,-29.785,-21.484,0.000
1714027500.495,-29.785,-22.461,-24.902,-21.484,0.000
1714027500.499,-28.809,-21.973,-18.066,-23.926,0.000
1714027500.503,-35.156,-28.809,-24.902,-26.367,0.000
1714027500.507,-44.922,-31.250,-29.785,-28.809,0.000
1714027500.511,-47.852,-28.809,-31.250,-32.715,0.000
1714027500.515,-31.250,-28.320,-32.227,-20.508,0.000
1714027500.519,-16.602,-34.668,-32.715,-10.254,0.000
1714027500.522,-32.715,-32.715,-31.738,-24.414,0.000
1714027500.526,-42.480,-23.926,-26.855,-32.227,0.000
1714027500.530,-33.691,-20.996,-27.832,-31.250,0.000
1714027500.534,-30.273,-16.113,-35.156,-33.691,0.000
1714027500.538,-35.645,-19.043,-37.109,-39.551,0.000
1714027500.542,-35.645,-22.949,-38.574,-50.781,0.000
1714027500.546,-34.180,-16.113,-38.574,-52.734,0.000
1714027500.550,-33.691,-21.484,-38.086,-41.992,0.000
1714027500.554,-25.879,-25.391,-42.480,-41.016,0.000
1714027500.558,-16.602,-24.414,-37.598,-36.621,0.000
1714027500.562,-9.277,-26.367,-36.621,-27.832,0.000
1714027500.565,-5.371,-26.367,-34.180,-32.227,0.000
1714027500.569,-3.906,-23.926,-30.273,-34.668,0.000
1714027500.573,-7.812,-24.902,-36.621,-30.762,0.000
1714027500.577,-12.207,-22.461,-39.551,-29.785,0.000
1714027500.581,-14.648,-17.090,-38.086,-31.738,0.000
1714027500.585,-20.020,-21.973,-35.645,-34.668,0.000
1714027500.589,-31.250,-23.926,-36.133,-40.039,0.000
1714027500.593,-40.527,-24.902,-39.551,-37.109,0.000
1714027500.597,-36.133,-23.926,-37.598,-28.320,0.000
1714027500.601,-25.391,-27.344,-28.809,-25.879,0.000
1714027500.604,-26.855,-36.621,-35.156,-25.879,0.000
1714027500.608,-30.762,-34.180,-41.992,-26.367,0.000
1714027500.612,-33.691,-25.879,-33.203,-31.738,0.000
1714027500.616,-29.785,-26.855,-29.785,-32.715,0.000
1714027500.620,-25.879,-29.297,-31.250,-28.320,0.000
1714027500.624,-23.926,-28.809,-31.250,-24.414,0.000
1714027500.628,-24.902,-23.926,-32.715,-24.414,0.000
1714027500.632,-30.273,-26.367,-25.879,-26.367,0.000
1714027500.636,-34.668,-34.180,-24.902,-34.668,0.000
1714027500.639,-36.621,-33.203,-35.645,-35.156,0.000
1714027500.643,-38.086,-35.156,-27.832,-28.809,0.000
1714027500.647,-37.109,-33.203,-27.832,-25.391,0.000
1714027500.651,-28.809,-26.855,-35.645,-20.996,0.000
1714027500.655,-25.391,-20.020,-28.320,-18.066,0.000
1714027500.659,-31.250,-17.578,-30.762,-27.832,0.000
1714027500.663,-27.344,-21.973,-35.156,-23.926,0.000
1714027500.667,-23.438,-28.809,-30.762,-13.672,0.000
1714027500.671,-21.973,-26.367,-29.785,-18.066,0.000
1714027500.674,-23.926,-21.973,-26.367,-21.484,0.000
1714027500.678,-26.367,-30.762,-24.414,-24.902,0.000
1714027500.682,-23.926,-32.227,-26.367,-25.391,0.000
1714027500.686,-28.809,-36.133,-33.691,-22.461,0.000
1714027500.690,-29.297,-36.621,-38.086,-20.508,0.000
1714027500.694,-27.344,-27.832,-34.180,-21.973,0.000
1714027500.698,-32.715,-25.391,-37.109,-32.715,0.000
1714027500.702,-31.250,-26.855,-37.109,-34.180,0.000
1714027500.706,-27.832,-31.250,-29.297,-23.438,0.000
1714027500.710,-32.715,-31.250,-27.344,-19.531,0.000
1714027500.714,-33.203,-25.879,-29.785,-21.973,0.000
1714027500.717,-30.762,-23.438,-22.949,-23.438,0.000
1714027500.721,-37.598,-26.855,-24.414,-24.414,0.000
1714027500.725,-39.062,-25.391,-27.344,-25.391,0.000
1714027500.729,-30.762,-24.414,-20.508,-23.438,0.000
1714027500.733,-32.715,-22.949,-20.508,-28.809,0.000
1714027500.737,-34.180,-21.484,-29.785,-35.156,0.000
1714027500.741,-32.227,-17.090,-36.621,-36.133,0.000
1714027500.745,-32.227,-16.113,-24.902,-28.809,0.000
1714027500.749,-24.902,-18.555,-17.090,-23.926,0.000
1714027500.753,-18.066,-19.043,-18.555,-21.973,0.000
1714027500.757,-16.602,-16.602,-16.113,-8.789,0.000
1714027500.761,-21.484,-22.461,-18.555,-11.230,0.000
1714027500.764,-21.973,-24.414,-28.809,-21.484,0.000
1714027500.768,-20.020,-24.414,-34.668,-26.855,0.000
1714027500.772,-27.344,-33.203,-31.250,-30.762,0.000
1714027500.776,-31.250,-29.297,-23.438,-29.785,0.000
1714027500.780,-30.762,-23.438,-22.461,-29.785,0.000
1714027500.784,-27.832,-25.391,-18.066,-26.367,0.000
1714027500.788,-28.809,-21.973,-10.742,-29.297,0.000
1714027500.792,-28.809,-22.949,-21.484,-33.691,0.000
1714027500.796,-29.297,-27.344,-35.156,-38.086,0.000
1714027500.800,-33.691,-23.926,-42.969,-40.527,0.000
1714027500.804,-32.227,-29.785,-41.504,-30.762,0.000
1714027500.808,-25.391,-29.785,-32.227,-22.461,0.000
1714027500.811,-22.949,-17.578,-34.180,-25.879,0.000
1714027500.815,-20.020,-15.625,-21.484,-21.973,0.000
1714027500.819,-17.578,-19.531,-11.230,-18.555,0.000
1714027500.823,-20.996,-18.066,-27.832,-20.508,0.000
1714027500.827,-21.484,-26.367,-39.062,-16.602,0.000
1714027500.831,-22.949,-29.297,-35.645,-15.625,0.000
1714027500.835,-24.414,-17.578,-29.297,-20.508,0.000
1714027500.839,-26.367,-20.020,-30.273,-25.391,0.000
1714027500.843,-22.949,-26.367,-32.715,-25.879,0.000
1714027500.847,-18.555,-18.555,-24.902,-17.578,0.000
1714027500.851,-26.855,-22.949,-18.555,-19.043,0.000
1714027500.854,-30.273,-27.344,-26.855,-31.250,0.000
1714027500.858,-32.227,-24.414,-42.969,-30.273,0.000
1714027500.862,-37.109,-27.344,-39.062,-23.438,0.000
1714027500.866,-39.551,-29.785,-31.250,-20.020,0.000
1714027500.870,-34.180,-27.832,-33.691,-20.508,0.000
1714027500.874,-31.738,-25.391,-20.020,-20.020,0.000
1714027500.878,-32.227,-26.367,-10.254,-20.020,0.000
1714027500.882,-35.645,-27.832,-26.367,-36.133,0.000
1714027500.886,-40.039,-27.344,-38.574,-40.527,0.000
1714027500.890,-38.574,-28.320,-38.086,-30.762,0.000
1714027500.894,-38.574,-28.809,-33.691,-22.949,0.000
1714027500.897,-37.598,-19.531,-26.855,-23.438,0.000
1714027500.901,-34.668,-21.484,-28.809,-29.785,0.000
1714027500.905,-31.738,-26.367,-20.996,-23.926,0.000
1714027500.909,-34.668,-25.391,-20.020,-20.020,0.000
1714027500.913,-35.156,-23.438,-32.227,-24.902,0.000
1714027500.917,-36.133,-30.273,-31.738,-30.762,0.000
1714027500.921,-38.574,-35.156,-29.297,-34.668,0.000
1714027500.925,-37.109,-31.250,-26.367,-30.762,0.000
1714027500.929,-36.133,-28.809,-25.879,-25.879,0.000
1714027500.933,-34.180,-28.809,-19.043,-22.461,0.000
1714027500.936,-35.156,-36.133,-20.020,-21.484,0.000
1714027500.940,-27.832,-35.156,-31.738,-20.996,0.000
1714027500.944,-22.461,-33.691,-37.598,-20.020,0.000
1714027500.948,-37.598,-40.527,-39.062,-28.809,0.000
1714027500.952,-50.781,-47.363,-40.039,-33.203,0.000
1714027500.956,-45.410,-48.340,-35.645,-27.344,0.000
1714027500.960,-38.086,-43.945,-20.508,-21.484,0.000
1714027500.964,-42.969,-36.133,-16.113,-24.414,0.000
1714027500.968,-53.223,-30.762,-20.020,-30.762,0.000
1714027500.972,-48.828,-30.762,-16.113,-27.344,0.000
1714027500.975,-41.992,-33.691,-16.113,-25.879,0.000
1714027500.979,-43.945,-33.691,-26.855,-24.902,0.000
1714027500.983,-38.086,-27.344,-29.785,-20.020,0.000
1714027500.987,-26.367,-22.949,-21.484,-15.625,0.000
1714027500.991,-28.809,-23.438,-21.973,-18.066,0.000
1714027500.995,-34.180,-30.762,-30.762,-30.273,0.000
1714027500.999,-34.180,-32.227,-28.809,-33.691,0.000
1714027501.003,-33.203,-28.320,-27.344,-37.598,0.000
1714027501.007,-29.785,-31.250,-32.715,-38.574,0.000
1714027501.011,-32.715,-39.551,-36.133,-39.062,0.000
1714027501.014,-35.156,-30.762,-25.879,-33.203,0.000
1714027501.018,-34.668,-21.973,-26.855,-34.180,0.000
1714027501.022,-31.250,-30.762,-29.785,-39.062,0.000
1714027501.026,-37.598,-33.203,-22.949,-30.762,0.000
1714027501.030,-39.062,-32.715,-23.926,-31.738,0.000
1714027501.034,-33.203,-34.180,-30.762,-37.598,0.000
1714027501.038,-34.668,-31.250,-37.598,-37.109,0.000
1714027501.042,-36.133,-30.762,-43.457,-36.621,0.000
1714027501.046,-36.621,-33.691,-33.203,-35.645,0.000
1714027501.049,-32.227,-33.691,-23.926,-31.250,0.000
1714027501.053,-29.785,-35.156,-33.691,-31.738,0.000
1714027501.057,-33.691,-36.133,-34.180,-30.762,0.000
1714027501.061,-29.785,-35.645,-24.902,-28.809,0.000
1714027501.065,-20.020,-35.645,-29.785,-32.715,0.000
1714027501.069,-20.508,-26.855,-39.062,-33.203,0.000
1714027501.073,-29.785,-21.484,-34.180,-26.855,0.000
1714027501.077,-24.902,-25.391,-20.996,-26.855,0.000
1714027501.081,-20.020,-26.855,-22.949,-25.391,0.000
1714027501.085,-28.320,-25.879,-27.832,-26.367,0.000
1714027501.089,-31.738,-33.691,-23.438,-20.020,0.000
1714027501.092,-26.855,-29.297,-20.996,-11.719,0.000
1714027501.096,-23.926,-24.414,-23.926,-19.043,0.000
1714027501.100,-21.973,-24.414,-22.949,-24.414,0.000
1714027501.104,-28.320,-22.949,-33.691,-24.902,0.000
1714027501.108,-32.715,-26.367,-44.922,-26.855,0.000
1714027501.112,-28.809,-24.414,-29.785,-23.926,0.000
1714027501.116,-26.367,-21.973,-20.508,-18.555,0.000
1714027501.120,-31.250,-30.273,-19.043,-23.926,0.000
1714027501.124,-34.668,-28.320,-13.672,-33.203,0.000
1714027501.128,-31.738,-22.949,-20.508,-31.250,0.000
1714027501.132,-31.250,-25.391,-18.066,-20.996,0.000
1714027501.136,-31.250,-22.949,-19.043,-22.949,0.000
1714027501.139,-25.391,-26.855,-23.926,-27.344,0.000
1714027501.143,-24.414,-30.762,-24.902,-23.438,0.000
1714027501.147,-28.809,-26.367,-30.273,-27.344,0.000
1714027501.151,-30.273,-26.855,-18.066,-34.180,0.000
1714027501.155,-29.785,-27.832,-10.254,-32.715,0.000
1714027501.159,-27.832,-29.297,-27.832,-27.344,0.000
1714027501.163,-32.715,-41.016,-38.574,-26.855,0.000
1714027501.167,-29.785,-41.504,-29.785,-21.973,0.000
1714027501.171,-23.926,-30.273,-21.484,-20.508,0.000
1714027501.175,-28.320,-33.203,-26.367,-28.320,0.000
1714027501.179,-23.926,-30.762,-23.926,-29.785,0.000
1714027501.183,-19.043,-24.414,-13.672,-33.203,0.000
1714027501.186,-21.484,-25.391,-20.020,-37.109,0.000
1714027501.190,-25.879,-30.273,-39.062,-40.039,0.000
1714027501.194,-31.250,-32.715,-42.969,-40.039,0.000
1714027501.198,-34.668,-25.879,-36.133,-45.410,0.000
1714027501.202,-33.203,-23.438,-30.273,-46.387,0.000
1714027501.206,-34.668,-29.785,-28.320,-33.203,0.000
1714027501.210,-33.203,-27.832,-28.809,-24.902,0.000
1714027501.214,-28.809,-25.879,-17.090,-20.996,0.000
1714027501.218,-31.250,-27.832,-23.926,-24.902,0.000
1714027501.222,-34.668,-30.273,-41.016,-24.414,0.000
1714027501.226,-32.715,-29.785,-33.203,-28.320,0.000
1714027501.229,-32.227,-21.484,-22.461,-38.574,0.000
1714027501.233,-35.645,-19.043,-35.645,-41.992,0.000
1714027501.237,-26.367,-20.020,-35.645,-30.762,0.000
1714027501.241,-18.555,-23.926,-22.949,-21.973,0.000
1714027501.245,-19.531,-25.879,-31.738,-26.367,0.000
1714027501.249,-11.230,-17.090,-37.109,-22.949,0.000
1714027501.253,-8.789,-12.695,-33.203,-21.973,0.000
1714027501.257,-21.973,-24.902,-35.156,-26.367,0.000
1714027501.261,-27.344,-26.855,-37.109,-22.949,0.000
1714027501.265,-23.926,-21.484,-33.691,-27.344,0.000
1714027501.269,-27.832,-23.926,-36.133,-37.598,0.000
1714027501.272,-29.297,-17.090,-26.855,-38.574,0.000
1714027501.276,-28.809,-21.973,-21.973,-29.297,0.000
1714027501.280,-41.016,-32.715,-34.668,-24.414,0.000
1714027501.284,-45.410,-28.320,-33.203,-24.414,0.000
1714027501.288,-37.598,-24.414,-24.902,-24.414,0.000
1714027501.292,-38.574,-25.391,-22.949,-27.344,0.000
1714027501.296,-34.668,-31.250,-14.160,-22.949,0.000
1714027501.300,-34.668,-32.227,-19.043,-27.344,0.000
1714027501.304,-34.668,-26.367,-35.645,-33.691,0.000
1714027501.308,-24.414,-20.996,-31.738,-23.438,0.000
1714027501.311,-24.414,-25.879,-24.902,-12.207,0.000
1714027501.315,-24.902,-21.973,-26.855,-15.625,0.000
1714027501.319,-26.855,-17.578,-25.391,-20.020,0.000
1714027501.323,-30.273,-20.020,-20.020,-15.137,0.000
1714027501.327,-33.691,-21.973,-18.555,-17.090,0.000
1714027501.331,-36.133,-20.508,-30.273,-24.902,0.000
1714027501.335,-35.645,-18.555,-28.809,-33.691,0.000
1714027501.339,-29.785,-23.926,-28.320,-20.996,0.000
1714027501.343,-33.691,-29.785,-35.645,-11.719,0.000
1714027501.347,-37.598,-28.809,-32.227,-23.438,0.000
1714027501.350,-33.691,-26.367,-26.367,-26.855,0.000
1714027501.354,-33.203,-29.297,-27.344,-20.996,0.000
1714027501.358,-29.297,-23.926,-30.273,-14.648,0.000
1714027501.362,-25.879,-20.996,-22.949,-19.531,0.000
1714027501.366,-24.902,-26.367,-24.902,-20.020,0.000
1714027501.370,-26.855,-26.367,-30.762,-19.043,0.000
1714027501.374,-30.273,-25.879,-20.020,-30.762,0.000
1714027501.378,-29.785,-27.832,-14.160,-30.273,0.000
1714027501.382,-35.156,-34.180,-22.949,-33.691,0.000
1714027501.386,-38.086,-40.039,-25.879,-37.109,0.000
1714027501.389,-37.598,-35.645,-26.367,-37.109,0.000
1714027501.393,-40.527,-28.809,-33.203,-35.645,0.000
1714027501.397,-35.156,-26.855,-40.527,-29.297,0.000
1714027501.401,-31.250,-34.668,-40.527,-27.832,0.000
1714027501.405,-30.762,-34.668,-33.203,-22.461,0.000
1714027501.409,-27.344,-33.691,-28.320,-21.973,0.000
1714027501.413,-19.043,-30.762,-25.879,-21.484,0.000
1714027501.417,-26.367,-32.227,-21.484,-27.344,0.000
1714027501.421,-31.250,-29.785,-22.949,-33.203,0.000
1714027501.424,-37.109,-31.250,-38.086,-32.715,0.000
1714027501.428,-35.645,-33.691,-41.016,-28.320,0.000
1714027501.432,-28.320,-30.762,-37.598,-33.203,0.000
1714027501.436,-26.855,-32.715,-34.668,-36.133,0.000
1714027501.440,-14.160,-24.902,-28.809,-23.926,0.000
1714027501.444,-6.836,-26.367,-33.203,-23.438,0.000
1714027501.448,-6.348,-32.227,-38.086,-22.949,0.000
1714027501.452,-9.277,-31.250,-36.133,-26.855,0.000
1714027501.456,-15.137,-32.715,-40.527,-24.414,0.000
1714027501.460,-18.066,-32.227,-41.992,-14.160,0.000
1714027501.463,-17.578,-26.367,-36.621,-16.113,0.000
1714027501.467,-24.414,-28.809,-27.344,-20.996,0.000
1714027501.471,-32.227,-24.902,-23.438,-19.043,0.000
1714027501.475,-29.785,-21.484,-25.391,-19.531,0.000
1714027501.479,-21.973,-23.926,-12.695,-20.996,0.000
1714027501.483,-20.020,-22.461,-14.648,-22.461,0.000
1714027501.487,-23.926,-19.043,-33.203,-21.484,0.000
1714027501.491,-21.973,-18.555,-36.621,-20.996,0.000
1714027501.495,-14.160,-19.043,-20.996,-19.043,0.000
1714027501.499,-20.508,-14.648,-16.113,-21.973,0.000
1714027501.503,-28.809,-10.254,-29.297,-28.809,0.000
1714027501.507,-27.832,-21.484,-28.320,-22.949,0.000
1714027501.511,-31.738,-33.203,-21.484,-23.438,0.000
1714027501.514,-35.645,-29.297,-24.414,-31.250,0.000
1714027501.518,-34.180,-28.809,-31.738,-30.762,0.000
1714027501.522,-31.738,-32.715,-42.480,-33.691,0.000
1714027501.526,-34.668,-35.645,-41.016,-33.691,0.000
1714027501.530,-26.367,-34.668,-28.809,-30.762,0.000
1714027501.534,-21.484,-31.250,-28.320,-30.762,0.000
1714027501.538,-22.461,-24.414,-28.320,-30.762,0.000
1714027501.542,-22.461,-18.066,-22.461,-28.320,0.000
1714027501.546,-20.020,-24.902,-25.879,-24.414,0.000
1714027501.550,-19.531,-31.250,-33.691,-29.297,0.000
1714027501.554,-26.855,-30.273,-31.250,-32.227,0.000
1714027501.558,-25.879,-27.344,-22.949,-31.250,0.000
1714027501.561,-17.578,-24.414,-22.949,-30.273,0.000
1714027501.565,-20.996,-20.996,-22.949,-30.273,0.000
1714027501.569,-30.273,-20.020,-21.484,-27.344,0.000
1714027501.573,-31.738,-25.879,-26.367,-30.273,0.000
1714027501.577,-31.250,-30.273,-25.879,-26.367,0.000
1714027501.581,-25.391,-20.508,-22.949,-19.531,0.000
1714027501.585,-30.273,-25.391,-25.391,-26.367,0.000
1714027501.589,-37.109,-29.785,-29.297,-24.414,0.000
1714027501.593,-33.203,-24.902,-24.902,-11.719,0.000
1714027501.597,-34.668,-25.391,-17.090,-8.789,0.000
1714027501.601,-35.645,-27.832,-20.508,-24.414,0.000
1714027501.604,-31.738,-27.344,-22.949,-26.855,0.000
1714027501.608,-32.227,-25.879,-26.367,-13.184,0.000
1714027501.612,-35.645,-31.738,-30.762,-12.695,0.000
1714027501.616,-37.109,-32.715,-27.832,-23.926,0.000
1714027501.620,-34.180,-28.320,-31.250,-34.180,0.000
1714027501.624,-28.809,-28.320,-35.156,-33.203,0.000
1714027501.628,-27.832,-25.879,-35.645,-32.715,0.000
1714027501.632,-27.344,-24.902,-29.785,-31.738,0.000
1714027501.636,-25.879,-25.391,-22.949,-34.180,0.000
1714027501.640,-23.926,-22.461,-26.367,-27.832,0.000
1714027501.644,-23.926,-19.043,-31.738,-22.949,0.000
1714027501.647,-28.809,-21.484,-26.855,-43.457,0.000
1714027501.651,-28.809,-17.578,-27.344,-51.270,0.000
1714027501.655,-30.273,-20.020,-32.227,-43.945,0.000
1714027501.659,-32.227,-30.762,-32.227,-45.410,0.000
1714027501.663,-24.414,-26.367,-25.391,-37.598,0.000
1714027501.667,-21.484,-25.879,-29.785,-33.691,0.000
1714027501.671,-25.879,-29.785,-40.039,-38.574,0.000
1714027501.675,-29.297,-28.320,-32.715,-35.156,0.000
1714027501.679,-26.855,-29.297,-31.250,-33.691,0.000
1714027501.683,-26.367,-24.902,-35.156,-34.180,0.000
1714027501.686,-28.320,-19.531,-40.039,-31.250,0.000
1714027501.690,-29.785,-23.926,-35.645,-37.109,0.000
1714027501.694,-26.855,-22.461,-25.391,-39.062,0.000
1714027501.698,-22.461,-25.391,-22.949,-34.668,0.000
1714027501.702,-24.414,-28.320,-29.297,-33.691,0.000
1714027501.706,-24.414,-23.926,-32.715,-26.855,0.000
1714027501.710,-25.879,-24.414,-35.645,-22.949,0.000
1714027501.714,-24.902,-23.926,-39.551,-27.832,0.000
1714027501.718,-17.578,-17.090,-38.086,-29.785,0.000
1714027501.722,-11.230,-13.184,-33.691,-28.320,0.000
1714027501.725,-13.184,-15.137,-27.344,-30.762,0.000
1714027501.729,-21.973,-15.625,-25.879,-30.762,0.000
1714027501.733,-22.461,-19.531,-30.762,-24.902,0.000
1714027501.737,-23.926,-21.484,-23.926,-30.762,0.000
1714027501.741,-29.785,-25.879,-26.855,-37.109,0.000
1714027501.745,-33.203,-30.273,-39.551,-34.668,0.000
1714027501.749,-42.969,-27.832,-38.086,-34.180,0.000
1714027501.753,-44.922,-25.879,-28.809,-34.180,0.000
1714027501.757,-42.969,-20.996,-24.902,-38.574,0.000
1714027501.761,-42.480,-23.438,-25.391,-42.969,0.000
1714027501.764,-40.039,-31.250,-19.531,-41.992,0.000
1714027501.768,-41.504,-28.809,-26.367,-41.016,0.000
1714027501.772,-37.109,-28.809,-29.785,-40.527,0.000
1714027501.776,-37.598,-39.551,-23.438,-34.668,0.000
1714027501.780,-42.480,-38.086,-34.180,-32.227,0.000
1714027501.784,-38.086,-30.273,-38.086,-34.668,0.000
1714027501.788,-37.109,-28.809,-34.180,-35.156,0.000
1714027501.792,-39.062,-30.762,-32.227,-34.180,0.000
1714027501.796,-35.645,-27.344,-27.832,-25.391,0.000
1714027501.799,-33.691,-20.508,-19.043,-18.066,0.000
1714027501.803,-39.062,-24.414,-22.949,-24.414,0.000
1714027501.807,-44.434,-32.715,-34.180,-36.133,0.000
1714027501.811,-42.480,-22.949,-26.855,-38.086,0.000
1714027501.815,-41.504,-18.555,-22.461,-31.250,0.000
1714027501.819,-50.293,-34.668,-26.367,-27.344,0.000
1714027501.823,-53.223,-30.273,-20.508,-24.902,0.000
1714027501.827,-51.758,-20.508,-24.414,-27.344,0.000
1714027501.831,-46.387,-20.020,-29.297,-29.785,0.000
1714027501.835,-32.715,-19.043,-25.879,-21.973,0.000
1714027501.838,-28.320,-24.414,-28.320,-24.414,0.000
1714027501.842,-42.480,-15.137,-30.762,-50.293,0.000
1714027501.846,-56.641,-9.277,-24.902,-64.941,0.000
1714027501.850,-58.594,-22.461,-24.902,-61.523,0.000
1714027501.854,-49.805,-22.949,-22.461,-58.594,0.000
1714027501.858,-51.758,-25.391,-24.902,-57.129,0.000
1714027501.862,-65.430,-28.809,-39.062,-68.848,0.000
1714027501.866,-71.777,-20.020,-38.574,-81.055,0.000
1714027501.870,-77.637,-16.113,-33.691,-84.961,0.000
1714027501.874,-80.566,-16.602,-26.367,-77.637,0.000
1714027501.878,-80.078,-12.695,-22.949,-79.102,0.000
1714027501.882,-70.312,-13.672,-25.879,-83.008,0.000
1714027501.886,-59.082,-17.090,-28.320,-76.172,0.000
1714027501.889,-72.754,-24.414,-36.133,-85.938,0.000
1714027501.893,-81.543,-27.832,-32.715,-86.426,0.000
1714027501.897,-66.406,-15.137,-21.973,-67.383,0.000
1714027501.901,-55.176,-16.113,-29.297,-65.918,0.000
1714027501.905,-43.945,-20.508,-34.668,-59.570,0.000
1714027501.909,-40.527,-18.555,-34.668,-56.152,0.000
1714027501.913,-35.645,-19.043,-45.410,-52.734,0.000
1714027501.917,-32.715,-17.578,-50.781,-40.039,0.000
1714027501.921,-21.973,-20.996,-46.387,-35.645,0.000
1714027501.925,-1.953,-18.066,-49.316,-11.230,0.000
1714027501.929,9.277,-13.184,-45.898,4.883,0.000
1714027501.932,19.043,-19.043,-41.992,2.930,0.000
1714027501.936,24.902,-21.484,-46.387,6.836,0.000
1714027501.940,35.156,-18.555,-44.434,19.043,0.000
1714027501.944,43.457,-18.066,-51.270,24.414,0.000
1714027501.948,41.504,-18.066,-62.500,16.602,0.000
1714027501.952,38.086,-22.461,-61.035,15.137,0.000
1714027501.956,42.969,-23.438,-52.734,24.414,0.000
1714027501.960,50.781,-20.508,-52.246,41.016,0.000
1714027501.964,51.270,-12.695,-57.129,45.898,0.000
1714027501.968,50.781,-17.578,-51.270,40.527,0.000
1714027501.972,52.246,-30.273,-48.340,47.363,0.000
1714027501.976,50.293,-32.715,-43.457,49.316,0.000
1714027501.979,42.969,-38.086,-43.945,44.922,0.000
1714027501.983,38.574,-38.574,-51.270,43.945,0.000
1714027501.987,36.133,-33.691,-51.270,37.598,0.000
1714027501.991,39.551,-29.297,-50.781,41.504,0.000
1714027501.995,42.480,-25.879,-44.922,42.969,0.000
1714027501.999,43.945,-19.043,-34.668,38.574,0.000
1714027502.003,45.410,-19.043,-32.227,29.297,0.000
1714027502.007,34.180,-28.320,-37.598,24.902,0.000
1714027502.011,22.949,-35.645,-43.945,20.508,0.000
1714027502.015,25.879,-38.574,-37.598,21.484,0.000
1714027502.019,24.902,-33.691,-32.227,25.879,0.000
1714027502.022,13.184,-34.668,-33.691,8.789,0.000
1714027502.026,9.766,-35.645,-36.621,3.418,0.000
1714027502.030,7.812,-31.738,-33.203,4.883,0.000
1714027502.034,4.883,-29.297,-30.273,0.000,0.000
1714027502.038,0.488,-30.762,-31.738,-3.906,0.000
1714027502.042,2.930,-26.367,-21.973,2.441,0.000
1714027502.046,9.766,-24.902,-17.578,9.277,0.000
1714027502.050,7.812,-24.414,-20.020,3.418,0.000
1714027502.054,3.906,-24.414,-22.949,4.883,0.000
1714027502.058,2.930,-25.391,-25.879,3.418,0.000
1714027502.061,3.418,-27.832,-19.043,6.348,0.000
1714027502.065,1.465,-30.273,-21.973,6.836,0.000
1714027502.069,-5.371,-30.273,-29.297,-6.348,0.000
1714027502.073,-9.277,-31.250,-32.227,-0.977,0.000
1714027502.077,-4.883,-30.273,-32.715,5.859,0.000
1714027502.081,0.000,-29.297,-27.832,-1.953,0.000
1714027502.085,0.000,-30.762,-25.391,-5.859,0.000
1714027502.089,0.000,-33.691,-20.996,-4.883,0.000
1714027502.093,0.000,-31.738,-14.648,3.418,0.000
1714027502.097,0.000,-26.367,-16.113,6.836,0.000
1714027502.100,0.000,-27.832,-20.508,-5.371,0.000
1714027502.104,0.000,-33.691,-23.926,-8.301,0.000
1714027502.108,0.000,-32.227,-29.785,-6.836,0.000
1714027502.112,0.000,-26.855,-25.879,-10.254,0.000
1714027502.116,0.000,-28.809,-23.926,-14.648,0.000
1714027502.120,0.000,-31.250,-23.438,-17.090,0.000
1714027502.124,0.000,-24.414,-18.066,-8.301,0.000
1714027502.128,-14.648,-15.137,-12.207,-1.953,0.000
1714027502.132,-17.578,-19.531,-11.230,-10.742,0.000
1714027502.136,-20.996,-30.762,-20.508,-20.020,0.000
1714027502.139,-24.902,-30.273,-19.043,-17.578,0.000
1714027502.143,-31.250,-33.691,-16.602,-19.043,0.000
1714027502.147,-32.715,-35.645,-28.809,-21.484,0.000
1714027502.151,-29.297,-33.203,-28.809,-17.090,0.000
1714027502.155,-30.762,-29.785,-20.508,-20.020,0.000
1714027502.159,-35.156,-28.320,-20.508,-20.508,0.000
1714027502.163,-30.762,-27.344,-23.926,-19.043,0.000
1714027502.167,-28.809,-22.949,-23.438,-23.438,0.000
1714027502.171,-28.320,-24.414,-27.832,-25.879,0.000
1714027502.174,-25.879,-28.320,-33.691,-25.391,0.000
1714027502.178,-28.809,-31.738,-33.203,-25.879,0.000
1714027502.182,-24.414,-27.344,-26.855,-18.555,0.000
1714027502.186,-21.484,-29.785,-23.438,-20.996,0.000
1714027502.190,-29.297,-35.156,-26.855,-30.762,0.000
1714027502.194,-32.715,-34.180,-28.320,-26.367,0.000
1714027502.198,-27.832,-36.621,-31.250,-24.902,0.000
1714027502.202,-20.996,-34.180,-29.297,-26.855,0.000
1714027502.206,-19.043,-29.297,-25.391,-25.391,0.000
1714027502.210,-23.926,-26.855,-28.320,-20.996,0.000
1714027502.213,-27.344,-30.762,-27.832,-25.391,0.000
1714027502.217,-26.367,-32.715,-27.832,-33.203,0.000
1714027502.221,-31.738,-29.297,-31.738,-29.297,0.000
1714027502.225,-36.133,-33.691,-26.855,-29.297,0.000
1714027502.229,-32.227,-33.691,-22.949,-30.762,0.000
1714027502.233,-33.691,-31.738,-30.273,-32.715,0.000
1714027502.237,-33.691,-35.645,-31.738,-32.227,0.000
1714027502.241,-26.855,-32.715,-28.320,-31.250,0.000
1714027502.245,-22.461,-27.832,-30.273,-27.832,0.000
1714027502.249,-28.809,-29.297,-30.762,-26.855,0.000
1714027502.253,-33.691,-38.574,-22.949,-27.344,0.000
1714027502.257,-36.133,-39.062,-22.461,-25.391,0.000
1714027502.261,-36.621,-29.785,-26.367,-25.879,0.000
1714027502.264,-33.691,-32.227,-26.367,-26.855,0.000
1714027502.268,-30.762,-33.203,-25.879,-24.902,0.000
1714027502.272,-25.391,-31.738,-19.531,-16.113,0.000
1714027502.276,-24.902,-31.738,-12.207,-11.230,0.000
1714027502.280,-24.902,-21.973,-13.672,-16.113,0.000
1714027502.284,-26.855,-20.020,-19.531,-20.996,0.000
1714027502.288,-28.320,-26.367,-20.996,-24.414,0.000
1714027502.292,-27.344,-27.832,-18.555,-23.926,0.000
1714027502.296,-24.414,-26.367,-19.043,-23.438,0.000
1714027502.300,-20.020,-32.227,-23.926,-22.461,0.000
1714027502.304,-20.020,-33.203,-26.855,-22.461,0.000
1714027502.308,-18.066,-29.297,-23.438,-21.484,0.000
1714027502.311,-15.625,-22.461,-19.043,-17.578,0.000
1714027502.315,-16.113,-17.090,-13.672,-20.020,0.000
1714027502.319,-19.043,-23.438,-15.137,-25.879,0.000
1714027502.323,-16.602,-25.879,-19.531,-21.484,0.000
1714027502.327,-16.602,-25.391,-19.531,-22.461,0.000
1714027502.331,-19.043,-30.762,-16.113,-32.227,0.000
1714027502.335,-10.742,-28.809,-17.578,-31.250,0.000
1714027502.339,-2.930,-29.297,-18.555,-26.367,0.000
1714027502.343,1.953,-34.668,-20.996,-28.809,0.000
1714027502.347,4.883,-34.668,-34.180,-31.738,0.000
1714027502.351,2.441,-32.715,-32.227,-29.785,0.000
1714027502.354,-0.488,-28.320,-18.555,-20.508,0.000
1714027502.358,-20.508,-33.203,-21.484,-23.926,0.000
1714027502.362,-30.762,-37.109,-26.367,-27.832,0.000
1714027502.366,-28.320,-31.738,-21.973,-28.320,0.000
1714027502.370,-28.320,-25.879,-19.043,-36.133,0.000
1714027502.374,-34.668,-28.320,-25.391,-38.574,0.000
1714027502.378,-41.992,-29.785,-34.180,-38.574,0.000
1714027502.382,-40.039,-25.879,-30.762,-32.227,0.000
1714027502.386,-37.598,-31.738,-21.973,-30.762,0.000
1714027502.390,-36.621,-28.809,-18.066,-26.855,0.000
1714027502.394,-35.645,-22.949,-15.625,-20.996,0.000
1714027502.397,-37.109,-27.832,-23.438,-30.762,0.000
1714027502.401,-38.086,-26.367,-30.273,-31.738,0.000
1714027502.405,-36.621,-20.508,-24.902,-23.926,0.000
1714027502.409,-33.203,-19.043,-23.438,-24.902,0.000
1714027502.413,-28.809,-17.578,-19.531,-24.414,0.000
1714027502.417,-24.902,-16.602,-17.090,-23.438,0.000
1714027502.421,-31.738,-23.438,-23.438,-31.738,0.000
1714027502.425,-34.180,-24.902,-26.855,-30.273,0.000
1714027502.429,-28.320,-25.391,-24.414,-31.250,0.000
1714027502.433,-35.156,-27.832,-22.949,-35.156,0.000
1714027502.436,-45.410,-28.320,-29.297,-26.367,0.000
1714027502.440,-35.645,-24.414,-20.508,-14.648,0.000
1714027502.444,-27.832,-20.020,-18.555,-21.484,0.000
1714027502.448,-23.926,-22.949,-34.180,-21.484,0.000
1714027502.452,-13.672,-29.785,-37.598,-5.371,0.000
1714027502.456,-20.996,-30.273,-33.691,-14.160,0.000
1714027502.460,-40.039,-32.227,-29.297,-33.203,0.000
1714027502.464,-42.969,-40.527,-27.832,-32.715,0.000
1714027502.468,-44.434,-36.621,-27.344,-34.668,0.000
1714027502.472,-47.852,-28.809,-19.043,-50.293,0.000
1714027502.475,-52.246,-33.691,-19.531,-52.246,0.000
1714027502.479,-49.316,-37.598,-26.855,-36.621,0.000
1714027502.483,-41.016,-36.133,-22.461,-32.715,0.000
1714027502.487,-37.598,-41.504,-23.438,-39.551,0.000
1714027502.491,-35.156,-43.457,-34.180,-36.133,0.000
1714027502.495,-36.621,-33.203,-39.551,-31.250,0.000
1714027502.499,-32.227,-31.738,-42.969,-28.320,0.000
1714027502.503,-33.691,-34.180,-44.922,-40.039,0.000
1714027502.507,-36.133,-34.668,-38.086,-43.457,0.000
1714027502.511,-25.879,-33.691,-28.809,-25.391,0.000
1714027502.514,-14.648,-25.879,-17.578,-20.508,0.000
1714027502.518,-15.625,-23.926,-16.113,-30.762,0.000
1714027502.522,-21.484,-20.996,-29.785,-36.133,0.000
1714027502.526,-22.949,-24.414,-37.598,-33.691,0.000
1714027502.530,-25.879,-26.855,-32.227,-39.551,0.000
1714027502.534,-27.832,-24.902,-27.344,-41.016,0.000
1714027502.538,-29.785,-22.461,-38.086,-36.133,0.000
1714027502.542,-30.273,-21.973,-40.527,-40.039,0.000
1714027502.546,-24.902,-26.855,-30.273,-40.527,0.000
1714027502.549,-19.043,-31.250,-25.879,-41.992,0.000
1714027502.553,-15.137,-32.715,-22.461,-38.574,0.000
1714027502.557,-15.625,-26.855,-19.043,-30.762,0.000
1714027502.561,-14.648,-21.484,-22.949,-27.832,0.000
1714027502.565,-9.766,-18.066,-28.320,-28.320,0.000
1714027502.569,-9.766,-19.531,-26.855,-21.484,0.000
1714027502.573,-13.184,-20.508,-25.391,-18.066,0.000
1714027502.577,-19.043,-16.113,-23.438,-26.855,0.000
1714027502.581,-21.484,-11.719,-27.832,-26.855,0.000
1714027502.585,-21.973,-26.367,-33.691,-27.832,0.000
1714027502.588,-21.973,-38.574,-36.133,-30.762,0.000
1714027502.592,-22.461,-30.762,-31.738,-27.832,0.000
1714027502.596,-23.438,-24.414,-25.391,-21.973,0.000
1714027502.600,-31.738,-24.902,-30.762,-32.227,0.000
1714027502.604,-35.645,-28.320,-35.156,-38.574,0.000
1714027502.608,-32.227,-30.762,-38.086,-29.785,0.000
1714027502.612,-29.785,-30.762,-40.527,-31.738,0.000
1714027502.616,-27.832,-22.949,-36.133,-31.738,0.000
1714027502.620,-28.809,-18.555,-37.598,-30.273,0.000
1714027502.624,-24.902,-20.508,-37.109,-33.203,0.000
1714027502.628,-23.438,-27.832,-33.691,-38.086,0.000
1714027502.632,-28.320,-31.250,-37.598,-41.016,0.000
1714027502.636,-33.203,-22.949,-34.180,-44.434,0.000
1714027502.639,-31.738,-19.043,-23.926,-44.922,0.000
1714027502.643,-30.273,-26.367,-26.855,-34.180,0.000
1714027502.647,-28.809,-26.855,-29.785,-32.227,0.000
1714027502.651,-32.715,-24.414,-33.203,-38.574,0.000
1714027502.655,-31.250,-15.625,-38.574,-30.273,0.000
1714027502.659,-35.156,-22.461,-38.086,-24.414,0.000
1714027502.663,-37.109,-30.762,-35.645,-27.344,0.000
1714027502.667,-24.414,-25.879,-27.344,-26.855,0.000
1714027502.671,-26.855,-28.320,-25.879,-29.297,0.000
1714027502.675,-28.809,-31.250,-23.926,-22.949,0.000
1714027502.679,-31.738,-34.180,-22.949,-18.066,0.000
1714027502.683,-42.480,-37.109,-32.227,-28.320,0.000
1714027502.686,-38.086,-36.133,-29.785,-31.250,0.000
1714027502.690,-34.668,-28.809,-21.973,-35.156,0.000
1714027502.694,-38.086,-26.855,-31.250,-41.992,0.000
1714027502.698,-41.504,-35.156,-37.109,-49.805,0.000
1714027502.702,-40.039,-36.621,-32.715,-49.316,0.000
1714027502.706,-36.133,-34.180,-26.367,-40.039,0.000
1714027502.710,-44.434,-36.621,-30.762,-38.574,0.000
1714027502.714,-44.922,-34.180,-34.180,-35.645,0.000
1714027502.718,-34.668,-37.598,-31.250,-32.227,0.000
1714027502.722,-28.320,-34.180,-35.645,-25.879,0.000
1714027502.726,-34.180,-23.926,-35.156,-32.227,0.000
1714027502.729,-37.109,-31.738,-31.250,-35.156,0.000
1714027502.733,-32.227,-37.598,-34.180,-25.879,0.000
1714027502.737,-33.691,-35.156,-37.109,-26.367,0.000
1714027502.741,-36.621,-38.574,-37.109,-31.738,0.000
1714027502.745,-37.109,-40.039,-33.691,-35.156,0.000
1714027502.749,-31.738,-32.715,-32.227,-31.250,0.000
1714027502.753,-31.250,-25.879,-33.691,-39.062,0.000
1714027502.757,-29.785,-24.414,-30.762,-41.016,0.000
1714027502.761,-26.855,-26.367,-30.273,-42.480,0.000
1714027502.765,-31.250,-27.344,-40.527,-41.016,0.000
1714027502.769,-31.738,-30.273,-41.992,-32.715,0.000
1714027502.772,-27.344,-27.832,-33.691,-35.645,0.000
1714027502.776,-31.250,-32.715,-35.156,-32.227,0.000
1714027502.780,-31.738,-37.109,-27.344,-27.344,0.000
1714027502.784,-25.391,-25.391,-15.137,-23.926,0.000
1714027502.788,-27.832,-24.414,-22.949,-23.926,0.000
1714027502.792,-29.297,-23.926,-28.809,-24.902,0.000
1714027502.796,-25.391,-23.926,-31.738,-29.785,0.000
1714027502.800,-20.508,-22.949,-30.273,-29.297,0.000
1714027502.804,-22.949,-25.879,-22.949,-22.461,0.000
1714027502.808,-30.273,-31.738,-26.367,-18.555,0.000
1714027502.811,-24.902,-33.691,-33.203,-4.395,0.000
1714027502.815,-16.602,-32.715,-31.250,-4.883,0.000
1714027502.819,-18.066,-27.832,-27.344,-24.414,0.000
1714027502.823,-25.391,-22.461,-28.809,-35.156,0.000
1714027502.827,-32.227,-22.461,-34.180,-40.039,0.000
1714027502.831,-35.645,-21.484,-37.109,-38.574,0.000
1714027502.835,-31.250,-17.090,-41.016,-39.551,0.000
1714027502.839,-26.367,-16.602,-42.480,-39.062,0.000
1714027502.843,-25.879,-17.578,-34.180,-33.203,0.000
1714027502.847,-25.879,-17.090,-29.297,-26.367,0.000
1714027502.850,-29.297,-22.461,-33.203,-26.367,0.000
1714027502.854,-31.250,-24.414,-32.715,-20.996,0.000
1714027502.858,-29.785,-17.090,-31.250,-20.020,0.000
1714027502.862,-28.320,-12.695,-32.227,-32.227,0.000
1714027502.866,-28.809,-18.066,-30.762,-34.180,0.000
1714027502.870,-28.809,-21.973,-26.367,-33.691,0.000
1714027502.874,-28.320,-18.555,-31.250,-35.156,0.000
1714027502.878,-32.715,-17.090,-34.668,-33.203,0.000
1714027502.882,-31.250,-20.996,-30.273,-32.715,0.000
1714027502.886,-27.344,-15.625,-28.320,-32.715,0.000
1714027502.889,-28.809,-16.602,-38.574,-33.691,0.000
1714027502.893,-28.809,-22.949,-41.016,-35.156,0.000
1714027502.897,-26.855,-20.020,-35.156,-34.668,0.000
1714027502.901,-30.762,-21.973,-34.180,-29.785,0.000
1714027502.905,-32.715,-23.438,-31.738,-30.273,0.000
1714027502.909,-26.367,-23.926,-28.809,-27.832,0.000
1714027502.913,-22.461,-26.367,-32.715,-25.879,0.000
1714027502.917,-23.926,-29.297,-32.227,-30.273,0.000
1714027502.921,-23.438,-17.578,-27.344,-30.762,0.000
1714027502.925,-21.973,-13.184,-24.902,-22.949,0.000
1714027502.929,-19.531,-27.832,-25.879,-16.113,0.000
1714027502.933,-18.555,-28.809,-24.902,-19.043,0.000
1714027502.936,-16.602,-20.996,-23.438,-18.555,0.000
1714027502.940,-23.438,-25.391,-27.344,-23.438,0.000
1714027502.944,-32.715,-28.809,-20.508,-28.320,0.000
1714027502.948,-24.414,-19.043,-9.277,-23.438,0.000
1714027502.952,-20.996,-18.555,-20.996,-31.250,0.000
1714027502.956,-26.367,-27.344,-31.738,-34.668,0.000
1714027502.960,-25.391,-28.320,-24.902,-27.832,0.000
1714027502.964,-23.438,-28.320,-25.391,-29.785,0.000
1714027502.968,-23.438,-24.414,-24.414,-36.621,0.000
1714027502.972,-24.902,-20.508,-19.531,-33.203,0.000
1714027502.976,-27.832,-20.508,-20.996,-28.320,0.000
1714027502.980,-29.297,-22.461,-17.578,-31.250,0.000
1714027502.983,-28.320,-21.973,-19.531,-33.691,0.000
1714027502.987,-25.879,-20.996,-26.367,-36.133,0.000
1714027502.991,-27.344,-24.902,-28.809,-32.715,0.000
1714027502.995,-30.273,-19.043,-21.973,-30.273,0.000
1714027502.999,-25.879,-15.625,-20.996,-30.762,0.000
1714027503.003,-25.391,-17.578,-26.855,-31.250,0.000
1714027503.007,-29.297,-17.578,-34.180,-28.809,0.000
1714027503.011,-29.785,-20.996,-32.715,-28.809,0.000
1714027503.015,-27.832,-24.902,-22.949,-30.762,0.000
1714027503.019,-31.250,-30.762,-20.508,-29.785,0.000
1714027503.023,-34.668,-27.344,-18.555,-29.297,0.000
1714027503.027,-32.227,-20.996,-18.555,-23.926,0.000
1714027503.030,-29.297,-27.832,-21.484,-23.926,0.000
1714027503.034,-27.832,-29.297,-23.926,-23.926,0.000
1714027503.038,-37.598,-26.855,-32.227,-25.391,0.000
1714027503.042,-45.898,-26.367,-30.762,-27.344,0.000
1714027503.046,-38.574,-24.902,-30.273,-19.531,0.000
1714027503.050,-33.203,-20.996,-39.551,-15.625,0.000
1714027503.054,-38.086,-21.484,-38.574,-18.066,0.000
1714027503.058,-41.504,-29.785,-31.738,-19.531,0.000
1714027503.062,-37.598,-30.273,-30.762,-20.508,0.000
1714027503.066,-34.668,-26.855,-28.320,-24.902,0.000
1714027503.070,-30.273,-26.855,-20.996,-24.902,0.000
1714027503.073,-28.320,-26.855,-28.809,-29.297,0.000
1714027503.077,-33.203,-29.785,-36.133,-29.297,0.000
1714027503.081,-35.645,-30.273,-37.598,-26.367,0.000
1714027503.085,-25.879,-27.832,-35.645,-20.996,0.000
1714027503.089,-21.484,-17.578,-27.832,-20.020,0.000
1714027503.093,-28.320,-18.066,-31.738,-28.809,0.000
1714027503.097,-25.879,-31.738,-36.133,-28.809,0.000
1714027503.101,-26.855,-32.227,-37.598,-26.367,0.000
1714027503.105,-30.762,-31.250,-34.668,-29.297,0.000
1714027503.109,-27.832,-34.180,-33.203,-25.391,0.000
1714027503.113,-26.367,-34.668,-28.320,-26.855,0.000
1714027503.116,-26.367,-28.320,-23.926,-26.855,0.000
1714027503.120,-26.367,-29.785,-32.715,-29.785,0.000
1714027503.124,-27.832,-30.762,-34.180,-32.715,0.000
1714027503.128,-30.762,-28.809,-39.551,-36.133,0.000
1714027503.132,-32.715,-26.855,-40.527,-43.457,0.000
1714027503.136,-28.320,-26.367,-30.762,-41.504,0.000
1714027503.140,-29.785,-30.762,-34.668,-43.945,0.000
1714027503.144,-27.832,-31.250,-41.016,-41.504,0.000
1714027503.148,-15.137,-29.297,-41.992,-30.273,0.000
1714027503.152,-13.672,-28.809,-39.551,-24.414,0.000
1714027503.156,-24.902,-24.902,-30.762,-33.203,0.000
1714027503.159,-30.762,-24.902,-18.555,-32.715,0.000
1714027503.163,-29.785,-28.320,-18.555,-23.926,0.000
1714027503.167,-21.973,-26.367,-37.109,-17.578,0.000
1714027503.171,-9.277,-20.508,-39.551,-9.766,0.000
1714027503.175,-10.742,-25.879,-39.062,-10.742,0.000
1714027503.179,-6.348,-28.320,-41.992,-3.906,0.000
1714027503.183,-0.977,-28.320,-39.062,0.000,0.000
1714027503.187,-10.254,-35.645,-40.039,0.488,0.000
1714027503.191,-5.371,-34.668,-36.133,12.207,0.000
1714027503.195,-0.977,-30.762,-30.273,8.301,0.000
1714027503.198,-7.812,-26.855,-29.297,-4.883,0.000
1714027503.202,-10.254,-25.879,-25.879,-5.371,0.000
1714027503.207,-8.301,-25.879,-27.344,0.977,0.000
1714027503.210,-5.859,-25.391,-28.809,7.812,0.000
1714027503.214,-3.418,-24.414,-28.320,8.301,0.000
1714027503.218,-4.883,-24.414,-29.785,1.953,0.000
1714027503.222,-15.625,-30.762,-29.297,-1.953,0.000
1714027503.226,-12.695,-34.668,-27.344,2.930,0.000
1714027503.230,-8.301,-34.180,-22.461,5.859,0.000
1714027503.234,-16.602,-35.156,-21.484,-2.441,0.000
1714027503.238,-20.996,-30.273,-24.902,-20.996,0.000
1714027503.242,-19.531,-31.250,-25.391,-20.508,0.000
1714027503.246,-26.855,-33.691,-31.250,-12.695,0.000
1714027503.250,-25.391,-27.832,-32.715,-17.578,0.000
1714027503.253,-19.531,-26.367,-28.809,-15.625,0.000
1714027503.257,-18.066,-28.809,-37.109,-11.230,0.000
1714027503.261,-14.160,-31.250,-35.645,-14.160,0.000
1714027503.265,-3.906,-28.320,-22.949,-17.090,0.000
1714027503.269,-3.418,-27.344,-28.320,-22.949,0.000
1714027503.273,-1.953,-24.902,-31.250,-24.414,0.000
1714027503.277,6.348,-23.438,-22.461,-19.531,0.000
1714027503.281,2.441,-24.414,-18.555,-17.090,0.000
1714027503.285,-4.395,-26.367,-20.020,-17.578,0.000
1714027503.288,-10.254,-30.762,-20.996,-19.531,0.000
1714027503.292,-25.391,-35.156,-24.414,-21.484,0.000
1714027503.296,-40.039,-37.598,-33.203,-32.227,0.000
1714027503.300,-40.039,-40.527,-31.250,-29.785,0.000
1714027503.304,-34.668,-37.598,-24.414,-25.391,0.000
1714027503.308,-33.691,-36.621,-19.531,-25.879,0.000
1714027503.312,-33.691,-34.668,-20.020,-20.996,0.000
1714027503.316,-29.297,-28.320,-17.090,-26.855,0.000
1714027503.320,-26.367,-33.203,-15.625,-32.227,0.000
1714027503.323,-27.344,-33.691,-19.043,-29.785,0.000
1714027503.327,-32.715,-30.762,-21.973,-28.320,0.000
1714027503.331,-41.016,-35.156,-21.973,-26.367,0.000
1714027503.335,-34.180,-26.855,-24.902,-30.762,0.000
1714027503.339,-25.879,-17.090,-30.762,-31.250,0.000
1714027503.343,-30.762,-31.250,-25.391,-29.785,0.000
1714027503.347,-35.156,-36.621,-23.926,-39.062,0.000
1714027503.351,-34.180,-29.785,-32.715,-42.969,0.000
1714027503.355,-30.762,-28.320,-33.203,-31.738,0.000
1714027503.359,-28.320,-30.762,-24.414,-26.367,0.000
1714027503.363,-27.832,-26.855,-25.879,-28.809,0.000
1714027503.367,-33.203,-26.855,-29.785,-30.762,0.000
1714027503.370,-31.250,-25.879,-27.344,-29.297,0.000
1714027503.374,-26.367,-27.344,-25.879,-26.855,0.000
1714027503.378,-23.926,-33.203,-24.414,-28.320,0.000
1714027503.382,-19.043,-30.762,-17.090,-19.043,0.000
1714027503.386,-24.414,-29.785,-25.391,-23.926,0.000
1714027503.390,-28.809,-35.645,-37.109,-35.156,0.000
1714027503.394,-24.414,-35.645,-35.645,-29.785,0.000
1714027503.398,-25.879,-33.691,-29.785,-29.297,0.000
1714027503.402,-24.902,-28.320,-25.391,-23.438,0.000
1714027503.406,-30.273,-29.785,-34.668,-23.438,0.000
1714027503.410,-27.832,-32.715,-37.598,-27.344,0.000
1714027503.414,-20.996,-28.809,-36.133,-25.879,0.000
1714027503.417,-28.320,-27.832,-36.133,-29.785,0.000
1714027503.421,-25.879,-26.855,-24.902,-29.297,0.000
1714027503.425,-22.461,-24.414,-24.902,-19.531,0.000
1714027503.429,-25.391,-19.531,-29.297,-16.602,0.000
1714027503.433,-23.926,-23.438,-28.809,-33.203,0.000
1714027503.437,-20.508,-28.320,-30.273,-39.062,0.000
1714027503.441,-19.531,-22.949,-27.344,-32.227,0.000
1714027503.445,-23.926,-26.367,-25.391,-26.855,0.000
1714027503.449,-26.855,-30.273,-21.973,-28.809,0.000
1714027503.453,-25.879,-29.785,-20.020,-25.879,0.000
1714027503.457,-25.391,-31.738,-28.320,-22.461,0.000
1714027503.460,-27.344,-28.320,-27.344,-20.508,0.000
1714027503.464,-27.344,-23.438,-23.926,-17.090,0.000
1714027503.468,-24.414,-23.438,-32.227,-22.461,0.000
1714027503.472,-18.555,-26.367,-30.762,-17.090,0.000
1714027503.476,-16.602,-23.438,-20.508,-14.160,0.000
1714027503.480,-15.625,-22.949,-20.508,-16.113,0.000
1714027503.484,-19.043,-31.250,-29.785,-23.438,0.000
1714027503.488,-23.926,-32.715,-32.227,-27.832,0.000
1714027503.492,-23.926,-29.785,-29.785,-21.484,0.000
1714027503.496,-18.066,-28.320,-24.414,-18.066,0.000
1714027503.500,-16.602,-29.297,-24.414,-21.973,0.000
1714027503.503,-21.484,-31.738,-33.203,-28.809,0.000
1714027503.507,-23.438,-32.227,-34.180,-22.461,0.000
1714027503.511,-21.973,-27.344,-21.973,-10.742,0.000
1714027503.515,-16.602,-21.973,-23.438,-9.277,0.000
1714027503.519,-13.672,-21.973,-38.086,-9.766,0.000
1714027503.523,-17.578,-27.832,-41.016,-15.625,0.000
1714027503.527,-18.066,-28.320,-34.668,-26.855,0.000
1714027503.531,-15.137,-26.367,-31.250,-32.227,0.000
1714027503.535,-9.277,-25.391,-33.203,-21.484,0.000
1714027503.539,-8.789,-23.926,-33.691,-20.508,0.000
1714027503.542,-20.508,-25.879,-33.203,-35.645,0.000
1714027503.546,-33.691,-28.320,-27.832,-45.410,0.000
1714027503.550,-40.039,-28.320,-25.391,-44.434,0.000
1714027503.554,-43.457,-26.367,-30.273,-38.574,0.000
1714027503.558,-43.945,-29.297,-27.344,-40.039,0.000
1714027503.562,-43.945,-21.484,-15.137,-35.156,0.000
1714027503.566,-50.781,-20.508,-17.578,-41.992,0.000
1714027503.570,-44.922,-25.879,-28.320,-49.316,0.000
1714027503.574,-38.086,-31.250,-30.762,-41.016,0.000
1714027503.578,-40.039,-31.250,-30.762,-42.969,0.000
1714027503.581,-37.109,-23.926,-26.367,-42.969,0.000
1714027503.585,-29.785,-22.949,-18.066,-39.551,0.000
1714027503.589,-31.738,-25.391,-20.020,-36.133,0.000
1714027503.593,-38.574,-26.367,-25.391,-29.297,0.000
1714027503.597,-41.016,-23.926,-25.879,-29.785,0.000
1714027503.601,-41.504,-26.855,-22.949,-30.762,0.000
1714027503.605,-42.969,-34.180,-27.832,-30.273,0.000
1714027503.609,-39.551,-35.645,-28.320,-27.344,0.000
1714027503.613,-39.551,-31.250,-20.020,-21.973,0.000
1714027503.617,-43.945,-30.762,-27.832,-27.344,0.000
1714027503.621,-40.527,-30.762,-31.738,-27.832,0.000
1714027503.624,-35.156,-28.320,-20.996,-20.996,0.000
1714027503.628,-33.203,-22.461,-18.555,-22.461,0.000
1714027503.632,-35.645,-19.531,-23.438,-22.461,0.000
1714027503.636,-36.621,-26.367,-28.320,-24.902,0.000
1714027503.640,-34.180,-22.461,-29.785,-29.785,0.000
1714027503.644,-37.598,-24.414,-33.691,-31.250,0.000
1714027503.648,-32.715,-25.879,-34.668,-27.832,0.000
1714027503.652,-21.973,-20.996,-27.344,-12.695,0.000
1714027503.656,-20.996,-20.996,-20.020,-20.508,0.000
1714027503.659,-22.949,-21.973,-23.926,-28.809,0.000
1714027503.663,-25.879,-26.367,-25.879,-17.578,0.000
1714027503.667,-26.367,-22.461,-19.531,-18.066,0.000
1714027503.671,-25.879,-21.973,-21.484,-22.949,0.000
1714027503.675,-24.414,-26.367,-28.320,-22.949,0.000
1714027503.679,-17.578,-23.926,-29.297,-25.391,0.000
1714027503.683,-16.113,-18.555,-20.020,-23.438,0.000
1714027503.687,-22.461,-20.020,-18.066,-23.926,0.000
1714027503.691,-21.973,-27.832,-32.227,-24.902,0.000
1714027503.694,-19.531,-31.250,-36.621,-18.066,0.000
1714027503.698,-27.832,-24.414,-37.109,-22.461,0.000
1714027503.702,-31.250,-18.066,-29.785,-28.320,0.000
1714027503.706,-23.926,-16.113,-19.043,-19.531,0.000
1714027503.710,-22.949,-17.090,-23.438,-15.137,0.000
1714027503.714,-19.531,-14.648,-25.879,-13.672,0.000
1714027503.718,-20.996,-16.113,-13.672,-16.602,0.000
1714027503.722,-27.832,-22.949,-12.207,-22.461,0.000
1714027503.726,-21.973,-20.020,-23.926,-15.625,0.000
1714027503.730,-20.996,-18.066,-20.508,-9.277,0.000
1714027503.734,-24.902,-25.391,-18.066,-17.090,0.000
1714027503.738,-27.344,-27.832,-20.996,-21.973,0.000
1714027503.741,-23.926,-26.367,-14.648,-17.090,0.000
1714027503.745,-24.902,-22.461,-13.672,-14.160,0.000
1714027503.749,-27.832,-20.508,-23.438,-18.555,0.000
1714027503.753,-26.855,-24.902,-31.250,-20.996,0.000
1714027503.757,-23.438,-21.973,-32.227,-13.672,0.000
1714027503.761,-30.273,-26.367,-31.250,-18.555,0.000
1714027503.765,-38.086,-32.715,-31.738,-25.879,0.000
1714027503.769,-29.785,-29.785,-28.809,-21.973,0.000
1714027503.773,-26.367,-26.855,-26.855,-14.648,0.000
1714027503.777,-24.902,-23.438,-21.484,-15.137,0.000
1714027503.781,-21.973,-21.973,-8.301,-16.602,0.000
1714027503.785,-18.555,-25.391,-15.625,-16.113,0.000
1714027503.788,-17.090,-24.902,-29.785,-22.461,0.000
1714027503.792,-25.391,-21.484,-27.832,-21.484,0.000
1714027503.796,-27.832,-21.484,-25.391,-22.949,0.000
1714027503.800,-24.414,-24.414,-25.879,-24.902,0.000
1714027503.804,-20.508,-22.949,-23.926,-22.949,0.000
1714027503.808,-22.461,-24.902,-16.113,-23.438,0.000
1714027503.812,-27.344,-26.367,-17.090,-19.043,0.000
1714027503.816,-22.461,-20.508,-18.555,-17.578,0.000
1714027503.820,-16.602,-15.625,-16.602,-20.020,0.000
1714027503.824,-19.043,-20.996,-22.461,-21.484,0.000
1714027503.828,-25.879,-25.879,-21.484,-24.414,0.000
1714027503.831,-24.902,-19.043,-19.531,-24.414,0.000
1714027503.835,-20.020,-13.184,-18.555,-22.461,0.000
1714027503.839,-18.066,-18.555,-19.043,-18.555,0.000
1714027503.843,-22.461,-22.949,-23.438,-18.555,0.000
1714027503.847,-24.902,-24.902,-27.344,-21.484,0.000
1714027503.851,-25.879,-24.414,-26.855,-22.949,0.000
1714027503.855,-25.391,-20.996,-25.391,-25.391,0.000
1714027503.859,-23.926,-21.973,-28.320,-26.367,0.000
1714027503.863,-28.809,-27.344,-30.273,-27.344,0.000
1714027503.867,-30.762,-27.344,-35.645,-28.809,0.000
1714027503.871,-25.391,-27.344,-37.109,-28.320,0.000
1714027503.874,-22.461,-24.414,-30.762,-26.367,0.000
1714027503.878,-30.273,-20.508,-28.320,-33.203,0.000
1714027503.882,-37.109,-21.973,-30.273,-33.691,0.000
1714027503.886,-35.645,-23.926,-29.297,-29.785,0.000
1714027503.890,-30.273,-26.855,-29.785,-28.809,0.000
1714027503.894,-29.785,-23.926,-32.715,-23.926,0.000
1714027503.898,-34.668,-20.508,-29.785,-29.785,0.000
1714027503.902,-32.715,-23.926,-30.762,-30.762,0.000
1714027503.906,-35.156,-29.785,-31.250,-29.785,0.000
1714027503.910,-33.691,-29.297,-32.715,-28.809,0.000
1714027503.913,-22.461,-27.344,-31.738,-19.531,0.000
1714027503.917,-22.461,-26.367,-24.414,-17.090,0.000
1714027503.921,-36.621,-28.320,-27.832,-26.367,0.000
1714027503.925,-34.668,-33.203,-31.738,-28.320,0.000
1714027503.929,-26.367,-35.645,-38.574,-25.391,0.000
1714027503.933,-27.344,-35.645,-36.621,-20.508,0.000
1714027503.937,-22.949,-33.691,-32.227,-7.812,0.000
1714027503.941,-16.113,-31.738,-29.297,-8.789,0.000
1714027503.945,-18.066,-28.320,-27.832,-25.879,0.000
1714027503.949,-17.090,-25.879,-34.668,-29.785,0.000
1714027503.953,-10.254,-26.367,-31.250,-25.879,0.000
1714027503.956,-10.254,-27.344,-30.273,-20.996,0.000
1714027503.960,-16.113,-26.855,-38.086,-21.973,0.000
1714027503.964,-21.484,-28.320,-40.039,-27.832,0.000
1714027503.968,-21.484,-29.297,-34.180,-26.367,0.000
1714027503.972,-17.578,-25.391,-33.203,-24.414,0.000
1714027503.976,-19.043,-25.879,-36.133,-27.344,0.000
1714027503.980,-20.996,-25.879,-32.715,-25.391,0.000
1714027503.984,-21.484,-25.879,-30.762,-17.578,0.000
1714027503.988,-24.414,-28.320,-35.156,-17.578,0.000
1714027503.992,-24.902,-30.273,-45.898,-23.438,0.000
1714027503.995,-27.832,-29.297,-43.457,-21.484,0.000
1714027503.999,-29.297,-31.738,-38.574,-23.926,0.000
1714027504.003,-21.973,-29.297,-37.598,-24.902,0.000
1714027504.007,-22.949,-21.973,-37.598,-24.414,0.000
1714027504.011,-20.020,-25.391,-40.039,-27.832,0.000
1714027504.015,-13.184,-30.273,-35.645,-25.391,0.000
1714027504.019,-17.090,-24.414,-34.180,-29.785,0.000
1714027504.023,-18.066,-23.438,-37.109,-31.738,0.000
1714027504.027,-18.066,-36.133,-36.133,-26.367,0.000
1714027504.031,-16.602,-35.645,-34.180,-27.832,0.000
1714027504.034,-15.625,-29.785,-36.133,-28.320,0.000
1714027504.038,-18.555,-31.250,-39.062,-24.414,0.000
1714027504.042,-19.531,-30.762,-35.645,-24.902,0.000
1714027504.046,-19.531,-22.461,-22.461,-28.320,0.000
1714027504.050,-13.672,-18.066,-22.461,-26.367,0.000
1714027504.054,-10.254,-21.484,-30.273,-25.879,0.000
1714027504.058,-10.742,-20.996,-30.762,-28.809,0.000
1714027504.062,-14.160,-20.508,-27.344,-30.762,0.000
1714027504.066,-16.602,-20.020,-24.902,-28.320,0.000
1714027504.069,-16.602,-23.438,-26.855,-26.367,0.000
1714027504.073,-18.555,-30.762,-28.320,-31.250,0.000
1714027504.077,-15.137,-21.973,-23.438,-32.715,0.000
1714027504.081,-18.066,-18.555,-23.926,-33.691,0.000
1714027504.085,-21.484,-24.414,-29.297,-31.738,0.000
1714027504.089,-21.973,-24.414,-28.320,-25.391,0.000
1714027504.093,-25.879,-21.973,-28.320,-30.273,0.000
1714027504.097,-24.414,-18.555,-23.926,-35.156,0.000
1714027504.101,-30.273,-25.879,-29.785,-38.086,0.000
1714027504.105,-31.250,-34.668,-37.109,-36.621,0.000
1714027504.109,-18.555,-32.227,-30.273,-20.508,0.000
1714027504.113,-20.996,-26.367,-28.809,-21.484,0.000
1714027504.116,-31.250,-24.902,-24.902,-37.598,0.000
1714027504.120,-38.086,-24.414,-20.996,-38.086,0.000
1714027504.124,-55.664,-23.438,-26.367,-48.828,0.000
1714027504.128,-58.105,-23.438,-26.855,-50.293,0.000
1714027504.132,-52.734,-19.043,-32.227,-48.340,0.000
1714027504.136,-57.129,-21.484,-39.551,-59.082,0.000
1714027504.140,-55.176,-25.879,-39.062,-57.617,0.000
1714027504.144,-57.129,-27.344,-34.180,-60.547,0.000
1714027504.148,-58.105,-28.809,-26.367,-69.824,0.000
1714027504.152,-49.805,-28.809,-24.414,-61.523,0.000
1714027504.156,-45.898,-27.832,-24.902,-46.387,0.000
1714027504.159,-49.316,-22.949,-29.297,-38.574,0.000
1714027504.163,-54.199,-26.855,-38.086,-37.598,0.000
1714027504.167,-52.734,-30.762,-36.621,-40.039,0.000
1714027504.171,-49.316,-22.949,-33.203,-38.086,0.000
1714027504.175,-44.434,-23.926,-28.320,-26.855,0.000
1714027504.179,-42.969,-29.297,-26.855,-24.414,0.000
1714027504.183,-41.504,-27.832,-22.949,-28.809,0.000
1714027504.187,-39.062,-27.832,-12.695,-32.227,0.000
1714027504.191,-40.527,-30.273,-21.484,-38.574,0.000
