timestamps,TP9,AF7,AF8,TP10,Right AUX
1714024088.577,-27.344,-29.297,-12.695,-28.320,0.000
1714024088.581,-23.438,-24.902,-20.996,-30.762,0.000
1714024088.585,-24.414,-24.414,-24.902,-32.227,0.000
1714024088.589,-19.531,-28.809,-24.902,-36.133,0.000
1714024088.593,-13.672,-27.832,-25.879,-32.227,0.000
1714024088.597,-13.184,-21.973,-22.461,-18.066,0.000
1714024088.600,-16.113,-31.250,-20.996,-18.555,0.000
1714024088.604,-22.949,-36.133,-25.391,-36.133,0.000
1714024088.608,-25.391,-28.809,-27.832,-36.621,0.000
1714024088.612,-21.484,-23.926,-24.902,-32.715,0.000
1714024088.616,-25.391,-25.879,-30.762,-38.086,0.000
1714024088.620,-30.762,-30.273,-32.227,-40.527,0.000
1714024088.620,-30.762,-30.273,-32.227,-40.527,0.000
1714024088.624,-28.320,-29.297,-20.996,-38.574,0.000
1714024088.628,-27.344,-28.320,-26.367,-33.691,0.000
1714024088.632,-28.809,-28.320,-41.504,-39.062,0.000
1714024088.636,-23.438,-30.762,-41.504,-42.480,0.000
1714024088.640,-13.184,-36.621,-33.203,-30.762,0.000
1714024088.643,-21.973,-30.762,-22.461,-28.320,0.000
1714024088.647,-32.227,-24.902,-19.531,-36.621,0.000
1714024088.651,-24.414,-32.715,-22.461,-33.203,0.000
1714024088.655,-22.461,-32.227,-19.531,-33.691,0.000
1714024088.659,-31.250,-30.273,-17.090,-29.785,0.000
1714024088.663,-25.879,-32.715,-20.020,-25.391,0.000
1714024088.667,-23.438,-28.809,-28.320,-32.715,0.000
1714024088.671,-28.320,-31.250,-32.715,-40.527,0.000
1714024088.675,-30.273,-37.109,-34.668,-45.898,0.000
1714024088.678,-30.273,-33.203,-35.645,-40.039,0.000
1714024088.682,-24.414,-32.715,-25.879,-28.320,0.000
1714024088.686,-25.391,-33.691,-25.391,-34.180,0.000
1714024088.690,-30.273,-38.086,-33.203,-44.434,0.000
1714024088.694,-25.391,-36.621,-32.715,-38.086,0.000
1714024088.698,-24.902,-34.668,-32.715,-27.832,0.000
1714024088.702,-26.855,-35.645,-26.367,-29.297,0.000
1714024088.706,-26.855,-32.715,-28.320,-38.086,0.000
1714024088.710,-29.297,-33.203,-37.598,-37.109,0.000
1714024088.714,-27.344,-31.250,-25.391,-23.926,0.000
1714024088.717,-25.391,-27.344,-16.602,-22.461,0.000
1714024088.721,-29.785,-29.785,-23.438,-35.156,0.000
1714024088.725,-33.691,-36.621,-29.785,-41.992,0.000
1714024088.729,-35.156,-30.762,-35.156,-40.527,0.000
1714024088.733,-31.738,-35.645,-37.598,-35.156,0.000
1714024088.737,-26.367,-33.203,-29.297,-32.715,0.000
1714024088.741,-26.855,-22.949,-20.020,-35.156,0.000
1714024088.745,-28.320,-22.461,-22.949,-31.738,0.000
1714024088.749,-28.809,-26.855,-23.438,-30.762,0.000
1714024088.753,-27.832,-31.738,-19.531,-30.762,0.000
1714024088.756,-24.902,-30.762,-18.066,-34.180,0.000
1714024088.760,-33.203,-28.809,-17.578,-42.480,0.000
1714024088.764,-45.898,-34.668,-30.762,-48.828,0.000
1714024088.768,-49.805,-39.062,-34.180,-54.688,0.000
1714024088.772,-59.570,-40.039,-26.855,-67.383,0.000
1714024088.776,-70.312,-41.504,-28.809,-77.148,0.000
1714024088.780,-73.242,-41.016,-20.996,-76.172,0.000
1714024088.783,-79.590,-32.227,-15.137,-88.379,0.000
1714024088.787,-83.496,-29.785,-21.973,-98.145,0.000
1714024088.791,-89.355,-33.203,-20.508,-93.750,0.000
1714024088.795,-95.703,-26.855,-10.254,-96.680,0.000
1714024088.799,-104.980,-24.414,-8.301,-112.793,0.000
1714024088.803,-109.863,-22.461,-5.371,-116.699,0.000
1714024088.807,-107.422,-20.996,-3.906,-121.582,0.000
1714024088.810,-120.117,-29.785,-12.207,-139.648,0.000
1714024088.814,-127.441,-33.203,-17.578,-136.719,0.000
1714024088.818,-123.535,-30.762,-16.113,-130.859,0.000
1714024088.822,-115.723,-30.273,-17.578,-125.977,0.000
1714024088.826,-107.910,-29.297,-17.578,-114.258,0.000
1714024088.830,-104.004,-26.367,-17.578,-99.609,0.000
1714024088.834,-98.633,-28.320,-23.438,-95.703,0.000
1714024088.838,-94.727,-38.574,-29.297,-102.539,0.000
1714024088.842,-74.219,-41.016,-25.879,-85.938,0.000
1714024088.846,-57.617,-37.109,-30.273,-61.523,0.000
1714024088.850,-55.176,-35.156,-40.039,-62.012,0.000
1714024088.853,-44.922,-29.297,-36.133,-59.570,0.000
1714024088.858,-37.598,-29.297,-35.156,-49.805,0.000
1714024088.862,-30.273,-33.203,-45.410,-42.969,0.000
1714024088.865,-20.020,-27.832,-46.387,-44.434,0.000
1714024088.869,-15.625,-27.344,-50.781,-54.199,0.000
1714024088.873,-6.348,-30.762,-56.152,-42.969,0.000
1714024088.877,-7.324,-31.250,-52.246,-19.531,0.000
1714024088.881,-9.277,-36.133,-46.875,-5.371,0.000
1714024088.885,0.488,-28.809,-41.992,-7.812,0.000
1714024088.889,-3.906,-25.879,-41.016,-5.859,0.000
1714024088.893,-6.348,-30.273,-41.016,4.395,0.000
1714024088.897,0.977,-23.926,-39.551,-0.977,0.000
1714024088.901,2.930,-21.484,-41.504,-10.254,0.000
1714024088.905,2.930,-30.273,-41.504,-10.254,0.000
1714024088.909,-1.465,-35.645,-44.434,-4.395,0.000
1714024088.913,1.953,-30.273,-43.945,-0.488,0.000
1714024088.916,7.324,-31.250,-38.574,-1.465,0.000
1714024088.920,2.441,-29.785,-36.133,-5.371,0.000
1714024088.924,-0.977,-20.508,-35.156,-5.859,0.000
1714024088.928,3.906,-26.855,-41.992,2.930,0.000
1714024088.932,-0.488,-33.691,-45.410,-0.488,0.000
1714024088.936,-1.953,-29.785,-41.504,-5.859,0.000
1714024088.940,7.812,-26.855,-28.809,-0.488,0.000
1714024088.944,8.789,-20.996,-22.461,0.488,0.000
1714024088.948,5.371,-20.020,-28.809,-2.930,0.000
1714024088.952,-1.953,-29.785,-40.039,-11.230,0.000
1714024088.956,-12.207,-38.574,-41.992,-17.578,0.000
1714024088.960,-13.672,-41.504,-34.668,-16.602,0.000
1714024088.963,-8.301,-35.156,-40.039,-11.719,0.000
1714024088.967,-5.371,-32.227,-43.945,-11.719,0.000
1714024088.971,0.000,-25.391,-32.715,-8.789,0.000
1714024088.975,0.977,-19.043,-24.414,-6.836,0.000
1714024088.979,-6.836,-22.949,-31.250,-9.277,0.000
1714024088.983,-12.207,-30.273,-41.504,-14.648,0.000
1714024088.987,-10.742,-32.715,-44.922,-19.043,0.000
1714024088.991,-4.395,-29.297,-41.992,-18.066,0.000
1714024088.995,-6.836,-27.832,-35.645,-14.160,0.000
1714024088.999,-5.859,-30.273,-31.250,-16.602,0.000
1714024089.003,-1.953,-25.879,-25.391,-22.949,0.000
1714024089.006,-5.371,-21.484,-27.344,-25.391,0.000
1714024089.010,-13.672,-26.367,-37.598,-20.020,0.000
1714024089.014,-10.742,-24.902,-38.574,-17.090,0.000
1714024089.018,-3.418,-24.902,-31.738,-18.066,0.000
1714024089.022,-10.254,-27.832,-31.250,-21.973,0.000
1714024089.026,-13.184,-26.855,-31.250,-15.625,0.000
1714024089.030,-3.906,-16.602,-22.949,4.883,0.000
1714024089.034,-10.742,-20.020,-19.531,-7.812,0.000
1714024089.038,-18.066,-31.738,-31.738,-23.438,0.000
1714024089.042,-14.648,-31.738,-38.574,-16.602,0.000
1714024089.045,-20.996,-32.715,-31.738,-15.137,0.000
1714024089.049,-19.531,-34.180,-38.086,-22.949,0.000
1714024089.053,-16.113,-25.391,-41.992,-26.855,0.000
1714024089.057,-15.137,-20.020,-28.809,-25.879,0.000
1714024089.061,-17.578,-25.879,-25.391,-24.414,0.000
1714024089.065,-19.043,-29.785,-36.133,-19.531,0.000
1714024089.069,-19.531,-25.391,-37.598,-19.531,0.000
1714024089.073,-20.508,-30.273,-28.809,-22.461,0.000
1714024089.077,-20.508,-23.926,-17.578,-24.902,0.000
1714024089.081,-19.043,-5.859,-14.648,-26.855,0.000
1714024089.084,-15.137,-12.695,-16.602,-34.180,0.000
1714024089.088,-18.555,-20.508,-24.902,-34.668,0.000
1714024089.092,-18.555,-19.043,-27.344,-26.855,0.000
1714024089.096,-13.672,-21.973,-21.973,-23.926,0.000
1714024089.100,-17.090,-24.414,-15.625,-26.855,0.000
1714024089.104,-23.438,-28.809,-17.578,-31.738,0.000
1714024089.108,-23.926,-28.320,-23.926,-35.156,0.000
1714024089.112,-14.160,-18.066,-17.578,-27.832,0.000
1714024089.116,-13.672,-17.578,-15.625,-16.113,0.000
1714024089.119,-16.113,-21.484,-22.949,-15.625,0.000
1714024089.123,-11.230,-17.578,-17.090,-29.297,0.000
1714024089.127,-11.719,-15.137,-11.230,-25.391,0.000
1714024089.131,-15.137,-13.184,-18.066,-18.066,0.000
1714024089.135,-16.602,-16.113,-19.043,-29.785,0.000
1714024089.139,-22.949,-21.973,-18.555,-39.062,0.000
1714024089.143,-21.484,-24.902,-22.949,-36.133,0.000
1714024089.147,-19.531,-27.832,-22.949,-27.344,0.000
1714024089.150,-14.648,-27.344,-18.555,-38.574,0.000
1714024089.154,-10.254,-23.926,-15.625,-42.969,0.000
1714024089.158,-14.160,-18.555,-20.508,-29.785,0.000
1714024089.162,-13.184,-24.902,-24.902,-16.602,0.000
1714024089.166,-11.230,-27.832,-22.949,-20.020,0.000
1714024089.170,-16.602,-23.926,-22.949,-29.297,0.000
1714024089.174,-18.066,-30.762,-24.414,-25.391,0.000
1714024089.178,-14.648,-27.832,-17.578,-18.066,0.000
1714024089.182,-18.555,-19.531,-10.742,-16.113,0.000
1714024089.185,-24.414,-23.438,-18.066,-26.855,0.000
1714024089.189,-29.297,-26.367,-24.414,-35.156,0.000
1714024089.193,-34.180,-33.691,-19.043,-30.273,0.000
1714024089.197,-34.668,-32.715,-20.996,-26.367,0.000
1714024089.201,-34.180,-30.273,-32.227,-34.180,0.000
1714024089.205,-41.504,-33.203,-43.457,-38.574,0.000
1714024089.209,-41.016,-30.273,-39.551,-30.273,0.000
1714024089.213,-31.250,-26.367,-21.484,-30.273,0.000
1714024089.216,-27.344,-29.785,-20.996,-32.227,0.000
1714024089.220,-28.320,-26.855,-19.531,-24.414,0.000
1714024089.224,-31.250,-19.043,-13.184,-25.879,0.000
1714024089.228,-31.738,-23.438,-27.344,-32.715,0.000
1714024089.232,-24.902,-37.598,-33.203,-31.250,0.000
1714024089.236,-19.531,-38.574,-29.785,-30.762,0.000
1714024089.240,-20.020,-30.273,-26.855,-34.668,0.000
1714024089.244,-20.996,-21.484,-24.414,-27.344,0.000
1714024089.248,-24.902,-13.672,-26.367,-24.902,0.000
1714024089.252,-19.531,-16.113,-26.367,-33.203,0.000
1714024089.256,-15.625,-22.461,-28.320,-36.621,0.000
1714024089.260,-20.996,-19.043,-28.320,-35.645,0.000
1714024089.264,-26.367,-19.531,-29.785,-28.809,0.000
1714024089.268,-23.438,-27.344,-25.879,-20.508,0.000
1714024089.272,-20.508,-30.273,-28.320,-27.832,0.000
1714024089.275,-25.391,-38.574,-31.738,-32.715,0.000
1714024089.280,-30.762,-35.645,-29.297,-32.715,0.000
1714024089.283,-25.879,-28.320,-24.414,-26.367,0.000
1714024089.287,-15.625,-31.250,-19.531,-23.926,0.000
1714024089.291,-20.996,-29.785,-22.949,-31.250,0.000
1714024089.295,-24.414,-27.344,-22.461,-31.250,0.000
1714024089.299,-22.461,-23.926,-17.090,-30.762,0.000
1714024089.303,-20.508,-17.578,-26.855,-41.504,0.000
1714024089.307,-12.695,-18.555,-26.855,-40.527,0.000
1714024089.311,-14.648,-26.855,-22.461,-33.203,0.000
1714024089.315,-24.414,-33.203,-32.715,-25.879,0.000
1714024089.319,-31.250,-35.156,-33.691,-36.133,0.000
1714024089.323,-31.250,-36.621,-34.180,-44.434,0.000
1714024089.327,-24.902,-28.809,-31.250,-38.086,0.000
1714024089.330,-21.484,-18.066,-18.066,-36.133,0.000
1714024089.334,-18.066,-18.555,-18.066,-31.250,0.000
1714024089.338,-15.137,-29.297,-15.137,-29.297,0.000
1714024089.342,-22.949,-38.574,-16.602,-33.691,0.000
1714024089.346,-26.367,-36.621,-32.227,-36.133,0.000
1714024089.350,-20.020,-31.738,-35.156,-33.203,0.000
1714024089.354,-24.902,-23.926,-34.180,-41.992,0.000
1714024089.358,-28.320,-21.484,-32.227,-41.992,0.000
1714024089.362,-25.391,-21.484,-15.625,-28.809,0.000
1714024089.366,-16.113,-21.973,-12.207,-27.344,0.000
1714024089.370,-8.789,-20.508,-19.531,-29.297,0.000
1714024089.373,-17.090,-12.695,-20.020,-35.156,0.000
1714024089.377,-27.344,-16.113,-21.484,-28.809,0.000
1714024089.381,-23.438,-37.109,-33.691,-27.832,0.000
1714024089.385,-29.297,-37.598,-38.086,-36.621,0.000
1714024089.389,-27.344,-22.949,-29.785,-31.738,0.000
1714024089.393,-16.602,-25.879,-26.367,-25.391,0.000
1714024089.397,-24.902,-35.156,-32.715,-27.832,0.000
1714024089.401,-28.320,-32.227,-30.273,-30.762,0.000
1714024089.405,-26.367,-28.320,-20.020,-32.715,0.000
1714024089.409,-29.785,-30.762,-25.879,-41.504,0.000
1714024089.412,-30.273,-25.391,-34.668,-39.062,0.000
1714024089.416,-32.715,-30.762,-32.227,-31.738,0.000
1714024089.420,-39.062,-37.598,-30.273,-37.598,0.000
1714024089.424,-37.598,-29.297,-30.273,-41.016,0.000
1714024089.428,-27.344,-22.461,-26.855,-30.762,0.000
1714024089.432,-27.344,-21.484,-11.230,-30.762,0.000
1714024089.436,-34.180,-25.391,-11.719,-42.480,0.000
1714024089.440,-31.738,-26.367,-34.668,-46.387,0.000
1714024089.444,-36.133,-29.297,-43.457,-45.410,0.000
1714024089.448,-33.691,-35.645,-41.504,-41.992,0.000
1714024089.451,-32.227,-28.809,-37.598,-43.945,0.000
1714024089.455,-33.691,-20.508,-30.273,-46.875,0.000
1714024089.459,-25.879,-16.113,-19.043,-37.109,0.000
1714024089.463,-22.949,-17.090,-24.414,-34.180,0.000
1714024089.467,-23.926,-17.578,-29.785,-36.621,0.000
1714024089.471,-30.273,-20.996,-23.926,-43.457,0.000
1714024089.475,-35.645,-25.391,-26.855,-43.457,0.000
1714024089.479,-29.297,-24.902,-29.297,-31.738,0.000
1714024089.483,-26.367,-27.832,-38.086,-32.227,0.000
1714024089.486,-24.414,-25.391,-33.203,-37.109,0.000
1714024089.490,-20.508,-24.902,-20.508,-28.320,0.000
1714024089.494,-19.531,-25.391,-21.484,-18.555,0.000
1714024089.498,-18.555,-22.949,-22.949,-25.879,0.000
1714024089.502,-33.691,-20.020,-26.855,-49.805,0.000
1714024089.506,-37.598,-21.973,-30.762,-52.246,0.000
1714024089.510,-29.785,-23.438,-28.809,-38.574,0.000
1714024089.514,-38.574,-21.973,-36.133,-46.387,0.000
1714024089.517,-41.504,-26.855,-41.016,-54.688,0.000
1714024089.521,-39.551,-31.250,-29.297,-49.316,0.000
1714024089.525,-39.551,-28.320,-20.508,-43.457,0.000
1714024089.529,-31.250,-23.438,-27.832,-38.574,0.000
1714024089.533,-37.109,-28.809,-31.250,-42.969,0.000
1714024089.537,-37.598,-35.156,-39.062,-42.480,0.000
1714024089.541,-30.273,-36.621,-43.457,-37.598,0.000
1714024089.545,-34.180,-28.320,-29.297,-33.203,0.000
1714024089.549,-41.992,-23.926,-21.973,-32.227,0.000
1714024089.553,-38.574,-32.715,-31.250,-39.062,0.000
1714024089.557,-31.250,-27.344,-27.832,-39.551,0.000
1714024089.560,-32.715,-19.531,-26.855,-33.203,0.000
1714024089.564,-32.227,-24.902,-32.715,-28.809,0.000
1714024089.568,-33.203,-27.344,-39.062,-35.645,0.000
1714024089.572,-34.668,-26.855,-40.527,-43.457,0.000
1714024089.576,-34.180,-30.273,-26.367,-37.598,0.000
1714024089.580,-24.414,-23.926,-29.297,-33.691,0.000
1714024089.584,-19.531,-21.973,-41.016,-33.691,0.000
1714024089.587,-18.066,-30.273,-35.645,-40.039,0.000
1714024089.591,-13.672,-36.133,-39.551,-44.434,0.000
1714024089.595,-13.672,-36.621,-52.246,-39.551,0.000
1714024089.599,-10.254,-27.344,-42.480,-33.691,0.000
1714024089.603,-9.766,-28.320,-30.762,-34.668,0.000
1714024089.607,-11.719,-28.320,-28.320,-32.227,0.000
1714024089.611,-18.066,-24.902,-24.414,-28.809,0.000
1714024089.615,-26.367,-33.203,-21.973,-27.344,0.000
1714024089.619,-23.438,-30.762,-26.855,-27.344,0.000
1714024089.623,-25.391,-25.391,-41.016,-35.645,0.000
1714024089.627,-34.668,-31.250,-49.805,-37.109,0.000
1714024089.631,-31.250,-27.344,-40.527,-29.785,0.000
1714024089.635,-21.973,-14.648,-28.320,-30.273,0.000
1714024089.639,-27.832,-14.160,-27.344,-36.133,0.000
1714024089.643,-33.691,-27.832,-31.250,-29.785,0.000
1714024089.646,-32.227,-30.762,-27.344,-24.414,0.000
1714024089.650,-30.762,-25.391,-22.461,-26.855,0.000
1714024089.654,-27.832,-25.391,-25.391,-31.250,0.000
1714024089.658,-27.832,-25.879,-36.621,-34.668,0.000
1714024089.662,-27.344,-33.203,-41.016,-34.668,0.000
1714024089.666,-25.391,-37.109,-34.180,-38.574,0.000
1714024089.670,-31.738,-28.809,-31.250,-44.922,0.000
1714024089.674,-30.762,-26.855,-34.668,-42.969,0.000
1714024089.678,-25.391,-31.250,-34.668,-36.621,0.000
1714024089.682,-29.297,-30.273,-27.344,-39.062,0.000
1714024089.686,-32.227,-31.738,-24.414,-47.363,0.000
1714024089.690,-34.180,-32.715,-35.156,-45.898,0.000
1714024089.693,-34.668,-30.762,-41.992,-42.969,0.000
1714024089.697,-30.273,-33.203,-37.109,-40.527,0.000
1714024089.701,-28.320,-36.133,-37.109,-40.527,0.000
1714024089.705,-32.227,-35.156,-41.016,-44.922,0.000
1714024089.709,-30.273,-36.133,-42.480,-41.016,0.000
1714024089.713,-23.926,-33.691,-34.180,-31.738,0.000
1714024089.717,-19.531,-25.879,-26.855,-27.832,0.000
1714024089.721,-14.160,-20.508,-32.715,-25.391,0.000
1714024089.725,-21.484,-24.414,-31.738,-27.344,0.000
1714024089.729,-25.879,-25.879,-27.832,-31.738,0.000
1714024089.733,-18.066,-26.855,-29.785,-21.484,0.000
1714024089.737,-21.484,-25.879,-30.762,-21.973,0.000
1714024089.740,-29.297,-22.949,-30.273,-25.879,0.000
1714024089.744,-27.344,-25.879,-37.109,-24.902,0.000
1714024089.748,-21.973,-23.926,-39.062,-31.738,0.000
1714024089.752,-19.043,-21.973,-22.461,-32.715,0.000
1714024089.756,-24.902,-21.973,-24.414,-26.855,0.000
1714024089.760,-26.855,-14.648,-33.691,-26.367,0.000
1714024089.764,-23.926,-15.137,-37.109,-34.180,0.000
1714024089.768,-22.461,-22.461,-41.504,-39.062,0.000
1714024089.772,-20.508,-23.438,-34.668,-30.762,0.000
1714024089.776,-18.066,-25.391,-24.414,-26.855,0.000
1714024089.780,-19.531,-28.320,-27.832,-26.367,0.000
1714024089.783,-20.996,-23.926,-27.832,-29.297,0.000
1714024089.787,-15.137,-18.555,-21.484,-30.762,0.000
1714024089.791,-20.020,-20.020,-29.785,-32.715,0.000
1714024089.795,-29.785,-21.484,-35.645,-31.250,0.000
1714024089.799,-30.762,-28.320,-34.180,-34.180,0.000
1714024089.803,-26.367,-29.785,-30.762,-34.180,0.000
1714024089.807,-26.367,-30.273,-28.320,-40.527,0.000
1714024089.811,-28.320,-34.180,-27.832,-41.992,0.000
1714024089.815,-26.367,-31.250,-24.414,-30.762,0.000
1714024089.819,-20.020,-24.902,-10.742,-34.668,0.000
1714024089.822,-22.949,-29.297,-12.695,-33.691,0.000
1714024089.826,-30.273,-27.832,-27.344,-36.133,0.000
1714024089.830,-25.879,-19.531,-31.738,-39.551,0.000
1714024089.834,-17.578,-21.484,-31.738,-37.109,0.000
1714024089.838,-23.438,-29.785,-31.738,-41.016,0.000
1714024089.843,-24.902,-30.273,-30.273,-36.621,0.000
1714024089.846,-18.555,-31.738,-29.785,-33.691,0.000
1714024089.850,-15.625,-29.297,-30.273,-32.715,0.000
1714024089.854,-15.625,-21.484,-28.809,-35.645,0.000
1714024089.858,-17.578,-25.879,-31.738,-33.691,0.000
1714024089.862,-19.531,-29.785,-33.691,-26.367,0.000
1714024089.866,-18.555,-28.809,-33.691,-26.855,0.000
1714024089.870,-18.555,-29.297,-30.762,-27.832,0.000
1714024089.874,-27.832,-32.715,-26.367,-31.738,0.000
1714024089.878,-26.367,-27.344,-22.949,-29.297,0.000
1714024089.882,-21.973,-21.973,-20.020,-26.855,0.000
1714024089.886,-25.391,-28.809,-19.531,-31.250,0.000
1714024089.889,-23.926,-26.367,-31.250,-35.156,0.000
1714024089.893,-27.832,-22.461,-37.109,-33.203,0.000
1714024089.897,-32.227,-36.133,-33.691,-29.297,0.000
1714024089.901,-28.809,-35.156,-36.133,-28.320,0.000
1714024089.905,-27.344,-25.391,-41.504,-36.621,0.000
1714024089.909,-27.344,-27.344,-34.180,-31.738,0.000
1714024089.913,-29.785,-31.250,-24.414,-23.438,0.000
1714024089.917,-28.320,-32.227,-20.020,-23.438,0.000
1714024089.920,-31.738,-32.715,-20.020,-27.832,0.000
1714024089.924,-39.551,-32.715,-29.785,-38.086,0.000
1714024089.928,-32.715,-28.320,-35.645,-30.273,0.000
1714024089.932,-32.715,-26.855,-28.809,-30.273,0.000
1714024089.936,-30.273,-28.320,-23.926,-30.762,0.000
1714024089.940,-28.809,-27.344,-25.879,-26.367,0.000
1714024089.944,-28.320,-26.367,-22.949,-22.949,0.000
1714024089.948,-28.809,-28.809,-18.555,-22.461,0.000
1714024089.952,-36.621,-34.668,-20.508,-39.062,0.000
1714024089.956,-33.203,-36.133,-24.414,-32.227,0.000
1714024089.960,-23.438,-33.691,-33.691,-15.137,0.000
1714024089.964,-28.320,-31.738,-32.227,-35.645,0.000
1714024089.968,-34.668,-30.273,-24.902,-47.363,0.000
1714024089.972,-28.809,-35.645,-22.461,-41.504,0.000
1714024089.976,-29.785,-36.133,-27.344,-39.062,0.000
1714024089.979,-32.715,-25.879,-37.109,-37.598,0.000
1714024089.984,-29.297,-18.555,-41.992,-34.180,0.000
1714024089.987,-26.367,-19.043,-34.668,-37.598,0.000
1714024089.991,-28.809,-24.902,-31.738,-40.039,0.000
1714024089.995,-27.832,-29.297,-34.180,-34.180,0.000
1714024089.999,-25.391,-28.809,-32.715,-29.785,0.000
1714024090.003,-20.996,-26.367,-32.227,-36.621,0.000
1714024090.007,-24.414,-23.438,-33.203,-38.574,0.000
1714024090.011,-34.180,-23.926,-37.109,-36.621,0.000
1714024090.015,-27.832,-27.832,-36.621,-41.504,0.000
1714024090.019,-25.391,-25.391,-34.668,-38.574,0.000
1714024090.023,-30.762,-24.414,-32.715,-44.434,0.000
1714024090.027,-37.109,-31.738,-29.297,-52.734,0.000
1714024090.031,-34.180,-34.668,-31.738,-42.480,0.000
1714024090.034,-28.320,-27.832,-30.273,-32.227,0.000
1714024090.038,-27.344,-20.508,-31.738,-33.203,0.000
1714024090.042,-28.320,-20.996,-28.809,-34.668,0.000
1714024090.046,-27.344,-30.273,-22.461,-31.738,0.000
1714024090.050,-21.484,-37.598,-28.320,-36.133,0.000
1714024090.054,-23.438,-27.832,-35.156,-36.621,0.000
1714024090.058,-26.367,-20.996,-30.762,-33.691,0.000
1714024090.062,-24.414,-27.344,-24.902,-30.762,0.000
1714024090.066,-32.227,-39.062,-31.738,-25.879,0.000
1714024090.070,-31.250,-38.086,-31.738,-35.645,0.000
1714024090.074,-29.297,-29.785,-27.832,-45.410,0.000
1714024090.077,-33.203,-30.273,-34.180,-41.504,0.000
1714024090.081,-30.762,-25.879,-38.086,-38.574,0.000
1714024090.085,-25.879,-22.461,-40.039,-41.016,0.000
1714024090.089,-29.785,-23.438,-37.598,-43.457,0.000
1714024090.093,-36.621,-27.832,-36.133,-38.574,0.000
1714024090.097,-27.832,-27.344,-37.109,-34.180,0.000
1714024090.101,-22.949,-24.414,-31.250,-39.551,0.000
1714024090.105,-34.668,-17.578,-33.691,-43.457,0.000
1714024090.109,-35.156,-21.973,-30.762,-32.227,0.000
1714024090.113,-30.273,-30.273,-21.484,-33.691,0.000
1714024090.117,-26.855,-28.320,-25.391,-41.992,0.000
1714024090.120,-25.391,-20.996,-21.973,-36.621,0.000
1714024090.124,-25.879,-20.020,-21.973,-32.227,0.000
1714024090.128,-25.391,-27.832,-25.391,-31.738,0.000
1714024090.132,-25.391,-25.391,-25.391,-33.203,0.000
1714024090.136,-30.273,-21.973,-34.180,-44.922,0.000
1714024090.140,-30.762,-30.273,-30.273,-45.898,0.000
1714024090.144,-23.438,-32.227,-18.066,-32.715,0.000
1714024090.148,-21.973,-20.020,-23.926,-32.715,0.000
1714024090.152,-21.484,-20.996,-27.832,-35.645,0.000
1714024090.156,-23.926,-31.738,-26.367,-37.109,0.000
1714024090.160,-26.367,-27.344,-28.809,-42.480,0.000
1714024090.163,-25.391,-17.090,-34.668,-38.086,0.000
1714024090.167,-24.902,-18.066,-34.180,-38.574,0.000
1714024090.171,-19.531,-19.043,-34.668,-40.039,0.000
1714024090.175,-14.648,-14.160,-30.273,-31.250,0.000
1714024090.179,-15.625,-17.090,-20.020,-27.344,0.000
1714024090.183,-24.414,-21.973,-18.555,-32.227,0.000
1714024090.187,-30.762,-21.973,-21.484,-34.180,0.000
1714024090.191,-33.691,-21.973,-26.855,-37.109,0.000
1714024090.195,-33.691,-33.203,-31.250,-31.250,0.000
1714024090.198,-30.762,-42.969,-32.227,-24.414,0.000
1714024090.202,-36.133,-32.227,-33.691,-34.180,0.000
1714024090.206,-32.227,-22.461,-28.809,-32.227,0.000
1714024090.210,-20.020,-24.902,-19.531,-20.996,0.000
1714024090.214,-28.320,-27.832,-17.090,-22.949,0.000
1714024090.218,-34.668,-29.785,-22.949,-34.180,0.000
1714024090.222,-27.832,-39.062,-28.809,-36.621,0.000
1714024090.226,-32.715,-46.875,-35.645,-37.109,0.000
1714024090.230,-35.645,-41.992,-37.109,-40.039,0.000
1714024090.233,-32.715,-34.668,-34.668,-38.574,0.000
1714024090.237,-29.785,-30.273,-26.367,-36.133,0.000
1714024090.241,-23.438,-23.926,-17.578,-36.621,0.000
1714024090.245,-31.738,-29.785,-24.902,-32.227,0.000
1714024090.249,-40.039,-28.320,-27.832,-37.598,0.000
1714024090.253,-32.715,-20.508,-26.367,-42.480,0.000
1714024090.257,-33.203,-25.879,-33.691,-41.016,0.000
1714024090.261,-38.574,-29.785,-36.133,-38.086,0.000
1714024090.264,-33.691,-34.668,-35.156,-38.086,0.000
1714024090.268,-31.250,-36.133,-33.203,-40.527,0.000
1714024090.272,-30.762,-29.297,-29.785,-43.945,0.000
1714024090.276,-37.109,-30.273,-24.902,-44.922,0.000
1714024090.280,-30.762,-34.668,-20.508,-37.109,0.000
1714024090.284,-22.461,-28.809,-23.438,-40.527,0.000
1714024090.288,-29.785,-23.438,-28.320,-39.551,0.000
1714024090.292,-30.762,-26.367,-26.367,-35.156,0.000
1714024090.296,-31.738,-29.785,-25.879,-39.551,0.000
1714024090.300,-32.715,-28.320,-29.297,-41.016,0.000
1714024090.303,-25.391,-21.973,-24.902,-36.133,0.000
1714024090.307,-23.438,-22.461,-17.578,-38.086,0.000
1714024090.311,-30.273,-26.367,-18.066,-40.527,0.000
1714024090.315,-33.691,-34.180,-18.555,-35.156,0.000
1714024090.319,-27.344,-29.785,-25.391,-36.133,0.000
1714024090.323,-28.809,-25.391,-25.879,-39.551,0.000
1714024090.327,-32.227,-31.738,-23.926,-39.062,0.000
1714024090.330,-24.414,-35.645,-34.668,-36.621,0.000
1714024090.334,-20.020,-28.809,-33.203,-32.715,0.000
1714024090.338,-20.996,-24.414,-20.508,-34.668,0.000
1714024090.342,-16.113,-29.297,-11.230,-33.691,0.000
1714024090.346,-11.719,-26.855,-11.230,-33.203,0.000
1714024090.350,-12.207,-26.367,-20.020,-39.551,0.000
1714024090.354,-10.742,-32.227,-27.344,-48.340,0.000
1714024090.358,-17.090,-32.715,-36.133,-55.176,0.000
1714024090.362,-20.996,-29.785,-40.039,-52.246,0.000
1714024090.366,-22.949,-22.461,-38.086,-42.969,0.000
1714024090.370,-26.367,-22.949,-36.133,-40.039,0.000
1714024090.374,-24.902,-26.855,-33.691,-39.551,0.000
1714024090.378,-22.461,-23.438,-21.484,-30.762,0.000
1714024090.381,-24.902,-28.809,-17.090,-23.926,0.000
1714024090.385,-28.320,-29.297,-26.367,-32.715,0.000
1714024090.389,-27.344,-25.391,-26.855,-39.062,0.000
1714024090.393,-28.809,-31.738,-26.367,-33.691,0.000
1714024090.397,-33.203,-36.621,-26.367,-31.738,0.000
1714024090.401,-32.715,-33.203,-25.879,-35.645,0.000
1714024090.405,-33.691,-29.297,-28.809,-36.621,0.000
1714024090.409,-37.109,-30.273,-22.949,-35.645,0.000
1714024090.413,-33.691,-34.180,-27.344,-40.527,0.000
1714024090.417,-31.738,-37.598,-31.738,-46.387,0.000
1714024090.421,-30.762,-39.062,-23.438,-47.363,0.000
1714024090.425,-28.320,-40.039,-22.461,-44.434,0.000
1714024090.429,-29.785,-40.527,-27.832,-40.527,0.000
1714024090.432,-34.180,-34.668,-30.273,-44.922,0.000
1714024090.436,-30.762,-30.273,-32.227,-41.992,0.000
1714024090.440,-30.273,-33.203,-33.203,-34.668,0.000
1714024090.444,-31.250,-29.297,-27.344,-35.645,0.000
1714024090.448,-34.180,-29.297,-28.320,-37.109,0.000
1714024090.452,-38.086,-39.551,-36.133,-46.875,0.000
1714024090.456,-35.645,-41.992,-40.039,-49.805,0.000
1714024090.460,-35.156,-38.574,-33.691,-40.527,0.000
1714024090.464,-32.227,-37.109,-28.320,-33.691,0.000
1714024090.468,-26.855,-38.086,-28.320,-35.645,0.000
1714024090.472,-24.414,-31.738,-20.996,-37.109,0.000
1714024090.476,-28.809,-27.344,-17.090,-33.203,0.000
1714024090.479,-30.762,-31.250,-26.855,-33.203,0.000
1714024090.483,-28.320,-28.320,-33.691,-29.297,0.000
1714024090.487,-24.414,-25.391,-31.250,-36.133,0.000
1714024090.491,-23.926,-26.855,-29.785,-37.109,0.000
1714024090.495,-24.414,-32.227,-23.438,-27.832,0.000
1714024090.500,-15.137,-27.832,-14.160,-25.879,0.000
1714024090.504,-12.695,-25.879,-16.602,-34.180,0.000
1714024090.508,-17.090,-34.180,-20.020,-35.645,0.000
1714024090.511,-18.066,-31.738,-25.391,-31.738,0.000
1714024090.515,-21.973,-23.438,-31.738,-32.227,0.000
1714024090.519,-20.996,-23.438,-31.250,-31.738,0.000
1714024090.523,-21.484,-25.879,-27.832,-35.156,0.000
1714024090.527,-21.973,-30.273,-21.973,-25.879,0.000
1714024090.531,-20.020,-31.250,-22.949,-19.043,0.000
1714024090.535,-22.461,-29.297,-20.996,-31.738,0.000
1714024090.539,-23.438,-27.344,-23.438,-39.551,0.000
1714024090.543,-21.484,-23.926,-26.855,-27.832,0.000
1714024090.546,-24.414,-22.461,-21.973,-14.160,0.000
1714024090.550,-26.367,-18.066,-19.531,-23.926,0.000
1714024090.554,-23.438,-19.531,-20.996,-30.762,0.000
1714024090.558,-24.414,-24.902,-22.949,-31.738,0.000
1714024090.562,-23.926,-22.461,-27.832,-32.227,0.000
1714024090.566,-19.531,-24.902,-23.926,-29.297,0.000
1714024090.570,-15.625,-32.227,-24.414,-29.297,0.000
1714024090.574,-12.207,-28.809,-26.855,-28.809,0.000
1714024090.578,-16.602,-23.438,-25.391,-28.809,0.000
1714024090.582,-20.508,-23.926,-26.367,-30.273,0.000
1714024090.585,-17.090,-27.832,-20.020,-31.738,0.000
1714024090.589,-15.625,-34.668,-22.461,-26.855,0.000
1714024090.593,-12.695,-27.832,-22.461,-22.949,0.000
1714024090.597,-13.672,-21.484,-18.066,-25.391,0.000
1714024090.601,-15.137,-21.484,-23.438,-31.250,0.000
1714024090.605,-10.254,-15.137,-23.926,-31.250,0.000
1714024090.609,-11.230,-16.602,-18.555,-26.367,0.000
1714024090.613,-15.625,-19.531,-20.508,-23.438,0.000
1714024090.616,-18.066,-20.020,-23.438,-25.391,0.000
1714024090.620,-15.625,-24.414,-21.973,-22.461,0.000
1714024090.624,-17.578,-21.973,-19.043,-23.438,0.000
1714024090.628,-19.043,-16.113,-14.648,-25.391,0.000
1714024090.632,-9.766,-10.254,-18.555,-19.531,0.000
1714024090.636,-13.672,-14.648,-26.367,-24.902,0.000
1714024090.640,-15.625,-19.531,-22.461,-26.367,0.000
1714024090.643,-18.555,-14.160,-22.949,-26.855,0.000
1714024090.647,-26.855,-19.043,-28.320,-32.715,0.000
1714024090.651,-24.902,-25.391,-27.344,-30.273,0.000
1714024090.655,-20.508,-25.391,-25.879,-33.691,0.000
1714024090.659,-26.367,-23.438,-21.973,-32.227,0.000
1714024090.663,-29.297,-25.879,-23.926,-22.949,0.000
1714024090.667,-27.832,-28.320,-36.133,-28.809,0.000
1714024090.671,-25.391,-25.391,-32.227,-37.598,0.000
1714024090.675,-29.297,-22.949,-23.438,-39.551,0.000
1714024090.679,-32.227,-22.461,-22.949,-34.180,0.000
1714024090.683,-26.367,-21.973,-25.879,-30.762,0.000
1714024090.686,-30.273,-30.273,-24.902,-41.016,0.000
1714024090.690,-34.180,-37.598,-29.785,-41.504,0.000
1714024090.694,-30.762,-32.227,-28.809,-32.715,0.000
1714024090.698,-30.762,-24.902,-19.043,-35.645,0.000
1714024090.702,-30.762,-21.973,-30.273,-45.410,0.000
1714024090.706,-29.785,-20.508,-36.621,-49.805,0.000
1714024090.709,-29.785,-26.367,-24.414,-39.551,0.000
1714024090.713,-33.203,-29.297,-18.066,-38.086,0.000
1714024090.717,-31.250,-22.949,-22.461,-46.387,0.000
1714024090.721,-23.926,-20.508,-25.879,-43.945,0.000
1714024090.725,-28.320,-22.949,-23.438,-39.551,0.000
1714024090.729,-29.297,-24.902,-17.578,-37.598,0.000
1714024090.733,-20.996,-24.414,-12.207,-33.691,0.000
1714024090.737,-22.461,-17.090,-23.438,-38.086,0.000
1714024090.741,-22.461,-11.230,-25.879,-35.645,0.000
1714024090.745,-18.555,-17.090,-20.020,-27.344,0.000
1714024090.749,-20.020,-32.227,-22.949,-31.250,0.000
1714024090.753,-20.996,-36.133,-26.367,-28.809,0.000
1714024090.757,-24.414,-26.367,-26.855,-31.250,0.000
1714024090.761,-28.809,-23.926,-20.020,-39.551,0.000
1714024090.764,-24.902,-25.391,-19.531,-42.969,0.000
1714024090.768,-20.996,-24.902,-34.668,-42.969,0.000
1714024090.772,-22.949,-24.902,-35.645,-45.410,0.000
1714024090.776,-22.461,-24.902,-26.855,-41.504,0.000
1714024090.780,-21.973,-29.785,-23.438,-36.621,0.000
1714024090.784,-23.926,-26.855,-27.344,-42.969,0.000
1714024090.788,-26.855,-23.438,-32.715,-51.758,0.000
1714024090.792,-36.621,-33.203,-33.691,-53.711,0.000
1714024090.796,-39.551,-38.574,-32.715,-49.316,0.000
1714024090.800,-33.691,-38.574,-26.855,-40.039,0.000
1714024090.804,-26.855,-30.273,-24.902,-37.109,0.000
1714024090.808,-28.320,-20.020,-27.832,-43.457,0.000
1714024090.811,-26.367,-27.832,-30.762,-41.504,0.000
1714024090.815,-15.625,-33.691,-33.691,-25.391,0.000
1714024090.819,-18.555,-28.809,-24.414,-20.996,0.000
1714024090.823,-41.016,-40.527,-19.043,-43.457,0.000
1714024090.827,-48.828,-43.457,-25.391,-48.340,0.000
1714024090.831,-33.691,-36.133,-18.555,-30.273,0.000
1714024090.835,-26.855,-32.227,-12.207,-32.715,0.000
1714024090.839,-34.180,-30.273,-15.137,-42.480,0.000
1714024090.843,-34.668,-32.227,-20.996,-35.645,0.000
1714024090.847,-31.738,-26.855,-23.438,-33.203,0.000
1714024090.851,-26.367,-14.648,-29.297,-34.180,0.000
1714024090.855,-21.973,-20.996,-39.062,-37.109,0.000
1714024090.858,-26.855,-31.250,-39.551,-36.133,0.000
1714024090.862,-34.180,-32.715,-35.645,-42.969,0.000
1714024090.866,-31.250,-29.785,-28.809,-49.316,0.000
1714024090.870,-24.414,-27.344,-17.578,-41.016,0.000
1714024090.874,-25.879,-28.809,-13.672,-41.504,0.000
1714024090.878,-26.367,-27.832,-25.879,-48.340,0.000
1714024090.882,-27.832,-28.809,-36.621,-50.781,0.000
1714024090.886,-40.527,-34.180,-34.180,-54.199,0.000
1714024090.890,-38.574,-33.203,-33.691,-50.781,0.000
1714024090.894,-27.832,-32.715,-31.250,-36.133,0.000
1714024090.897,-29.297,-29.785,-24.902,-33.203,0.000
1714024090.901,-30.762,-32.227,-22.461,-31.738,0.000
1714024090.905,-29.297,-32.715,-16.602,-28.320,0.000
1714024090.909,-33.203,-25.879,-20.020,-37.598,0.000
1714024090.913,-34.668,-24.902,-37.109,-37.109,0.000
1714024090.917,-32.715,-28.320,-36.621,-33.691,0.000
1714024090.921,-33.691,-28.809,-26.855,-39.551,0.000
1714024090.925,-34.668,-25.391,-33.691,-40.039,0.000
1714024090.929,-31.738,-21.973,-34.180,-35.156,0.000
1714024090.933,-21.484,-21.973,-22.461,-25.879,0.000
1714024090.936,-22.461,-21.484,-17.578,-29.785,0.000
1714024090.940,-28.320,-23.926,-21.484,-31.738,0.000
1714024090.944,-25.391,-24.414,-25.879,-25.879,0.000
1714024090.948,-20.508,-21.484,-30.273,-22.949,0.000
1714024090.952,-27.344,-23.926,-28.809,-24.414,0.000
1714024090.956,-26.367,-31.250,-26.367,-25.879,0.000
1714024090.960,-29.297,-33.203,-30.273,-21.484,0.000
1714024090.964,-31.738,-30.273,-28.809,-24.902,0.000
1714024090.967,-28.320,-26.367,-23.926,-30.762,0.000
1714024090.971,-26.367,-27.832,-17.578,-31.738,0.000
1714024090.975,-32.227,-27.344,-30.273,-37.109,0.000
1714024090.979,-39.551,-20.508,-42.969,-38.574,0.000
1714024090.983,-36.621,-27.344,-36.621,-39.062,0.000
1714024090.987,-38.574,-36.133,-33.203,-42.480,0.000
1714024090.991,-41.504,-31.250,-30.273,-38.086,0.000
1714024090.995,-36.621,-28.320,-24.414,-26.367,0.000
1714024090.999,-28.809,-27.344,-12.207,-26.367,0.000
1714024091.003,-25.391,-22.949,-15.625,-36.133,0.000
1714024091.007,-26.367,-26.367,-27.344,-39.062,0.000
1714024091.010,-29.297,-30.273,-30.273,-34.180,0.000
1714024091.014,-39.551,-26.855,-42.969,-39.062,0.000
1714024091.018,-33.203,-31.738,-45.898,-50.293,0.000
1714024091.022,-24.902,-34.668,-37.109,-45.898,0.000
1714024091.026,-29.297,-28.809,-33.203,-37.598,0.000
1714024091.030,-27.344,-26.855,-31.738,-36.621,0.000
1714024091.034,-16.602,-22.461,-25.879,-29.785,0.000
1714024091.038,-21.973,-27.832,-21.973,-29.297,0.000
1714024091.041,-29.785,-34.180,-23.926,-30.762,0.000
1714024091.045,-30.762,-31.738,-36.133,-38.086,0.000
1714024091.049,-25.391,-27.832,-42.480,-41.992,0.000
1714024091.053,-19.531,-31.250,-40.039,-38.574,0.000
1714024091.057,-18.066,-37.109,-35.156,-38.086,0.000
1714024091.061,-20.020,-30.762,-31.738,-30.762,0.000
1714024091.065,-23.438,-26.855,-36.621,-31.250,0.000
1714024091.068,-19.531,-25.391,-35.645,-38.086,0.000
1714024091.072,-24.902,-27.832,-30.273,-41.016,0.000
1714024091.076,-26.855,-32.715,-37.598,-34.668,0.000
1714024091.080,-25.391,-36.621,-45.898,-29.297,0.000
1714024091.084,-25.391,-30.762,-41.016,-30.762,0.000
1714024091.088,-24.902,-22.949,-30.273,-33.203,0.000
1714024091.092,-28.320,-29.297,-33.203,-33.691,0.000
1714024091.096,-29.785,-36.621,-40.527,-37.109,0.000
1714024091.100,-26.367,-34.180,-32.715,-37.598,0.000
1714024091.104,-16.602,-21.973,-16.113,-30.273,0.000
1714024091.108,-18.555,-17.578,-14.648,-31.250,0.000
1714024091.112,-23.926,-26.855,-20.996,-31.250,0.000
1714024091.116,-22.949,-32.715,-27.344,-28.809,0.000
1714024091.120,-24.902,-24.902,-30.762,-40.039,0.000
1714024091.123,-30.273,-28.320,-34.180,-48.828,0.000
1714024091.127,-31.250,-38.086,-30.762,-40.039,0.000
1714024091.131,-29.785,-35.645,-30.762,-37.598,0.000
1714024091.135,-34.180,-37.598,-31.738,-41.992,0.000
1714024091.139,-28.320,-34.668,-21.973,-35.156,0.000
1714024091.143,-21.973,-25.879,-18.555,-20.508,0.000
1714024091.147,-20.996,-20.020,-12.695,-17.090,0.000
1714024091.151,-20.996,-22.949,-22.949,-28.320,0.000
1714024091.156,-26.855,-34.180,-38.574,-32.715,0.000
1714024091.160,-29.297,-38.574,-41.992,-33.691,0.000
1714024091.163,-18.555,-31.738,-38.574,-29.297,0.000
1714024091.167,-13.184,-29.297,-23.438,-19.043,0.000
1714024091.171,-20.020,-31.250,-21.484,-23.926,0.000
1714024091.175,-19.043,-25.391,-28.809,-35.645,0.000
1714024091.179,-7.812,-18.066,-29.297,-27.832,0.000
1714024091.183,-7.812,-19.043,-25.391,-26.855,0.000
1714024091.187,-6.348,-23.438,-31.250,-33.691,0.000
1714024091.191,-2.441,-27.344,-40.039,-26.367,0.000
1714024091.195,-4.395,-25.391,-26.855,-17.578,0.000
1714024091.199,-12.207,-26.855,-20.996,-14.160,0.000
1714024091.203,-13.672,-29.297,-21.973,-23.438,0.000
1714024091.206,-13.184,-24.902,-16.602,-28.809,0.000
1714024091.210,-19.531,-22.949,-20.020,-18.555,0.000
1714024091.214,-24.902,-32.227,-30.762,-15.137,0.000
1714024091.218,-24.414,-36.621,-33.203,-28.320,0.000
1714024091.222,-31.738,-37.109,-34.180,-34.180,0.000
1714024091.226,-35.156,-34.180,-39.551,-28.320,0.000
1714024091.230,-30.762,-23.926,-36.133,-23.926,0.000
1714024091.234,-32.715,-27.344,-27.832,-28.320,0.000
1714024091.238,-37.109,-34.668,-26.367,-34.668,0.000
1714024091.242,-34.668,-36.133,-36.621,-35.156,0.000
1714024091.246,-31.738,-33.203,-34.180,-23.926,0.000
1714024091.249,-34.668,-25.879,-39.062,-23.926,0.000
1714024091.253,-35.156,-29.785,-39.062,-34.180,0.000
1714024091.257,-30.762,-30.762,-25.391,-34.668,0.000
1714024091.261,-29.785,-31.738,-22.461,-28.320,0.000
1714024091.265,-31.738,-36.133,-25.879,-28.320,0.000
1714024091.269,-29.297,-33.691,-23.926,-37.598,0.000
1714024091.273,-32.227,-31.250,-19.531,-41.504,0.000
1714024091.277,-28.809,-33.691,-24.902,-32.715,0.000
1714024091.281,-26.367,-31.738,-24.414,-25.391,0.000
1714024091.285,-30.762,-21.973,-21.484,-39.062,0.000
1714024091.288,-24.902,-23.926,-23.438,-39.062,0.000
1714024091.292,-24.902,-35.645,-22.949,-27.832,0.000
1714024091.296,-27.344,-37.109,-26.855,-27.344,0.000
1714024091.300,-20.020,-29.297,-26.855,-24.414,0.000
1714024091.304,-17.090,-25.391,-23.438,-20.996,0.000
1714024091.308,-19.043,-24.902,-20.508,-21.973,0.000
1714024091.312,-23.926,-26.855,-21.973,-24.902,0.000
1714024091.316,-24.902,-27.832,-26.855,-25.879,0.000
1714024091.320,-23.438,-18.555,-26.367,-33.203,0.000
1714024091.323,-28.320,-23.438,-21.973,-35.156,0.000
1714024091.327,-31.250,-33.203,-24.414,-33.203,0.000
1714024091.331,-29.297,-32.715,-23.926,-33.203,0.000
1714024091.335,-28.320,-33.203,-19.531,-31.738,0.000
1714024091.339,-30.273,-31.250,-26.367,-31.738,0.000
1714024091.344,-38.574,-26.855,-26.855,-39.062,0.000
1714024091.347,-37.109,-22.949,-30.762,-39.062,0.000
1714024091.351,-18.555,-19.043,-20.020,-29.785,0.000
1714024091.355,-19.043,-22.461,-16.602,-34.180,0.000
1714024091.359,-27.832,-28.320,-29.785,-36.621,0.000
1714024091.363,-26.367,-26.855,-26.855,-33.691,0.000
1714024091.367,-19.043,-24.414,-23.926,-31.738,0.000
1714024091.371,-16.602,-23.438,-22.461,-26.367,0.000
1714024091.375,-34.668,-28.320,-30.762,-36.621,0.000
1714024091.379,-41.016,-27.344,-37.109,-41.016,0.000
1714024091.383,-24.414,-25.391,-24.414,-33.691,0.000
1714024091.387,-20.020,-24.414,-23.926,-34.180,0.000
1714024091.390,-29.785,-21.484,-33.203,-43.945,0.000
1714024091.394,-30.273,-25.391,-38.086,-44.434,0.000
1714024091.398,-24.902,-25.879,-37.598,-37.109,0.000
1714024091.402,-19.043,-20.508,-21.484,-30.762,0.000
1714024091.406,-20.020,-19.531,-16.113,-29.297,0.000
1714024091.410,-23.438,-18.555,-32.715,-36.133,0.000
1714024091.414,-21.484,-22.461,-33.691,-34.180,0.000
1714024091.417,-24.414,-25.879,-28.809,-31.250,0.000
1714024091.421,-23.926,-18.066,-31.250,-31.738,0.000
1714024091.425,-20.996,-16.113,-34.180,-30.273,0.000
1714024091.429,-30.762,-30.273,-37.109,-27.344,0.000
1714024091.433,-29.785,-24.414,-29.785,-25.391,0.000
1714024091.437,-27.832,-24.902,-32.227,-36.133,0.000
1714024091.440,-27.344,-30.273,-38.574,-37.109,0.000
1714024091.444,-24.414,-27.832,-41.016,-20.020,0.000
1714024091.448,-18.066,-29.785,-33.691,-10.742,0.000
1714024091.452,-19.531,-30.273,-32.715,-18.555,0.000
1714024091.456,-24.902,-32.715,-37.598,-21.973,0.000
1714024091.460,-23.926,-28.320,-34.180,-16.113,0.000
1714024091.464,-18.555,-21.484,-22.461,-19.043,0.000
1714024091.468,-20.508,-26.855,-19.043,-25.391,0.000
1714024091.472,-25.391,-35.156,-26.855,-34.180,0.000
1714024091.476,-21.973,-32.227,-32.227,-31.250,0.000
1714024091.480,-23.438,-22.949,-34.180,-29.785,0.000
1714024091.484,-27.344,-24.414,-32.715,-41.504,0.000
1714024091.488,-26.367,-25.391,-30.273,-41.016,0.000
1714024091.492,-31.738,-22.461,-32.715,-38.574,0.000
1714024091.495,-32.227,-20.020,-31.738,-36.133,0.000
1714024091.499,-25.879,-20.020,-18.066,-34.180,0.000
1714024091.503,-25.391,-23.926,-26.367,-39.551,0.000
1714024091.507,-32.227,-26.367,-41.504,-48.340,0.000
1714024091.511,-33.203,-29.297,-35.645,-51.758,0.000
1714024091.515,-28.809,-34.180,-35.645,-45.410,0.000
1714024091.519,-28.809,-34.180,-41.992,-46.875,0.000
1714024091.523,-31.738,-27.344,-35.156,-44.434,0.000
1714024091.527,-26.367,-24.414,-24.414,-36.621,0.000
1714024091.531,-17.578,-17.578,-12.695,-29.785,0.000
1714024091.535,-18.066,-22.461,-14.648,-32.715,0.000
1714024091.539,-25.391,-32.227,-25.879,-35.645,0.000
1714024091.542,-30.273,-24.414,-24.414,-36.133,0.000
1714024091.546,-28.320,-25.879,-26.855,-33.691,0.000
1714024091.550,-29.785,-37.109,-32.227,-37.109,0.000
1714024091.554,-36.133,-36.621,-29.297,-42.969,0.000
1714024091.558,-35.645,-30.762,-20.020,-32.715,0.000
1714024091.562,-35.156,-23.438,-18.555,-29.297,0.000
1714024091.566,-32.715,-24.414,-21.484,-25.391,0.000
1714024091.570,-37.109,-33.203,-19.043,-31.738,0.000
1714024091.574,-38.086,-35.645,-30.762,-40.039,0.000
1714024091.578,-37.109,-32.227,-44.922,-31.738,0.000
1714024091.582,-40.039,-28.320,-40.039,-31.250,0.000
1714024091.585,-39.551,-31.738,-28.809,-40.527,0.000
1714024091.589,-38.086,-34.668,-23.926,-33.691,0.000
1714024091.593,-37.109,-29.297,-24.414,-26.367,0.000
1714024091.597,-36.621,-22.461,-31.250,-27.344,0.000
1714024091.601,-37.109,-25.879,-29.297,-38.574,0.000
1714024091.605,-42.480,-30.762,-23.438,-45.410,0.000
1714024091.609,-48.340,-37.598,-37.598,-37.598,0.000
1714024091.613,-41.504,-35.645,-43.457,-30.273,0.000
1714024091.617,-32.227,-32.227,-34.180,-34.668,0.000
1714024091.621,-28.320,-33.691,-23.926,-38.086,0.000
1714024091.625,-28.320,-32.227,-22.949,-35.156,0.000
1714024091.628,-31.250,-26.367,-29.297,-30.273,0.000
1714024091.632,-31.738,-18.555,-26.367,-33.203,0.000
1714024091.636,-28.320,-24.414,-30.273,-35.156,0.000
1714024091.640,-29.785,-34.180,-29.785,-32.227,0.000
1714024091.644,-30.762,-34.668,-25.391,-30.273,0.000
1714024091.648,-29.297,-32.715,-27.344,-32.227,0.000
1714024091.652,-27.832,-30.273,-26.855,-34.180,0.000
1714024091.656,-31.250,-30.273,-36.621,-31.738,0.000
1714024091.660,-37.598,-28.320,-39.062,-40.527,0.000
1714024091.664,-35.645,-26.855,-32.715,-43.945,0.000
1714024091.667,-29.297,-24.414,-21.484,-34.668,0.000
1714024091.671,-24.902,-24.902,-16.602,-39.062,0.000
1714024091.675,-25.391,-31.738,-20.020,-35.156,0.000
1714024091.679,-32.227,-37.109,-23.926,-27.344,0.000
1714024091.683,-31.738,-37.598,-29.297,-33.691,0.000
1714024091.687,-29.297,-35.156,-24.414,-40.527,0.000
1714024091.691,-25.879,-28.809,-20.508,-39.062,0.000
1714024091.695,-21.484,-10.254,-31.738,-33.691,0.000
1714024091.699,-21.973,-7.324,-29.785,-22.949,0.000
1714024091.702,-17.578,-22.949,-10.742,-17.578,0.000
1714024091.706,-23.438,-28.809,-15.625,-23.438,0.000
1714024091.710,-30.273,-30.762,-36.133,-28.320,0.000
1714024091.714,-33.203,-35.645,-36.621,-29.785,0.000
1714024091.718,-36.133,-31.738,-33.691,-32.227,0.000
1714024091.722,-37.109,-29.785,-34.180,-42.969,0.000
1714024091.726,-34.668,-30.273,-36.621,-41.504,0.000
1714024091.730,-33.691,-24.902,-34.180,-32.715,0.000
1714024091.734,-34.668,-21.484,-25.391,-38.574,0.000
1714024091.737,-40.039,-35.156,-29.297,-42.969,0.000
1714024091.741,-44.922,-43.945,-35.645,-41.016,0.000
1714024091.745,-37.109,-38.086,-41.992,-29.785,0.000
1714024091.749,-32.227,-34.668,-40.039,-32.715,0.000
1714024091.753,-41.504,-36.133,-31.250,-49.805,0.000
1714024091.757,-38.574,-32.227,-33.691,-48.828,0.000
1714024091.761,-31.250,-25.879,-35.156,-36.621,0.000
1714024091.764,-35.156,-28.809,-21.973,-41.016,0.000
1714024091.768,-32.227,-29.785,-18.066,-45.410,0.000
1714024091.772,-43.945,-34.668,-31.250,-57.617,0.000
1714024091.776,-60.059,-35.156,-32.227,-75.684,0.000
1714024091.780,-52.734,-29.785,-25.879,-68.359,0.000
1714024091.784,-62.500,-32.715,-24.902,-71.777,0.000
1714024091.788,-80.566,-36.621,-28.809,-90.820,0.000
1714024091.792,-84.473,-34.668,-26.367,-98.633,0.000
1714024091.796,-89.355,-32.227,-22.461,-97.656,0.000
1714024091.800,-91.797,-31.738,-20.020,-100.586,0.000
1714024091.804,-93.750,-31.738,-26.855,-110.352,0.000
1714024091.807,-94.238,-31.738,-34.180,-108.887,0.000
1714024091.811,-100.098,-32.227,-28.320,-108.887,0.000
1714024091.815,-108.398,-36.621,-30.762,-112.793,0.000
1714024091.819,-110.352,-33.691,-39.551,-122.070,0.000
1714024091.823,-114.258,-30.762,-40.527,-126.465,0.000
1714024091.827,-113.770,-31.738,-34.668,-114.258,0.000
1714024091.831,-109.863,-28.809,-31.738,-111.328,0.000
1714024091.834,-107.910,-20.020,-35.645,-118.164,0.000
1714024091.838,-110.840,-16.113,-32.227,-122.559,0.000
1714024091.842,-109.863,-17.090,-22.949,-120.605,0.000
1714024091.846,-110.840,-31.250,-28.809,-113.770,0.000
1714024091.850,-108.398,-42.480,-33.691,-111.328,0.000
1714024091.854,-106.934,-37.598,-28.809,-116.699,0.000
1714024091.858,-113.281,-38.574,-28.320,-117.188,0.000
1714024091.862,-114.746,-37.598,-24.414,-121.582,0.000
1714024091.866,-116.211,-37.109,-20.996,-127.930,0.000
1714024091.870,-115.723,-39.551,-18.555,-122.070,0.000
1714024091.874,-110.840,-39.062,-22.461,-121.094,0.000
1714024091.878,-112.793,-34.180,-22.949,-120.605,0.000
1714024091.882,-113.281,-28.320,-19.043,-110.840,0.000
1714024091.886,-108.887,-34.180,-28.809,-101.562,0.000
1714024091.889,-107.910,-49.316,-37.598,-100.586,0.000
1714024091.893,-100.586,-46.387,-36.133,-96.680,0.000
1714024091.897,-91.797,-37.109,-32.227,-90.332,0.000
1714024091.901,-95.703,-37.598,-23.438,-99.121,0.000
1714024091.905,-92.773,-39.062,-23.438,-102.539,0.000
1714024091.909,-88.379,-37.109,-33.691,-85.938,0.000
1714024091.913,-83.496,-37.598,-34.180,-82.520,0.000
1714024091.917,-78.613,-36.133,-30.762,-86.914,0.000
1714024091.921,-73.242,-24.902,-23.926,-78.125,0.000
1714024091.925,-70.312,-28.809,-21.973,-65.430,0.000
1714024091.929,-76.172,-35.156,-27.832,-64.453,0.000
1714024091.933,-67.871,-35.156,-25.391,-62.500,0.000
1714024091.936,-53.223,-40.039,-25.391,-56.152,0.000
1714024091.940,-48.340,-37.598,-29.297,-48.340,0.000
1714024091.944,-47.363,-32.715,-21.973,-39.551,0.000
1714024091.948,-41.016,-29.785,-8.789,-31.738,0.000
1714024091.952,-37.109,-27.832,-17.090,-35.645,0.000
1714024091.956,-39.551,-28.320,-32.715,-40.039,0.000
1714024091.960,-42.480,-30.762,-29.785,-31.250,0.000
1714024091.964,-37.598,-35.156,-27.832,-25.879,0.000
1714024091.968,-32.227,-44.922,-34.668,-32.227,0.000
1714024091.972,-26.855,-43.457,-39.551,-29.297,0.000
1714024091.976,-23.438,-30.273,-31.738,-20.996,0.000
1714024091.980,-20.508,-32.715,-27.344,-19.043,0.000
1714024091.983,-20.020,-40.527,-37.598,-17.090,0.000
1714024091.987,-20.508,-34.668,-35.645,-21.484,0.000
1714024091.991,-21.484,-29.297,-44.434,-26.367,0.000
1714024091.995,-25.879,-34.180,-59.082,-32.227,0.000
1714024091.999,-15.137,-33.691,-54.199,-29.297,0.000
1714024092.003,-14.160,-31.738,-45.410,-28.320,0.000
1714024092.007,-22.949,-30.762,-41.016,-29.785,0.000
1714024092.011,-16.602,-30.762,-42.969,-19.531,0.000
1714024092.015,-11.719,-33.203,-46.875,-18.066,0.000
1714024092.019,-14.160,-37.598,-42.969,-36.133,0.000
1714024092.023,-21.973,-28.809,-30.273,-45.898,0.000
1714024092.026,-35.156,-24.414,-32.715,-48.340,0.000
1714024092.030,-41.016,-27.344,-37.598,-49.316,0.000
1714024092.034,-53.223,-19.531,-31.250,-62.500,0.000
1714024092.038,-56.641,-16.113,-31.738,-72.754,0.000
1714024092.042,-50.293,-17.578,-33.203,-65.918,0.000
1714024092.046,-60.547,-21.484,-39.062,-72.266,0.000
1714024092.050,-66.406,-20.508,-42.480,-82.520,0.000
1714024092.054,-59.570,-17.578,-51.758,-85.938,0.000
1714024092.058,-55.664,-20.020,-55.664,-83.496,0.000
1714024092.061,-58.594,-25.879,-51.758,-74.707,0.000
1714024092.065,-48.828,-20.020,-45.410,-62.500,0.000
1714024092.069,-43.945,-18.066,-32.715,-56.641,0.000
1714024092.073,-51.758,-21.484,-32.715,-53.711,0.000
1714024092.077,-45.410,-12.207,-36.133,-42.480,0.000
1714024092.081,-42.480,-17.090,-39.551,-39.062,0.000
1714024092.085,-47.363,-26.855,-45.410,-45.410,0.000
1714024092.089,-42.969,-28.809,-49.316,-41.504,0.000
1714024092.093,-38.574,-27.832,-49.316,-32.227,0.000
1714024092.096,-31.250,-30.762,-45.898,-23.926,0.000
1714024092.100,-25.391,-37.109,-48.340,-20.020,0.000
1714024092.104,-23.438,-38.086,-46.875,-25.391,0.000
1714024092.108,-20.508,-36.133,-49.316,-22.949,0.000
1714024092.112,-12.207,-40.527,-53.711,-9.766,0.000
1714024092.116,-0.977,-47.852,-62.988,-10.742,0.000
1714024092.120,-3.418,-50.781,-69.824,-1.953,0.000
1714024092.124,-4.395,-52.246,-63.477,-0.977,0.000
1714024092.128,5.859,-51.270,-55.176,2.930,0.000
1714024092.132,7.812,-51.270,-52.734,4.883,0.000
1714024092.135,1.465,-52.246,-52.734,-5.859,0.000
1714024092.139,5.371,-52.734,-51.270,-0.977,0.000
1714024092.143,12.695,-51.270,-51.758,6.348,0.000
1714024092.147,15.137,-53.711,-44.922,8.301,0.000
1714024092.151,7.812,-54.688,-49.805,8.789,0.000
1714024092.155,5.371,-50.293,-52.246,9.277,0.000
1714024092.159,13.184,-46.875,-44.922,22.949,0.000
1714024092.163,20.020,-40.527,-50.293,33.691,0.000
1714024092.167,21.973,-45.898,-52.246,27.832,0.000
1714024092.170,21.973,-50.781,-47.363,18.066,0.000
1714024092.174,19.043,-47.852,-46.387,15.137,0.000
1714024092.178,20.020,-53.223,-43.945,13.184,0.000
1714024092.182,22.461,-53.223,-45.410,10.742,0.000
1714024092.186,23.438,-46.387,-44.434,20.508,0.000
1714024092.190,19.043,-42.480,-43.945,26.367,0.000
1714024092.193,22.461,-37.109,-46.875,32.715,0.000
1714024092.197,37.598,-24.902,-38.086,42.969,0.000
1714024092.201,36.621,-24.414,-34.668,35.645,0.000
1714024092.205,27.344,-28.809,-43.945,27.832,0.000
1714024092.209,24.902,-27.832,-39.551,37.109,0.000
1714024092.213,19.531,-27.344,-31.738,33.203,0.000
1714024092.217,21.973,-22.461,-33.203,29.785,0.000
1714024092.221,24.414,-26.855,-30.762,34.668,0.000
1714024092.225,23.438,-25.879,-22.461,33.203,0.000
1714024092.229,29.785,-17.090,-23.438,37.109,0.000
1714024092.233,29.785,-20.508,-33.691,37.598,0.000
1714024092.237,28.320,-19.531,-36.621,33.203,0.000
1714024092.241,26.367,-12.207,-30.762,33.203,0.000
1714024092.245,29.785,-6.836,-25.879,37.109,0.000
1714024092.248,34.180,-9.766,-19.531,41.016,0.000
1714024092.252,22.949,-15.137,-17.578,28.809,0.000
1714024092.256,17.578,-19.531,-24.414,21.973,0.000
1714024092.260,20.508,-18.066,-20.508,33.691,0.000
1714024092.264,14.160,-20.508,-14.160,33.203,0.000
1714024092.268,13.184,-20.020,-24.414,26.367,0.000
1714024092.272,14.648,-12.695,-33.203,22.461,0.000
1714024092.276,8.301,-17.090,-37.109,13.184,0.000
1714024092.280,10.742,-14.160,-35.156,18.066,0.000
1714024092.284,19.043,-7.812,-28.809,20.508,0.000
1714024092.288,14.160,-13.672,-30.762,7.812,0.000
1714024092.292,4.395,-17.578,-33.691,4.395,0.000
1714024092.296,2.441,-16.602,-40.039,3.418,0.000
1714024092.299,4.883,-10.254,-40.527,-1.953,0.000
1714024092.303,-0.488,-12.207,-33.691,-6.348,0.000
1714024092.307,-8.789,-19.531,-26.367,-4.883,0.000
1714024092.311,-10.742,-19.531,-34.180,-0.488,0.000
1714024092.315,-2.930,-18.555,-37.598,8.789,0.000
1714024092.319,-0.488,-16.113,-32.227,-1.953,0.000
1714024092.323,-1.953,-10.742,-28.809,-8.789,0.000
1714024092.327,-0.977,-14.648,-25.391,-0.488,0.000
1714024092.331,-0.977,-18.066,-29.297,-5.371,0.000
1714024092.335,-1.953,-22.949,-36.133,-17.578,0.000
1714024092.339,-5.371,-26.367,-32.227,-16.113,0.000
1714024092.343,-13.672,-24.902,-33.691,-14.160,0.000
1714024092.346,-16.602,-31.250,-38.086,-17.090,0.000
1714024092.350,-10.254,-33.203,-30.273,-15.625,0.000
1714024092.354,-9.766,-22.949,-21.484,-14.648,0.000
1714024092.358,-6.836,-18.555,-14.160,1.953,0.000
1714024092.362,-4.883,-12.695,-13.672,2.441,0.000
1714024092.366,-3.906,-5.371,-18.066,-10.742,0.000
1714024092.370,-12.695,-11.230,-17.090,-17.578,0.000
1714024092.374,-22.461,-20.020,-18.066,-29.297,0.000
1714024092.378,-17.578,-20.996,-18.066,-18.555,0.000
1714024092.382,-12.207,-16.113,-18.066,-13.184,0.000
1714024092.385,-16.113,-12.695,-20.508,-19.043,0.000
1714024092.389,-19.531,-19.043,-22.949,-14.648,0.000
1714024092.393,-17.090,-24.902,-26.855,-12.207,0.000
1714024092.397,-18.066,-21.973,-25.879,-14.160,0.000
1714024092.401,-21.484,-16.602,-15.137,-18.066,0.000
1714024092.405,-25.879,-25.391,-19.043,-18.555,0.000
1714024092.409,-25.879,-29.785,-23.926,-20.508,0.000
1714024092.413,-21.973,-21.484,-20.996,-20.508,0.000
1714024092.417,-20.020,-16.113,-19.531,-26.855,0.000
1714024092.421,-22.461,-17.578,-19.043,-28.320,0.000
1714024092.424,-25.879,-15.137,-23.926,-23.438,0.000
1714024092.428,-27.344,-11.230,-22.461,-18.066,0.000
1714024092.432,-30.273,-12.695,-23.438,-25.391,0.000
1714024092.436,-27.832,-11.230,-28.809,-30.762,0.000
1714024092.440,-28.320,-18.066,-28.809,-29.297,0.000
1714024092.444,-28.809,-27.344,-26.855,-27.344,0.000
1714024092.448,-26.855,-26.367,-24.902,-17.578,0.000
1714024092.452,-25.391,-20.020,-18.555,-18.555,0.000
1714024092.456,-22.461,-18.555,-21.484,-29.297,0.000
1714024092.460,-21.484,-21.973,-30.273,-23.926,0.000
1714024092.464,-21.973,-19.043,-25.391,-17.578,0.000
1714024092.467,-21.973,-14.648,-19.043,-21.973,0.000
1714024092.471,-25.391,-21.484,-18.066,-31.738,0.000
1714024092.475,-28.809,-30.273,-21.484,-29.785,0.000
1714024092.479,-26.367,-30.762,-19.043,-24.414,0.000
1714024092.483,-24.902,-27.832,-16.602,-24.902,0.000
1714024092.487,-22.949,-25.391,-19.531,-26.855,0.000
1714024092.491,-24.902,-25.879,-26.367,-30.762,0.000
1714024092.495,-24.414,-20.996,-27.344,-27.832,0.000
1714024092.499,-16.602,-8.301,-21.973,-24.902,0.000
1714024092.502,-18.555,-9.277,-23.926,-26.367,0.000
1714024092.506,-28.320,-22.461,-26.855,-29.785,0.000
1714024092.510,-25.879,-27.344,-23.438,-26.855,0.000
1714024092.515,-15.137,-25.391,-16.602,-14.648,0.000
1714024092.519,-17.578,-22.949,-10.742,-19.043,0.000
1714024092.522,-21.973,-22.949,-11.230,-22.949,0.000
1714024092.526,-24.414,-19.043,-20.508,-18.555,0.000
1714024092.530,-29.785,-21.484,-33.203,-32.227,0.000
1714024092.534,-26.855,-27.344,-37.598,-40.039,0.000
1714024092.538,-25.879,-29.785,-32.715,-30.273,0.000
1714024092.542,-27.344,-28.320,-29.297,-21.484,0.000
1714024092.546,-21.973,-21.973,-20.508,-20.020,0.000
1714024092.550,-18.555,-27.832,-20.508,-28.809,0.000
1714024092.554,-28.809,-35.645,-28.809,-40.527,0.000
1714024092.558,-34.668,-35.156,-29.785,-35.645,0.000
1714024092.561,-33.203,-32.227,-35.156,-35.645,0.000
1714024092.565,-27.832,-33.691,-33.203,-34.668,0.000
1714024092.569,-26.855,-34.180,-31.250,-34.668,0.000
1714024092.573,-24.902,-21.484,-28.320,-36.133,0.000
1714024092.577,-20.020,-22.461,-19.043,-24.414,0.000
1714024092.581,-19.531,-33.691,-17.578,-15.625,0.000
1714024092.585,-17.578,-34.180,-25.879,-24.414,0.000
1714024092.588,-21.484,-34.180,-29.297,-28.809,0.000
1714024092.592,-27.832,-34.668,-27.832,-24.902,0.000
1714024092.596,-26.367,-36.133,-33.203,-19.531,0.000
1714024092.600,-25.391,-35.156,-35.645,-15.137,0.000
1714024092.604,-28.320,-24.414,-21.484,-31.250,0.000
1714024092.608,-23.926,-16.602,-10.742,-39.551,0.000
1714024092.612,-20.020,-20.020,-12.207,-27.344,0.000
1714024092.616,-20.020,-25.391,-14.160,-24.414,0.000
1714024092.620,-22.461,-28.809,-11.719,-31.250,0.000
1714024092.624,-22.461,-25.391,-15.625,-28.320,0.000
1714024092.628,-22.461,-27.832,-28.320,-22.461,0.000
1714024092.632,-23.438,-30.273,-24.902,-19.043,0.000
1714024092.636,-22.949,-29.297,-15.137,-20.996,0.000
1714024092.640,-26.367,-27.344,-15.137,-28.320,0.000
1714024092.643,-27.344,-22.461,-13.672,-21.973,0.000
1714024092.647,-25.879,-27.832,-14.648,-23.438,0.000
1714024092.651,-23.438,-29.785,-16.602,-32.227,0.000
1714024092.655,0.000,-25.879,-20.508,-33.691,0.000
1714024092.659,0.000,-27.832,-22.461,-29.785,0.000
1714024092.663,0.000,-25.879,-22.949,-27.344,0.000
1714024092.667,0.000,-22.949,-28.320,-37.109,0.000
1714024092.671,0.000,-23.926,-22.949,-37.598,0.000
1714024092.675,0.000,-30.273,-19.043,-33.203,0.000
1714024092.679,0.000,-30.273,-23.926,-32.715,0.000
1714024092.683,0.000,-23.926,-25.879,-37.109,0.000
1714024092.687,0.000,-29.297,-27.832,-43.457,0.000
1714024092.691,0.000,-28.320,-22.949,-41.016,0.000
1714024092.694,0.000,-20.020,-17.090,-35.156,0.000
1714024092.698,0.000,-23.438,-21.484,-29.297,0.000
1714024092.702,-29.297,-30.273,-34.180,-35.645,0.000
1714024092.706,-29.785,-31.250,-32.227,-41.504,0.000
1714024092.710,-29.297,-33.203,-24.902,-36.621,0.000
1714024092.714,-29.297,-32.715,-30.762,-33.203,0.000
1714024092.718,-28.320,-26.367,-36.621,-39.062,0.000
1714024092.722,-28.809,-26.855,-34.180,-44.922,0.000
1714024092.726,-25.879,-24.902,-24.414,-42.969,0.000
1714024092.730,-19.531,-22.461,-14.648,-38.574,0.000
1714024092.734,-22.949,-32.227,-27.344,-42.480,0.000
1714024092.738,-29.785,-30.762,-33.691,-48.340,0.000
1714024092.741,-22.461,-23.926,-27.832,-41.992,0.000
1714024092.745,-14.648,-26.367,-27.344,-35.645,0.000
1714024092.749,-18.555,-28.809,-28.320,-37.598,0.000
1714024092.753,-19.531,-21.484,-26.855,-38.086,0.000
1714024092.757,-17.578,-16.113,-16.602,-39.062,0.000
1714024092.761,-15.137,-25.879,-10.742,-38.574,0.000
1714024092.765,-21.484,-28.320,-25.391,-31.738,0.000
1714024092.769,-30.273,-30.273,-39.062,-36.133,0.000
1714024092.773,-31.738,-35.645,-39.551,-39.551,0.000
1714024092.777,-36.621,-33.691,-31.250,-35.156,0.000
1714024092.780,-35.156,-32.715,-28.320,-27.832,0.000
1714024092.784,-28.809,-26.855,-20.508,-23.438,0.000
1714024092.788,-28.320,-20.508,-20.020,-30.273,0.000
1714024092.792,-26.855,-22.461,-27.832,-28.320,0.000
1714024092.796,-28.320,-31.250,-34.180,-26.367,0.000
1714024092.800,-28.809,-31.738,-38.086,-30.273,0.000
1714024092.804,-28.809,-35.156,-42.969,-31.250,0.000
1714024092.808,-29.297,-35.156,-48.828,-28.320,0.000
1714024092.812,-27.344,-32.227,-37.598,-19.531,0.000
1714024092.816,-26.367,-32.227,-19.043,-16.602,0.000
1714024092.819,-18.555,-22.461,-13.672,-19.531,0.000
1714024092.823,-17.090,-20.508,-22.461,-26.855,0.000
1714024092.827,-21.973,-23.926,-34.668,-36.133,0.000
1714024092.831,-23.438,-25.391,-26.367,-42.480,0.000
1714024092.835,-24.414,-32.715,-25.879,-39.062,0.000
1714024092.839,-30.273,-33.691,-30.762,-35.645,0.000
1714024092.843,-32.715,-37.598,-22.949,-36.133,0.000
1714024092.847,-29.297,-41.992,-21.484,-32.227,0.000
1714024092.850,-27.832,-36.133,-24.902,-34.668,0.000
1714024092.854,-29.785,-29.297,-24.414,-43.945,0.000
1714024092.858,-24.902,-22.461,-25.391,-38.574,0.000
1714024092.862,-15.625,-17.578,-23.926,-29.785,0.000
1714024092.866,-12.207,-20.020,-21.973,-29.297,0.000
1714024092.870,-18.066,-34.180,-29.297,-32.715,0.000
1714024092.874,-22.461,-42.969,-33.691,-37.598,0.000
1714024092.878,-22.461,-36.133,-27.832,-31.250,0.000
1714024092.882,-19.531,-33.203,-17.090,-24.414,0.000
1714024092.886,-25.879,-35.645,-23.926,-31.250,0.000
1714024092.889,-32.227,-30.762,-33.203,-38.574,0.000
1714024092.893,-29.297,-23.926,-29.297,-27.344,0.000
1714024092.897,-27.344,-21.484,-25.391,-24.414,0.000
1714024092.901,-24.902,-23.926,-25.391,-27.832,0.000
1714024092.905,-25.879,-31.250,-28.809,-26.855,0.000
1714024092.909,-29.297,-37.109,-24.414,-23.926,0.000
1714024092.913,-26.367,-40.527,-19.531,-27.344,0.000
1714024092.917,-22.949,-33.203,-17.090,-31.738,0.000
1714024092.921,-26.367,-26.367,-19.531,-40.039,0.000
1714024092.924,-31.250,-28.809,-24.902,-42.969,0.000
1714024092.928,-31.738,-22.949,-23.926,-30.273,0.000
1714024092.932,-34.668,-27.344,-23.438,-29.297,0.000
1714024092.937,-34.180,-26.855,-20.508,-36.621,0.000
1714024092.940,-27.344,-19.043,-20.508,-33.691,0.000
1714024092.944,-26.855,-24.414,-23.926,-29.785,0.000
1714024092.948,-32.227,-32.715,-28.320,-34.180,0.000
1714024092.952,-35.645,-39.551,-22.461,-37.598,0.000
1714024092.956,-34.180,-43.945,-17.090,-36.621,0.000
1714024092.960,-29.297,-41.504,-29.297,-23.926,0.000
1714024092.964,-27.344,-30.762,-22.461,-22.949,0.000
1714024092.968,-30.762,-28.320,-15.625,-37.109,0.000
1714024092.972,-29.297,-34.180,-20.996,-30.273,0.000
1714024092.976,-30.762,-31.250,-15.625,-21.484,0.000
1714024092.979,-35.156,-30.762,-20.020,-28.320,0.000
1714024092.984,-36.621,-35.645,-33.203,-37.598,0.000
1714024092.988,-34.180,-35.156,-36.133,-42.480,0.000
1714024092.991,-32.715,-39.062,-35.156,-41.016,0.000
1714024092.995,-35.645,-41.016,-31.738,-33.691,0.000
1714024092.999,-25.879,-31.250,-17.578,-25.391,0.000
1714024093.003,-23.926,-30.273,-20.508,-35.156,0.000
1714024093.007,-33.203,-34.668,-28.320,-36.621,0.000
1714024093.011,-26.855,-25.879,-21.973,-27.344,0.000
1714024093.015,-21.484,-20.508,-28.320,-32.715,0.000
1714024093.019,-23.926,-23.926,-35.645,-29.785,0.000
1714024093.023,-36.133,-31.738,-33.691,-33.203,0.000
1714024093.027,-41.504,-35.645,-34.180,-37.109,0.000
1714024093.031,-28.809,-31.738,-21.484,-23.926,0.000
1714024093.035,-25.879,-26.367,-20.020,-28.320,0.000
1714024093.038,-32.715,-26.855,-36.621,-40.527,0.000
1714024093.042,-32.227,-30.762,-36.133,-36.621,0.000
1714024093.046,-29.297,-30.762,-29.785,-31.250,0.000
1714024093.050,-24.414,-23.926,-31.250,-34.668,0.000
1714024093.054,-20.508,-12.207,-32.227,-37.109,0.000
1714024093.058,-26.855,-11.230,-29.297,-35.645,0.000
1714024093.062,-29.297,-22.461,-18.066,-29.785,0.000
1714024093.066,-28.320,-28.320,-9.277,-21.484,0.000
1714024093.070,-30.762,-25.391,-15.625,-27.344,0.000
1714024093.074,-36.133,-24.414,-29.297,-34.180,0.000
1714024093.078,-33.691,-23.926,-26.855,-29.785,0.000
1714024093.081,-31.250,-22.949,-28.320,-30.273,0.000
1714024093.085,-29.297,-19.531,-29.297,-37.109,0.000
1714024093.089,-27.344,-27.832,-27.344,-37.109,0.000
1714024093.093,-25.391,-29.785,-24.414,-33.203,0.000
1714024093.097,-13.672,-24.414,-9.766,-27.832,0.000
1714024093.101,-16.602,-24.414,-15.137,-26.367,0.000
1714024093.105,-23.438,-18.555,-23.926,-34.180,0.000
1714024093.109,-21.484,-22.949,-24.902,-35.156,0.000
1714024093.113,-22.949,-26.367,-25.879,-33.691,0.000
1714024093.117,-22.461,-20.020,-24.414,-38.086,0.000
1714024093.121,-19.043,-13.184,-23.926,-34.668,0.000
1714024093.124,-28.320,-20.020,-24.902,-32.715,0.000
1714024093.128,-35.156,-30.762,-21.484,-37.598,0.000
1714024093.132,-27.344,-21.973,-20.508,-34.668,0.000
1714024093.136,-23.438,-15.625,-21.973,-33.691,0.000
1714024093.140,-26.855,-25.391,-16.602,-37.598,0.000
1714024093.144,-29.785,-27.344,-29.297,-38.086,0.000
1714024093.148,-29.297,-25.879,-40.527,-42.969,0.000
1714024093.152,-22.461,-29.785,-31.250,-42.969,0.000
1714024093.156,-25.391,-30.273,-26.367,-40.039,0.000
1714024093.160,-29.785,-26.367,-28.320,-39.551,0.000
1714024093.163,-28.320,-23.438,-24.902,-33.203,0.000
1714024093.167,-29.785,-20.508,-26.367,-36.621,0.000
1714024093.171,-31.738,-22.949,-26.367,-39.551,0.000
1714024093.175,-30.273,-25.391,-25.879,-33.691,0.000
1714024093.179,-32.227,-28.809,-31.250,-31.738,0.000
1714024093.183,-41.016,-39.062,-31.250,-35.156,0.000
1714024093.187,-38.574,-36.621,-25.879,-35.156,0.000
1714024093.191,-35.645,-31.738,-27.344,-35.645,0.000
1714024093.195,-36.133,-31.250,-24.414,-35.156,0.000
1714024093.198,-33.691,-29.297,-25.879,-33.203,0.000
1714024093.202,-40.527,-24.902,-38.086,-36.621,0.000
1714024093.206,-37.109,-24.414,-37.598,-40.039,0.000
1714024093.210,-29.297,-26.367,-29.785,-36.621,0.000
1714024093.214,-27.832,-24.902,-27.832,-29.297,0.000
1714024093.218,-28.809,-27.832,-22.461,-32.227,0.000
1714024093.222,-32.227,-29.297,-20.996,-36.621,0.000
1714024093.226,-24.902,-26.367,-24.414,-28.320,0.000
1714024093.230,-15.137,-20.996,-18.066,-22.461,0.000
1714024093.233,-12.695,-10.254,-23.438,-22.461,0.000
1714024093.237,-20.996,-12.695,-37.109,-35.645,0.000
1714024093.241,-31.738,-27.344,-37.109,-46.387,0.000
1714024093.245,-29.785,-25.879,-28.320,-34.180,0.000
1714024093.249,-37.598,-22.461,-18.066,-45.898,0.000
1714024093.253,-41.504,-26.367,-26.855,-51.758,0.000
1714024093.257,-28.320,-27.344,-33.203,-35.645,0.000
1714024093.261,-29.297,-29.785,-23.438,-32.715,0.000
1714024093.264,-23.926,-24.902,-21.484,-31.250,0.000
1714024093.268,-17.578,-23.926,-28.809,-34.668,0.000
1714024093.272,-28.809,-27.832,-34.668,-41.992,0.000
1714024093.276,-33.203,-23.926,-22.461,-41.016,0.000
1714024093.280,-28.320,-22.949,-15.625,-41.016,0.000
1714024093.284,-31.250,-30.273,-26.367,-46.875,0.000
1714024093.288,-30.273,-27.344,-30.273,-43.945,0.000
1714024093.292,-29.785,-27.344,-16.602,-39.062,0.000
1714024093.296,-31.250,-26.855,-17.090,-41.504,0.000
1714024093.300,-25.879,-21.484,-32.227,-42.480,0.000
1714024093.303,-27.344,-27.344,-29.297,-40.039,0.000
1714024093.307,-35.645,-30.762,-31.250,-39.551,0.000
1714024093.311,-36.133,-24.414,-30.762,-35.645,0.000
1714024093.315,-25.879,-22.461,-19.531,-26.367,0.000
1714024093.319,-21.973,-26.367,-30.273,-33.203,0.000
1714024093.323,-33.203,-26.855,-34.668,-45.898,0.000
1714024093.327,-33.691,-30.273,-20.508,-33.203,0.000
1714024093.330,-28.809,-31.738,-17.090,-23.926,0.000
1714024093.334,-30.762,-30.273,-28.320,-24.414,0.000
1714024093.338,-33.691,-26.367,-36.621,-35.645,0.000
1714024093.342,-40.039,-29.785,-36.133,-34.180,0.000
1714024093.346,-41.016,-32.227,-44.434,-28.809,0.000
1714024093.350,-37.598,-27.832,-40.039,-34.668,0.000
1714024093.354,-32.715,-30.273,-25.391,-27.344,0.000
1714024093.358,-24.902,-30.273,-25.879,-25.391,0.000
1714024093.362,-20.996,-30.762,-25.391,-27.344,0.000
1714024093.366,-23.926,-32.715,-29.297,-34.668,0.000
1714024093.370,-25.391,-24.902,-33.691,-38.086,0.000
1714024093.374,-22.949,-20.996,-25.391,-30.273,0.000
1714024093.378,-22.949,-22.949,-30.762,-29.785,0.000
1714024093.382,-21.484,-25.391,-33.203,-33.203,0.000
1714024093.385,-20.996,-22.461,-20.996,-37.109,0.000
1714024093.389,-25.879,-19.043,-19.531,-39.551,0.000
1714024093.393,-25.391,-25.879,-25.879,-32.227,0.000
1714024093.397,-26.855,-22.461,-12.695,-30.273,0.000
1714024093.401,-25.879,-20.020,-5.371,-35.156,0.000
1714024093.405,-25.391,-23.438,-21.484,-34.180,0.000
1714024093.409,-34.668,-29.297,-34.180,-36.133,0.000
1714024093.413,-26.367,-29.785,-30.762,-35.156,0.000
1714024093.417,-19.043,-25.391,-28.809,-33.691,0.000
1714024093.421,-24.414,-23.438,-21.484,-33.691,0.000
1714024093.425,-28.320,-23.438,-16.113,-32.715,0.000
1714024093.429,-26.855,-28.809,-20.020,-36.133,0.000
1714024093.432,-26.855,-34.668,-18.066,-44.434,0.000
1714024093.436,-28.320,-32.227,-21.484,-45.410,0.000
1714024093.440,-26.855,-26.855,-28.320,-29.297,0.000
1714024093.444,-19.531,-26.367,-25.391,-31.250,0.000
1714024093.448,-23.926,-27.344,-26.855,-35.645,0.000
1714024093.452,-34.668,-31.738,-33.691,-34.180,0.000
1714024093.456,-31.738,-35.645,-36.133,-35.645,0.000
1714024093.460,-26.855,-30.762,-31.738,-29.785,0.000
1714024093.464,-27.832,-31.250,-28.809,-31.250,0.000
1714024093.468,-21.973,-33.203,-25.879,-35.156,0.000
1714024093.472,-23.438,-27.344,-28.809,-41.016,0.000
1714024093.476,-30.273,-28.809,-33.203,-41.504,0.000
1714024093.479,-26.367,-31.738,-27.832,-34.180,0.000
1714024093.483,-20.020,-27.832,-28.320,-25.879,0.000
1714024093.487,-23.926,-26.855,-32.715,-35.645,0.000
1714024093.491,-27.832,-26.855,-30.273,-35.645,0.000
1714024093.495,-27.344,-31.250,-33.203,-18.555,0.000
1714024093.499,-27.832,-34.668,-25.391,-27.832,0.000
1714024093.503,-39.062,-31.250,-21.973,-48.828,0.000
1714024093.507,-38.086,-30.762,-36.133,-47.852,0.000
1714024093.511,-22.461,-33.691,-35.645,-32.715,0.000
1714024093.515,-24.414,-32.227,-26.367,-34.180,0.000
1714024093.518,-20.996,-29.297,-31.738,-35.645,0.000
1714024093.522,-11.719,-27.832,-32.715,-25.391,0.000
1714024093.526,-28.320,-29.297,-20.996,-26.855,0.000
1714024093.530,-38.086,-31.250,-15.625,-24.902,0.000
1714024093.534,-35.156,-30.273,-21.973,-31.250,0.000
1714024093.538,-33.691,-22.949,-29.297,-34.180,0.000
1714024093.542,-33.203,-28.809,-22.461,-29.297,0.000
1714024093.546,-38.574,-45.898,-17.578,-33.691,0.000
1714024093.550,-39.062,-43.457,-19.531,-32.715,0.000
1714024093.554,-38.086,-38.574,-16.602,-33.691,0.000
1714024093.557,-40.527,-40.527,-23.438,-35.156,0.000
1714024093.561,-41.992,-31.738,-24.414,-33.203,0.000
1714024093.565,-52.246,-30.273,-20.508,-44.922,0.000
1714024093.569,-52.734,-39.062,-23.438,-47.852,0.000
1714024093.573,-53.223,-41.016,-24.902,-41.992,0.000
1714024093.577,-56.641,-29.297,-19.043,-38.574,0.000
1714024093.581,-51.270,-24.414,-19.531,-44.922,0.000
1714024093.585,-51.270,-29.785,-16.113,-59.082,0.000
1714024093.589,-60.059,-35.156,-16.602,-66.895,0.000
1714024093.592,-66.406,-38.086,-21.973,-61.035,0.000
1714024093.596,-59.082,-32.227,-24.414,-56.641,0.000
1714024093.600,-56.641,-35.645,-26.855,-59.570,0.000
1714024093.604,-61.035,-29.785,-18.066,-57.617,0.000
1714024093.608,-62.012,-20.020,-13.184,-56.152,0.000
1714024093.612,-67.383,-22.461,-18.066,-55.664,0.000
1714024093.616,-72.754,-24.902,-13.184,-59.570,0.000
1714024093.620,-76.660,-29.297,-14.648,-68.848,0.000
1714024093.624,-76.172,-33.691,-24.414,-78.125,0.000
1714024093.628,-75.195,-36.621,-23.438,-75.684,0.000
1714024093.632,-73.242,-36.621,-11.230,-69.336,0.000
1714024093.635,-76.660,-29.785,-4.395,-80.078,0.000
1714024093.635,-76.660,-29.785,-4.395,-80.078,0.000
1714024093.639,-76.660,-21.484,-7.812,-85.938,0.000
1714024093.643,-82.520,-26.367,-14.160,-91.309,0.000
1714024093.647,-88.379,-34.180,-22.949,-99.609,0.000
1714024093.651,-81.055,-23.926,-23.438,-101.074,0.000
1714024093.655,-88.379,-20.996,-16.113,-107.422,0.000
1714024093.659,-92.285,-26.367,-17.090,-111.816,0.000
1714024093.663,-82.031,-22.461,-20.996,-100.098,0.000
1714024093.666,-80.078,-17.090,-9.766,-99.121,0.000
1714024093.670,-91.797,-20.996,1.953,-118.652,0.000
1714024093.674,-98.633,-29.785,-4.395,-121.094,0.000
1714024093.678,-99.609,-30.762,-20.020,-111.328,0.000
1714024093.682,-105.469,-26.367,-27.344,-118.652,0.000
1714024093.686,-110.352,-29.785,-20.996,-127.930,0.000
1714024093.690,-111.816,-35.645,-16.113,-119.141,0.000
1714024093.693,-113.770,-35.156,-9.766,-109.863,0.000
1714024093.697,-111.328,-33.203,2.930,-105.957,0.000
1714024093.701,-99.609,-29.297,0.977,-98.633,0.000
1714024093.705,-102.539,-30.273,-10.742,-102.539,0.000
1714024093.709,-106.445,-37.598,-4.395,-103.027,0.000
1714024093.713,-93.750,-34.180,5.859,-97.168,0.000
1714024093.717,-84.961,-30.762,8.301,-92.773,0.000
1714024093.721,-86.426,-27.832,5.859,-94.727,0.000
1714024093.725,-89.355,-29.785,2.441,-93.262,0.000
1714024093.729,-88.867,-35.645,2.930,-86.914,0.000
1714024093.733,-83.496,-36.621,0.977,-81.055,0.000
1714024093.737,-76.172,-38.086,-3.418,-75.684,0.000
1714024093.741,-76.172,-45.410,-9.277,-78.125,0.000
1714024093.744,-71.777,-44.922,-5.371,-66.895,0.000
1714024093.748,-66.895,-42.480,0.977,-57.617,0.000
1714024093.752,-60.059,-44.922,-0.977,-57.617,0.000
1714024093.756,-52.734,-44.922,-0.488,-60.547,0.000
1714024093.760,-47.852,-41.992,5.859,-58.105,0.000
1714024093.764,-44.434,-35.645,5.859,-54.199,0.000
1714024093.768,-41.992,-36.133,-11.719,-55.664,0.000
1714024093.772,-45.898,-39.551,-19.531,-64.453,0.000
1714024093.776,-55.664,-41.016,-14.648,-70.312,0.000
1714024093.780,-58.594,-36.621,-14.160,-66.406,0.000
1714024093.784,-52.734,-32.227,-8.789,-64.941,0.000
1714024093.788,-52.246,-36.133,-7.324,-60.547,0.000
1714024093.792,-61.523,-36.621,-9.766,-62.500,0.000
1714024093.795,-59.082,-26.855,-12.695,-66.406,0.000
1714024093.799,-56.641,-30.762,-18.555,-72.266,0.000
1714024093.803,-61.035,-30.273,-18.555,-83.496,0.000
1714024093.807,-61.523,-21.484,-6.836,-79.102,0.000
1714024093.811,-60.059,-28.320,-1.465,-72.754,0.000
1714024093.815,-58.105,-26.367,-10.254,-64.941,0.000
1714024093.819,-67.871,-18.555,-13.672,-80.078,0.000
1714024093.823,-82.031,-34.668,-13.672,-91.309,0.000
1714024093.827,-77.148,-42.480,-15.625,-82.031,0.000
1714024093.831,-63.477,-37.109,-13.184,-71.289,0.000
1714024093.835,-63.477,-37.598,-13.672,-73.730,0.000
1714024093.839,-57.129,-31.250,-4.883,-65.918,0.000
1714024093.842,-46.875,-25.879,-7.324,-49.316,0.000
1714024093.846,-40.527,-28.320,-21.484,-54.688,0.000
1714024093.850,-31.250,-27.344,-19.531,-58.105,0.000
1714024093.854,-26.855,-18.555,-15.625,-50.293,0.000
1714024093.858,-27.832,-29.785,-27.344,-41.504,0.000
1714024093.862,-24.414,-39.551,-25.879,-33.203,0.000
1714024093.866,-14.160,-31.250,-8.301,-29.785,0.000
1714024093.870,-11.230,-35.645,-10.742,-28.320,0.000
1714024093.874,-10.254,-34.668,-21.484,-28.320,0.000
1714024093.878,-3.906,-30.273,-20.020,-20.020,0.000
1714024093.882,-1.953,-27.344,-27.832,-20.020,0.000
1714024093.885,-0.977,-24.414,-34.668,-22.461,0.000
1714024093.889,5.859,-28.809,-26.367,-14.648,0.000
1714024093.893,1.953,-25.391,-30.273,-13.184,0.000
1714024093.897,4.883,-26.367,-34.180,-19.043,0.000
1714024093.901,12.695,-30.762,-33.691,-17.578,0.000
1714024093.905,8.789,-30.762,-46.387,-14.160,0.000
1714024093.909,2.930,-28.320,-60.059,-12.695,0.000
1714024093.913,11.230,-23.438,-59.082,-6.348,0.000
1714024093.917,17.578,-22.461,-46.387,-8.301,0.000
1714024093.920,9.277,-26.367,-48.828,-21.484,0.000
1714024093.924,8.301,-24.902,-58.105,-16.113,0.000
1714024093.928,17.090,-24.902,-48.340,3.906,0.000
1714024093.932,17.090,-23.926,-42.969,6.348,0.000
1714024093.936,15.625,-26.367,-48.828,-5.859,0.000
1714024093.940,18.555,-29.297,-64.941,-3.418,0.000
1714024093.944,22.949,-22.949,-70.801,7.812,0.000
1714024093.948,33.203,-19.531,-65.430,15.625,0.000
1714024093.952,35.645,-15.625,-59.570,9.277,0.000
1714024093.956,24.902,-12.695,-63.965,-4.883,0.000
1714024093.960,26.367,-16.602,-64.453,8.789,0.000
1714024093.963,35.156,-15.137,-56.152,17.578,0.000
1714024093.967,30.273,-11.719,-49.805,7.812,0.000
1714024093.971,21.484,-15.137,-56.641,4.883,0.000
1714024093.975,20.508,-26.855,-72.754,10.254,0.000
1714024093.979,22.461,-33.203,-64.453,18.066,0.000
1714024093.983,30.762,-28.320,-51.270,17.578,0.000
1714024093.987,34.180,-20.020,-53.223,14.648,0.000
1714024093.991,35.645,-13.184,-49.805,22.949,0.000
1714024093.995,43.945,-11.719,-44.434,35.645,0.000
1714024093.998,47.363,-15.625,-40.039,30.762,0.000
1714024094.002,43.945,-15.137,-41.992,20.508,0.000
1714024094.006,42.969,-4.395,-50.781,24.902,0.000
1714024094.010,45.410,-6.348,-57.129,24.902,0.000
1714024094.014,42.969,-18.555,-55.176,14.160,0.000
1714024094.018,37.109,-16.602,-53.711,14.160,0.000
1714024094.022,34.180,-16.113,-57.617,12.207,0.000
1714024094.026,32.715,-27.344,-47.852,17.578,0.000
1714024094.029,32.227,-26.855,-42.480,20.508,0.000
1714024094.033,29.297,-19.043,-41.504,12.207,0.000
1714024094.037,30.273,-18.066,-39.551,15.625,0.000
1714024094.041,23.926,-12.695,-41.504,14.648,0.000
1714024094.045,16.113,-9.277,-43.457,7.324,0.000
1714024094.049,18.555,-14.648,-44.434,9.277,0.000
1714024094.053,17.090,-14.160,-47.363,7.812,0.000
1714024094.057,13.184,-13.184,-52.246,5.371,0.000
1714024094.060,13.672,-14.648,-40.039,12.207,0.000
1714024094.064,13.184,-26.367,-30.762,5.371,0.000
1714024094.068,18.066,-28.809,-35.156,2.441,0.000
1714024094.072,19.531,-21.973,-44.434,5.371,0.000
1714024094.076,21.484,-27.344,-45.898,6.348,0.000
1714024094.080,22.949,-20.508,-36.133,19.531,0.000
1714024094.084,20.996,-13.672,-32.715,30.273,0.000
1714024094.088,19.531,-10.742,-41.504,21.973,0.000
1714024094.092,16.602,-10.742,-45.410,16.602,0.000
1714024094.096,17.090,-18.066,-36.621,16.113,0.000
1714024094.099,11.719,-24.902,-30.273,10.742,0.000
1714024094.103,0.000,-27.832,-33.203,-1.465,0.000
1714024094.107,-9.277,-30.762,-37.598,-9.277,0.000
1714024094.111,-8.301,-27.344,-37.598,-8.301,0.000
1714024094.115,-8.789,-21.484,-44.434,-16.602,0.000
1714024094.119,-9.277,-24.414,-46.387,-28.320,0.000
1714024094.123,-9.277,-21.484,-40.527,-23.926,0.000
1714024094.126,-7.812,-21.484,-48.828,-14.160,0.000
1714024094.130,1.465,-21.973,-41.504,-16.113,0.000
1714024094.134,-4.395,-23.438,-31.738,-24.902,0.000
1714024094.138,-13.184,-25.391,-41.992,-25.879,0.000
1714024094.142,-7.324,-23.926,-45.898,-20.020,0.000
1714024094.146,-5.371,-19.531,-39.062,-29.297,0.000
1714024094.150,-3.906,-19.531,-34.180,-32.227,0.000
1714024094.154,-3.418,-21.484,-37.598,-30.762,0.000
1714024094.158,-4.883,-30.762,-42.480,-29.785,0.000
1714024094.162,-2.441,-30.273,-39.062,-19.531,0.000
1714024094.166,-5.859,-24.902,-32.715,-20.508,0.000
1714024094.170,-11.719,-27.832,-34.668,-25.879,0.000
1714024094.174,-14.648,-31.250,-38.086,-16.113,0.000
1714024094.177,-16.113,-32.227,-34.668,-6.348,0.000
1714024094.181,-20.996,-26.855,-29.785,-12.695,0.000
1714024094.185,-27.832,-13.672,-26.367,-19.531,0.000
1714024094.189,-29.785,-21.484,-31.738,-20.996,0.000
1714024094.193,-29.297,-29.785,-36.133,-28.809,0.000
1714024094.197,-26.367,-25.879,-31.738,-30.273,0.000
1714024094.201,-27.344,-28.809,-32.715,-38.574,0.000
1714024094.205,-29.297,-26.855,-27.832,-43.457,0.000
1714024094.209,-26.855,-18.066,-27.344,-33.691,0.000
1714024094.213,-26.855,-23.926,-35.156,-34.668,0.000
1714024094.217,-26.367,-27.832,-32.715,-37.109,0.000
1714024094.221,-21.973,-15.625,-30.762,-30.762,0.000
1714024094.224,-14.160,-12.695,-27.344,-25.391,0.000
1714024094.228,-9.766,-20.508,-22.949,-25.879,0.000
1714024094.232,-14.648,-25.391,-27.344,-28.809,0.000
1714024094.236,-16.602,-26.367,-32.227,-30.273,0.000
1714024094.240,-15.625,-28.809,-27.344,-30.273,0.000
1714024094.244,-17.090,-28.320,-29.297,-29.297,0.000
1714024094.248,-13.184,-22.461,-26.855,-27.344,0.000
1714024094.252,-17.578,-16.602,-23.926,-26.367,0.000
1714024094.256,-24.902,-15.625,-32.715,-32.227,0.000
1714024094.260,-26.855,-21.973,-24.414,-28.809,0.000
1714024094.264,-27.832,-26.367,-17.578,-26.855,0.000
1714024094.267,-27.832,-26.367,-31.738,-31.250,0.000
1714024094.271,-22.949,-14.648,-32.715,-29.297,0.000
1714024094.275,-24.414,-13.184,-28.809,-28.320,0.000
1714024094.279,-28.809,-22.461,-30.762,-23.438,0.000
1714024094.283,-25.879,-20.020,-25.879,-30.273,0.000
1714024094.287,-19.531,-21.973,-25.879,-35.645,0.000
1714024094.291,-23.926,-25.391,-20.020,-26.367,0.000
1714024094.295,-25.879,-19.531,-15.625,-29.785,0.000
1714024094.299,-23.438,-19.043,-27.832,-42.480,0.000
1714024094.303,-30.273,-23.438,-34.180,-51.270,0.000
1714024094.307,-29.785,-27.344,-40.039,-46.387,0.000
1714024094.310,-17.090,-21.484,-35.645,-27.832,0.000
1714024094.314,-19.531,-18.066,-25.391,-27.832,0.000
1714024094.318,-30.762,-16.113,-22.949,-41.016,0.000
1714024094.322,-35.645,-23.438,-28.809,-44.434,0.000
1714024094.326,-26.855,-29.297,-20.996,-32.715,0.000
1714024094.330,-20.996,-28.809,-8.301,-28.320,0.000
1714024094.334,-29.297,-35.645,-3.418,-34.668,0.000
1714024094.338,-39.062,-31.738,-0.977,-41.992,0.000
1714024094.342,-39.062,-26.367,-11.719,-36.621,0.000
1714024094.345,-34.180,-27.344,-19.531,-30.762,0.000
1714024094.349,-42.969,-35.156,-16.602,-43.945,0.000
1714024094.353,-53.711,-40.039,-20.508,-58.105,0.000
1714024094.357,-62.012,-36.133,-21.484,-64.453,0.000
1714024094.361,-73.242,-43.457,-16.113,-76.172,0.000
1714024094.365,-81.543,-39.551,-6.836,-88.379,0.000
1714024094.369,-80.078,-32.227,5.371,-83.496,0.000
1714024094.373,-96.680,-38.086,-2.441,-104.004,0.000
1714024094.377,-122.559,-45.410,-9.277,-131.836,0.000
1714024094.381,-126.953,-53.711,-7.324,-132.812,0.000
1714024094.385,-122.070,-47.363,-3.906,-136.719,0.000
1714024094.388,-132.324,-42.969,10.254,-144.043,0.000
1714024094.392,-141.602,-44.434,18.066,-148.438,0.000
1714024094.396,-139.160,-39.551,14.648,-150.391,0.000
1714024094.400,-131.348,-33.203,21.484,-140.625,0.000
1714024094.404,-127.930,-37.109,25.391,-136.230,0.000
1714024094.408,-129.883,-42.480,18.066,-136.719,0.000
1714024094.412,-122.559,-41.016,7.812,-122.559,0.000
1714024094.416,-104.492,-32.227,7.812,-103.516,0.000
1714024094.419,-98.145,-38.086,10.254,-104.004,0.000
1714024094.423,-91.309,-44.922,6.348,-100.586,0.000
1714024094.427,-79.590,-40.527,-2.441,-82.031,0.000
1714024094.431,-78.613,-39.062,-2.441,-80.078,0.000
1714024094.435,-81.543,-44.434,-2.930,-82.031,0.000
1714024094.439,-66.406,-47.852,-12.207,-63.477,0.000
1714024094.443,-55.176,-49.805,-13.184,-51.758,0.000
1714024094.447,-55.176,-44.434,-13.672,-57.129,0.000
1714024094.450,-49.316,-36.133,-13.672,-53.711,0.000
1714024094.454,-42.480,-37.598,-18.555,-54.199,0.000
1714024094.458,-41.992,-43.457,-28.809,-53.223,0.000
1714024094.462,-28.320,-42.969,-21.973,-37.109,0.000
1714024094.466,-13.672,-36.133,-20.996,-33.691,0.000
1714024094.470,-20.020,-32.715,-32.715,-52.246,0.000
1714024094.474,-10.254,-29.297,-39.551,-41.016,0.000
1714024094.478,-0.488,-26.367,-48.340,-24.902,0.000
1714024094.482,-5.371,-31.738,-51.270,-32.227,0.000
1714024094.486,0.977,-25.879,-44.434,-21.484,0.000
1714024094.490,6.836,-17.578,-39.551,-6.348,0.000
1714024094.494,3.418,-20.996,-46.387,-13.672,0.000
1714024094.498,5.371,-27.344,-53.223,-17.578,0.000
1714024094.502,5.859,-33.203,-53.711,-1.953,0.000
1714024094.505,4.883,-40.039,-57.129,-1.953,0.000
1714024094.509,10.742,-34.668,-58.594,-2.930,0.000
1714024094.513,13.672,-28.320,-53.711,4.883,0.000
1714024094.517,14.648,-28.320,-49.316,3.906,0.000
1714024094.521,11.719,-28.320,-47.852,-4.883,0.000
1714024094.525,7.324,-35.156,-49.316,-3.906,0.000
1714024094.529,9.277,-35.645,-55.664,-2.441,0.000
1714024094.533,9.766,-29.297,-52.734,-8.301,0.000
1714024094.537,8.789,-24.902,-52.246,-10.254,0.000
1714024094.541,10.742,-24.902,-50.293,-10.742,0.000
1714024094.545,12.695,-24.902,-51.758,-10.254,0.000
1714024094.549,20.996,-17.090,-59.082,-11.230,0.000
1714024094.553,26.855,-14.160,-54.688,-15.137,0.000
1714024094.556,20.508,-19.043,-49.805,-18.555,0.000
1714024094.560,14.648,-26.855,-52.246,-7.812,0.000
1714024094.564,9.766,-35.156,-45.898,9.277,0.000
1714024094.568,10.254,-27.344,-35.156,8.789,0.000
1714024094.572,13.672,-20.996,-32.227,10.742,0.000
1714024094.576,11.230,-27.344,-32.227,22.949,0.000
1714024094.580,7.812,-29.785,-31.250,25.391,0.000
1714024094.584,9.766,-27.344,-33.203,10.742,0.000
1714024094.588,2.441,-24.414,-36.621,-1.465,0.000
1714024094.592,-0.977,-26.855,-34.668,3.906,0.000
1714024094.596,1.465,-32.227,-36.133,1.953,0.000
1714024094.600,-1.953,-30.273,-39.551,-6.348,0.000
1714024094.603,-3.418,-22.949,-37.598,-3.418,0.000
1714024094.607,-3.906,-26.855,-41.016,-0.977,0.000
1714024094.611,-0.488,-29.297,-35.645,-0.977,0.000
1714024094.615,0.000,-22.949,-22.461,-5.371,0.000
1714024094.619,-8.789,-23.438,-36.133,-12.207,0.000
1714024094.623,-11.230,-15.137,-45.410,-11.719,0.000
1714024094.627,-10.254,-22.949,-36.133,-17.578,0.000
1714024094.631,-14.160,-36.621,-38.086,-26.367,0.000
1714024094.635,-12.207,-29.785,-42.969,-31.738,0.000
1714024094.639,-10.254,-23.438,-40.527,-28.809,0.000
1714024094.643,-9.766,-24.902,-44.434,-25.879,0.000
1714024094.646,-7.812,-20.020,-41.992,-23.438,0.000
1714024094.650,-7.324,-23.438,-39.062,-21.484,0.000
1714024094.654,-9.277,-28.320,-45.410,-17.090,0.000
1714024094.658,-10.254,-27.832,-40.039,-13.672,0.000
1714024094.662,-9.277,-28.320,-31.738,-10.742,0.000
1714024094.666,-10.742,-18.555,-31.738,-13.672,0.000
1714024094.670,-12.207,-21.484,-38.574,-18.066,0.000
1714024094.674,-16.113,-26.855,-38.086,-19.531,0.000
1714024094.678,-9.277,-15.137,-28.809,-13.184,0.000
1714024094.682,-2.441,-15.625,-27.832,-11.719,0.000
1714024094.685,-5.371,-18.555,-28.809,-19.531,0.000
1714024094.689,-12.207,-23.438,-31.250,-21.484,0.000
1714024094.693,-18.555,-30.762,-27.832,-19.531,0.000
1714024094.697,-21.973,-27.832,-19.531,-24.902,0.000
1714024094.701,-25.391,-26.855,-25.391,-36.621,0.000
1714024094.705,-28.320,-30.273,-36.621,-43.457,0.000
1714024094.709,-20.020,-27.344,-31.738,-35.645,0.000
1714024094.713,-12.207,-20.508,-26.367,-32.715,0.000
1714024094.717,-17.578,-18.555,-34.668,-35.645,0.000
1714024094.721,-13.672,-18.555,-32.715,-31.738,0.000
1714024094.724,-6.348,-26.367,-23.926,-21.973,0.000
1714024094.728,-9.277,-33.691,-21.973,-12.207,0.000
1714024094.732,-9.277,-26.855,-23.438,-10.254,0.000
1714024094.736,-6.348,-20.020,-27.832,-19.531,0.000
1714024094.740,-2.930,-19.043,-26.367,-13.184,0.000
1714024094.744,-3.418,-24.414,-30.273,-6.348,0.000
1714024094.748,-12.695,-22.949,-32.715,-21.484,0.000
1714024094.752,-16.602,-24.414,-33.203,-25.391,0.000
1714024094.756,-15.625,-27.832,-30.273,-19.531,0.000
1714024094.760,-19.531,-24.902,-33.203,-26.855,0.000
1714024094.764,0.000,-27.832,-34.668,-34.668,0.000
1714024094.768,0.000,-26.855,-33.203,-39.062,0.000
1714024094.772,0.000,-22.461,-38.086,-41.016,0.000
1714024094.776,0.000,-19.043,-33.203,-38.086,0.000
1714024094.780,0.000,-21.484,-34.668,-41.992,0.000
1714024094.783,0.000,-26.367,-41.016,-50.781,0.000
1714024094.787,0.000,-32.715,-40.527,-52.246,0.000
1714024094.791,0.000,-32.715,-39.062,-44.434,0.000
1714024094.795,0.000,-28.809,-35.156,-38.574,0.000
1714024094.799,0.000,-26.855,-32.227,-33.691,0.000
1714024094.803,0.000,-22.461,-24.414,-35.156,0.000
1714024094.807,0.000,-20.020,-23.438,-36.133,0.000
1714024094.810,-20.020,-19.043,-19.531,-24.902,0.000
1714024094.814,-14.160,-16.602,-17.090,-20.996,0.000
1714024094.818,-15.137,-16.113,-27.832,-28.809,0.000
1714024094.822,-16.602,-24.414,-23.438,-23.926,0.000
1714024094.826,-20.996,-36.621,-24.902,-21.484,0.000
1714024094.830,-20.996,-29.297,-27.344,-25.391,0.000
1714024094.834,-16.113,-20.508,-19.531,-19.531,0.000
1714024094.838,-19.043,-26.367,-21.484,-23.438,0.000
1714024094.842,-28.320,-29.297,-26.855,-30.273,0.000
1714024094.846,-26.855,-25.879,-29.785,-28.320,0.000
1714024094.850,-32.227,-28.809,-41.016,-32.715,0.000
1714024094.853,-45.898,-27.832,-42.480,-51.270,0.000
1714024094.858,-43.457,-29.785,-34.180,-49.805,0.000
1714024094.862,-29.785,-27.832,-31.738,-31.738,0.000
1714024094.865,-31.250,-25.879,-18.066,-34.180,0.000
1714024094.869,-36.621,-29.785,-12.695,-46.875,0.000
1714024094.873,-35.156,-25.879,-23.438,-43.457,0.000
1714024094.877,-29.785,-24.902,-27.832,-34.180,0.000
1714024094.881,-28.809,-29.785,-33.203,-45.410,0.000
1714024094.885,-31.738,-29.785,-40.527,-55.176,0.000
1714024094.889,-38.574,-22.949,-39.062,-51.270,0.000
1714024094.893,-36.133,-21.973,-36.621,-42.480,0.000
1714024094.897,-26.855,-25.391,-31.738,-36.133,0.000
1714024094.901,-27.832,-26.855,-20.020,-38.086,0.000
1714024094.905,-29.785,-30.273,-13.672,-39.062,0.000
1714024094.909,-34.668,-34.180,-27.832,-33.203,0.000
1714024094.913,-37.598,-26.367,-35.645,-32.227,0.000
1714024094.916,-33.203,-18.555,-30.762,-35.645,0.000
1714024094.920,-30.762,-18.066,-29.297,-28.809,0.000
1714024094.924,-32.227,-24.414,-35.156,-26.855,0.000
1714024094.928,-29.785,-27.832,-30.762,-33.203,0.000
1714024094.932,-27.832,-20.020,-21.973,-36.621,0.000
1714024094.936,-32.715,-19.043,-19.043,-41.016,0.000
1714024094.940,-43.457,-27.832,-30.273,-44.434,0.000
1714024094.944,-40.039,-23.438,-37.109,-47.363,0.000
1714024094.948,-32.227,-22.949,-37.109,-48.340,0.000
1714024094.952,-34.668,-24.902,-35.645,-49.316,0.000
1714024094.956,-39.551,-28.809,-33.203,-56.152,0.000
1714024094.960,-35.645,-29.785,-33.691,-47.363,0.000
1714024094.963,-31.250,-24.902,-20.508,-36.133,0.000
1714024094.967,-25.879,-25.391,-17.090,-40.039,0.000
1714024094.971,-24.414,-20.508,-30.273,-44.922,0.000
1714024094.975,-25.391,-22.461,-31.738,-38.574,0.000
1714024094.979,-18.066,-25.391,-25.879,-27.344,0.000
1714024094.983,-12.695,-20.020,-29.785,-27.344,0.000
1714024094.987,-19.531,-24.902,-33.691,-31.738,0.000
1714024094.991,-18.066,-30.273,-27.832,-24.414,0.000
1714024094.995,-14.160,-27.832,-16.113,-18.066,0.000
1714024094.999,-14.648,-25.391,-9.766,-21.973,0.000
1714024095.003,-17.090,-31.250,-18.555,-34.180,0.000
1714024095.007,-22.949,-32.227,-33.691,-41.504,0.000
1714024095.011,-19.043,-18.555,-30.762,-35.645,0.000
1714024095.015,-21.484,-17.090,-24.414,-30.762,0.000
1714024095.019,-26.855,-29.297,-27.344,-38.086,0.000
1714024095.023,-29.785,-37.109,-29.297,-44.434,0.000
1714024095.027,-37.598,-38.086,-32.227,-41.016,0.000
1714024095.031,-32.227,-34.668,-23.438,-33.203,0.000
1714024095.034,-21.973,-28.320,-13.184,-34.668,0.000
1714024095.038,-24.902,-25.879,-23.926,-38.574,0.000
1714024095.042,-32.715,-27.344,-34.668,-35.156,0.000
1714024095.046,-36.133,-32.715,-37.109,-34.180,0.000
1714024095.050,-27.832,-28.320,-28.320,-40.039,0.000
1714024095.054,-22.949,-24.902,-25.879,-39.551,0.000
1714024095.058,-25.391,-29.785,-27.344,-30.762,0.000
1714024095.062,-17.578,-30.273,-18.555,-24.902,0.000
1714024095.066,-12.695,-29.297,-11.719,-21.484,0.000
1714024095.069,-15.137,-27.344,-17.090,-22.949,0.000
1714024095.073,-21.973,-32.227,-31.738,-29.785,0.000
1714024095.077,-23.926,-30.762,-35.156,-29.785,0.000
1714024095.081,-20.508,-27.344,-33.203,-30.762,0.000
1714024095.085,-17.090,-29.297,-27.344,-31.738,0.000
1714024095.089,-15.137,-29.785,-24.414,-27.344,0.000
1714024095.093,-19.531,-30.762,-22.949,-31.738,0.000
1714024095.097,-27.344,-27.832,-23.926,-42.969,0.000
1714024095.101,-28.320,-24.902,-31.738,-40.039,0.000
1714024095.104,-20.508,-27.344,-32.227,-41.016,0.000
1714024095.108,-25.391,-32.715,-30.762,-44.434,0.000
1714024095.112,-33.691,-35.156,-33.691,-40.527,0.000
1714024095.116,-30.762,-30.762,-32.227,-41.016,0.000
1714024095.120,-24.414,-31.250,-18.555,-26.367,0.000
1714024095.124,-27.832,-31.738,-11.230,-27.344,0.000
1714024095.128,-38.086,-29.785,-28.809,-41.016,0.000
1714024095.132,-33.203,-21.973,-31.738,-40.527,0.000
1714024095.136,-27.344,-21.973,-20.020,-36.621,0.000
1714024095.139,-31.738,-27.832,-21.973,-38.086,0.000
1714024095.143,-35.156,-26.367,-25.391,-36.621,0.000
1714024095.147,-37.109,-30.273,-17.578,-38.574,0.000
1714024095.151,-28.809,-34.180,-11.230,-39.062,0.000
1714024095.155,-21.973,-29.785,-20.020,-35.645,0.000
1714024095.159,-24.414,-31.250,-27.832,-31.738,0.000
1714024095.163,-22.949,-32.715,-31.738,-29.785,0.000
1714024095.167,-22.461,-27.344,-21.973,-30.762,0.000
1714024095.171,-22.949,-24.902,-0.977,-37.109,0.000
1714024095.174,-25.391,-24.902,1.953,-38.086,0.000
1714024095.178,-37.598,-25.391,-11.719,-44.434,0.000
1714024095.182,-53.223,-24.414,-15.625,-60.547,0.000
1714024095.186,-57.617,-19.531,-6.348,-67.871,0.000
1714024095.190,-72.754,-30.273,-10.254,-72.754,0.000
1714024095.194,-83.496,-38.574,-13.184,-80.078,0.000
1714024095.198,-87.891,-36.133,-7.812,-84.961,0.000
1714024095.201,-91.797,-40.527,-4.395,-92.285,0.000
1714024095.205,-99.609,-39.062,-8.789,-100.586,0.000
1714024095.209,-107.422,-30.762,-7.812,-103.516,0.000
1714024095.213,-106.445,-16.113,11.230,-106.934,0.000
1714024095.217,-104.492,-19.531,9.766,-110.840,0.000
1714024095.221,-111.328,-34.668,-8.789,-118.652,0.000
1714024095.225,-120.605,-35.645,-9.277,-119.141,0.000
1714024095.229,-115.234,-30.762,5.859,-110.840,0.000
1714024095.233,-113.281,-30.273,12.695,-123.047,0.000
1714024095.237,-120.117,-38.574,3.906,-132.324,0.000
1714024095.241,-111.328,-37.109,7.812,-112.793,0.000
1714024095.245,-93.262,-30.762,15.137,-90.332,0.000
1714024095.249,-88.867,-30.273,13.184,-91.309,0.000
1714024095.253,-91.797,-31.250,-2.930,-96.191,0.000
1714024095.256,-89.844,-33.203,-17.578,-96.680,0.000
1714024095.260,-83.008,-32.227,-17.090,-90.820,0.000
1714024095.264,-77.148,-31.250,-12.207,-81.543,0.000
1714024095.268,-71.777,-34.180,-15.625,-73.242,0.000
1714024095.272,-65.430,-32.227,-16.602,-74.219,0.000
1714024095.276,-66.406,-28.320,-19.531,-78.613,0.000
1714024095.280,-55.664,-34.180,-21.484,-70.801,0.000
1714024095.284,-44.434,-35.156,-25.879,-59.570,0.000
1714024095.288,-45.410,-29.785,-39.551,-58.105,0.000
1714024095.292,-36.621,-25.879,-39.062,-48.828,0.000
1714024095.296,-29.297,-23.926,-32.715,-42.969,0.000
1714024095.300,-32.227,-26.367,-33.203,-47.363,0.000
1714024095.304,-23.926,-19.531,-30.273,-37.598,0.000
1714024095.307,-17.578,-19.531,-30.762,-34.668,0.000
1714024095.311,-13.672,-20.508,-31.738,-27.832,0.000
1714024095.315,-8.301,-17.090,-24.414,-19.531,0.000
1714024095.319,-17.578,-20.020,-32.715,-33.203,0.000
1714024095.323,-31.738,-22.949,-47.852,-49.316,0.000
1714024095.327,-42.480,-20.996,-44.922,-63.477,0.000
1714024095.331,-46.875,-21.484,-36.621,-67.871,0.000
1714024095.335,-68.359,-23.438,-33.691,-88.867,0.000
1714024095.339,-89.844,-18.066,-30.273,-103.027,0.000
1714024095.343,-104.980,-22.461,-28.320,-113.281,0.000
1714024095.347,-111.328,-29.785,-33.691,-128.418,0.000
1714024095.350,-115.723,-29.785,-41.504,-138.672,0.000
1714024095.354,-118.652,-27.344,-41.504,-140.137,0.000
1714024095.358,-122.070,-30.762,-41.992,-136.719,0.000
1714024095.362,-116.699,-25.391,-29.297,-127.441,0.000
1714024095.366,-100.586,-15.625,-20.508,-120.605,0.000
1714024095.370,-98.633,-19.531,-23.438,-122.070,0.000
1714024095.374,-102.539,-24.902,-24.902,-119.141,0.000
1714024095.378,-91.797,-18.555,-21.973,-105.469,0.000
1714024095.382,-77.637,-10.254,-20.508,-90.332,0.000
1714024095.386,-76.172,-23.438,-22.949,-87.402,0.000
1714024095.390,-66.406,-31.250,-25.879,-79.102,0.000
1714024095.393,-54.688,-28.320,-31.738,-65.430,0.000
1714024095.397,-50.293,-27.344,-31.250,-59.570,0.000
1714024095.401,-44.922,-27.344,-33.691,-56.152,0.000
1714024095.405,-37.598,-35.645,-34.668,-48.828,0.000
1714024095.409,-33.203,-37.109,-29.297,-40.527,0.000
1714024095.413,-27.344,-41.016,-33.203,-31.250,0.000
1714024095.417,-16.113,-37.598,-35.645,-21.484,0.000
1714024095.421,-16.602,-41.016,-33.691,-23.438,0.000
1714024095.425,-20.020,-45.898,-38.086,-28.320,0.000
1714024095.428,-11.230,-44.434,-37.109,-17.090,0.000
1714024095.432,-10.254,-40.527,-33.691,-8.301,0.000
1714024095.436,-10.742,-35.645,-38.086,-16.602,0.000
1714024095.440,3.906,-36.133,-35.645,-11.719,0.000
1714024095.444,17.090,-37.109,-26.367,2.930,0.000
1714024095.448,19.531,-37.109,-30.762,3.906,0.000
1714024095.452,25.391,-33.691,-35.156,1.953,0.000
1714024095.456,28.320,-27.832,-33.203,1.465,0.000
1714024095.460,25.879,-32.715,-38.086,9.277,0.000
1714024095.464,30.273,-38.574,-43.457,15.137,0.000
1714024095.467,24.414,-33.691,-42.969,11.719,0.000
1714024095.471,18.066,-34.668,-39.062,16.113,0.000
1714024095.475,16.602,-36.133,-34.180,24.902,0.000
1714024095.479,13.184,-34.180,-28.320,23.438,0.000
1714024095.483,14.648,-39.551,-24.902,17.090,0.000
1714024095.487,15.625,-41.016,-31.738,13.672,0.000
1714024095.491,12.207,-38.574,-34.180,13.672,0.000
1714024095.495,15.137,-37.598,-38.086,22.949,0.000
1714024095.499,22.949,-37.109,-41.016,14.160,0.000
1714024095.503,18.555,-41.016,-40.527,-3.906,0.000
1714024095.506,16.113,-39.062,-34.668,1.953,0.000
1714024095.510,19.531,-32.227,-27.832,9.766,0.000
1714024095.514,18.555,-29.297,-33.203,5.371,0.000
1714024095.518,17.578,-28.809,-32.227,5.371,0.000
1714024095.522,17.090,-36.133,-21.973,8.301,0.000
1714024095.526,11.230,-41.504,-27.832,8.789,0.000
1714024095.530,11.719,-32.715,-31.738,6.836,0.000
1714024095.534,16.113,-20.508,-36.133,2.930,0.000
1714024095.538,20.020,-25.391,-42.480,8.789,0.000
1714024095.541,18.066,-36.133,-40.039,19.531,0.000
1714024095.545,19.531,-36.621,-43.945,20.020,0.000
1714024095.549,25.391,-28.809,-48.340,21.484,0.000
1714024095.553,21.484,-28.809,-46.875,20.020,0.000
1714024095.557,19.043,-30.273,-36.133,23.926,0.000
1714024095.561,26.367,-20.996,-16.113,27.832,0.000
1714024095.565,22.461,-25.879,-22.461,20.020,0.000
1714024095.568,9.277,-33.203,-42.969,7.324,0.000
1714024095.572,-1.953,-31.738,-46.875,1.953,0.000
1714024095.576,-4.395,-32.227,-42.480,5.859,0.000
1714024095.580,-0.977,-29.297,-41.992,7.812,0.000
1714024095.584,-6.836,-25.391,-39.062,0.977,0.000
1714024095.588,-13.672,-25.391,-30.762,-8.301,0.000
1714024095.592,-14.648,-23.438,-27.832,-6.836,0.000
1714024095.596,-10.742,-19.531,-24.902,-6.348,0.000
1714024095.600,-11.719,-20.508,-21.484,-15.137,0.000
1714024095.604,-16.602,-27.832,-31.250,-20.508,0.000
1714024095.608,-15.625,-29.785,-45.410,-19.531,0.000
1714024095.612,-12.207,-27.832,-48.340,-14.160,0.000
1714024095.616,-2.930,-21.973,-41.504,-9.277,0.000
1714024095.620,1.465,-17.578,-36.133,-11.230,0.000
1714024095.623,0.000,-18.066,-35.645,-7.324,0.000
1714024095.627,13.672,-17.090,-32.227,6.836,0.000
1714024095.631,15.625,-17.578,-33.203,3.906,0.000
1714024095.635,9.766,-13.184,-33.691,-1.953,0.000
1714024095.639,12.695,-14.160,-22.461,6.836,0.000
1714024095.643,14.648,-11.230,-17.578,11.230,0.000
1714024095.647,12.695,-8.301,-19.043,10.254,0.000
1714024095.651,6.348,-13.672,-23.438,2.441,0.000
1714024095.655,0.977,-17.578,-29.785,-7.812,0.000
1714024095.659,-4.883,-19.043,-20.508,-9.277,0.000
1714024095.663,-5.371,-15.137,-20.996,-8.789,0.000
1714024095.667,-8.301,-15.137,-33.203,-23.438,0.000
1714024095.670,-16.113,-21.973,-39.062,-32.715,0.000
1714024095.674,-19.531,-30.762,-41.504,-26.367,0.000
1714024095.678,-22.461,-29.785,-34.668,-19.531,0.000
1714024095.682,-19.531,-21.973,-26.367,-24.902,0.000
1714024095.686,-17.578,-26.367,-26.367,-34.668,0.000
1714024095.690,-20.508,-30.273,-27.344,-26.855,0.000
1714024095.694,-16.113,-27.832,-20.996,-18.555,0.000
1714024095.698,-11.230,-26.367,-20.996,-15.625,0.000
1714024095.702,-12.695,-18.066,-33.203,-20.508,0.000
1714024095.706,-10.742,-16.113,-34.668,-20.020,0.000
1714024095.710,-7.812,-25.391,-32.227,-12.695,0.000
1714024095.714,-8.789,-33.203,-38.086,-13.672,0.000
1714024095.717,-11.719,-32.227,-41.504,-19.043,0.000
1714024095.721,-12.695,-30.273,-38.574,-18.555,0.000
1714024095.725,-15.625,-31.738,-31.250,-12.207,0.000
1714024095.729,-15.625,-19.531,-20.508,-7.812,0.000
1714024095.733,-18.555,-22.461,-24.902,-13.672,0.000
1714024095.737,-24.414,-25.391,-33.691,-19.531,0.000
1714024095.741,-26.367,-20.508,-33.691,-27.344,0.000
1714024095.745,-32.715,-21.484,-33.691,-33.691,0.000
1714024095.749,-35.156,-24.902,-38.086,-36.133,0.000
1714024095.753,-34.180,-33.203,-35.645,-44.922,0.000
1714024095.757,-33.691,-32.715,-27.832,-42.480,0.000
1714024095.760,-32.715,-30.273,-27.344,-32.227,0.000
1714024095.764,-33.691,-26.367,-21.484,-30.273,0.000
1714024095.768,-34.668,-20.508,-23.438,-36.133,0.000
1714024095.772,-30.273,-18.066,-27.344,-30.762,0.000
1714024095.776,-25.879,-16.602,-24.414,-17.090,0.000
1714024095.780,-16.602,-12.207,-34.180,-12.695,0.000
1714024095.784,-14.648,-16.113,-30.762,-17.578,0.000
1714024095.788,-14.160,-23.438,-20.996,-13.672,0.000
1714024095.792,-12.207,-24.414,-25.879,-11.230,0.000
1714024095.795,-20.020,-26.367,-23.438,-16.113,0.000
1714024095.799,-22.949,-34.180,-16.602,-21.484,0.000
1714024095.803,-18.555,-26.367,-15.625,-16.602,0.000
1714024095.807,-20.996,-21.484,-20.996,-19.531,0.000
1714024095.811,-27.832,-27.344,-30.762,-24.414,0.000
1714024095.815,-30.762,-19.531,-35.645,-19.043,0.000
1714024095.819,-27.832,-17.578,-25.879,-23.926,0.000
1714024095.823,-29.785,-23.926,-25.879,-29.297,0.000
1714024095.827,-35.645,-28.809,-31.738,-35.645,0.000
1714024095.831,-35.156,-34.180,-27.832,-43.457,0.000
1714024095.835,-40.039,-34.180,-32.715,-51.758,0.000
1714024095.838,-42.480,-34.180,-31.738,-49.805,0.000
1714024095.842,-43.457,-34.668,-26.367,-43.457,0.000
1714024095.846,-44.434,-28.809,-35.645,-45.898,0.000
1714024095.850,-44.434,-21.973,-42.969,-50.781,0.000
1714024095.854,-43.457,-28.809,-37.598,-50.293,0.000
1714024095.858,-42.969,-34.668,-29.297,-43.457,0.000
1714024095.862,-28.809,-30.762,-23.926,-32.715,0.000
1714024095.866,-10.254,-29.785,-23.438,-25.391,0.000
1714024095.870,-10.742,-31.250,-28.809,-26.367,0.000
1714024095.873,-18.066,-20.508,-30.273,-22.949,0.000
1714024095.877,-13.184,-11.230,-27.832,-17.578,0.000
1714024095.881,-9.277,-15.137,-36.621,-29.785,0.000
1714024095.885,-13.184,-18.555,-38.574,-34.668,0.000
1714024095.889,-16.113,-18.066,-25.391,-28.320,0.000
1714024095.893,-15.137,-16.602,-18.066,-19.531,0.000
1714024095.897,-18.066,-18.555,-23.438,-22.949,0.000
1714024095.901,-29.297,-26.367,-31.738,-30.762,0.000
1714024095.904,-34.180,-26.367,-37.598,-32.227,0.000
1714024095.908,-37.109,-21.973,-36.133,-31.738,0.000
1714024095.912,-37.598,-20.508,-31.250,-30.273,0.000
1714024095.916,-38.574,-20.996,-34.668,-41.504,0.000
1714024095.920,-47.852,-19.043,-33.203,-56.152,0.000
1714024095.924,-44.922,-25.879,-17.578,-59.570,0.000
1714024095.928,-39.551,-33.203,-15.137,-52.246,0.000
1714024095.932,-46.387,-30.762,-30.273,-56.152,0.000
1714024095.935,-35.645,-28.320,-30.762,-54.199,0.000
1714024095.939,-21.484,-24.902,-28.809,-37.109,0.000
1714024095.943,-19.531,-18.555,-41.016,-27.832,0.000
1714024095.947,-16.113,-20.020,-42.969,-28.809,0.000
1714024095.951,-11.230,-18.555,-34.180,-28.320,0.000
1714024095.955,-11.719,-15.625,-27.832,-22.949,0.000
1714024095.959,-19.531,-26.367,-26.367,-17.578,0.000
1714024095.963,-24.902,-35.645,-28.809,-20.508,0.000
1714024095.967,-25.391,-24.902,-36.133,-31.250,0.000
1714024095.971,-29.297,-20.996,-41.992,-36.621,0.000
1714024095.974,-32.227,-26.367,-39.551,-26.367,0.000
1714024095.978,-33.691,-29.297,-41.504,-27.832,0.000
1714024095.982,-36.133,-21.484,-44.922,-37.598,0.000
1714024095.986,-37.598,-23.926,-40.039,-39.551,0.000
1714024095.990,-37.598,-30.762,-31.250,-39.551,0.000
1714024095.994,-34.180,-37.109,-26.855,-37.598,0.000
1714024095.998,-29.297,-40.039,-25.879,-39.062,0.000
1714024096.001,-36.621,-26.367,-26.367,-40.039,0.000
1714024096.005,-52.246,-24.902,-32.715,-52.246,0.000
1714024096.009,-48.828,-36.621,-32.715,-58.594,0.000
1714024096.013,-42.480,-37.109,-31.250,-52.246,0.000
1714024096.017,-47.363,-21.973,-39.551,-57.129,0.000
1714024096.021,-43.945,-22.461,-34.180,-53.223,0.000
1714024096.025,-30.762,-24.902,-12.207,-36.133,0.000
1714024096.029,-30.273,-26.367,-20.996,-31.250,0.000
1714024096.033,-34.180,-32.227,-42.969,-43.457,0.000
1714024096.037,-32.715,-34.180,-41.504,-41.504,0.000
1714024096.041,-29.785,-34.180,-37.109,-27.832,0.000
1714024096.045,-20.996,-28.320,-38.574,-17.578,0.000
1714024096.049,-20.508,-23.438,-37.598,-16.602,0.000
1714024096.052,-27.832,-23.438,-28.320,-28.320,0.000
1714024096.056,-30.762,-24.414,-16.113,-30.273,0.000
1714024096.060,-31.250,-32.227,-16.113,-20.020,0.000
1714024096.064,-32.715,-33.203,-29.297,-21.973,0.000
1714024096.068,-34.180,-28.809,-35.156,-38.574,0.000
1714024096.072,-34.180,-34.180,-37.598,-37.598,0.000
1714024096.076,-29.785,-33.691,-32.227,-26.367,0.000
1714024096.080,-29.297,-25.391,-25.879,-33.691,0.000
1714024096.084,-32.227,-22.461,-25.391,-44.922,0.000
1714024096.088,-29.297,-20.020,-11.719,-35.156,0.000
1714024096.092,-28.320,-16.113,-10.742,-29.785,0.000
1714024096.096,-33.691,-23.926,-31.250,-39.062,0.000
1714024096.099,-34.668,-27.832,-38.574,-49.805,0.000
1714024096.103,-29.785,-25.391,-35.645,-50.293,0.000
1714024096.107,-25.879,-29.785,-33.691,-37.109,0.000
1714024096.111,-21.484,-32.227,-33.691,-26.855,0.000
1714024096.115,-16.602,-29.297,-33.691,-30.273,0.000
1714024096.119,-14.160,-23.438,-32.227,-30.273,0.000
1714024096.123,-12.207,-25.879,-20.996,-21.484,0.000
1714024096.127,-5.371,-29.785,-18.555,-12.207,0.000
1714024096.131,-4.883,-27.832,-26.855,-17.090,0.000
1714024096.135,-11.719,-30.762,-28.320,-28.809,0.000
1714024096.139,-17.090,-31.250,-26.367,-25.879,0.000
1714024096.142,-16.113,-24.414,-25.879,-20.996,0.000
1714024096.146,-20.020,-25.391,-29.785,-30.273,0.000
1714024096.150,-18.066,-23.438,-28.809,-29.785,0.000
1714024096.154,-17.090,-18.066,-30.762,-20.508,0.000
1714024096.158,-27.344,-21.484,-33.691,-28.809,0.000
1714024096.162,-28.320,-27.344,-33.203,-33.203,0.000
1714024096.166,-25.391,-30.273,-28.809,-38.086,0.000
1714024096.170,-27.832,-32.227,-24.414,-43.945,0.000
1714024096.174,-31.250,-30.762,-25.391,-35.156,0.000
1714024096.178,-28.809,-28.320,-30.273,-40.039,0.000
1714024096.181,-24.414,-31.250,-32.227,-46.387,0.000
1714024096.185,-32.715,-30.273,-32.227,-48.340,0.000
1714024096.189,-29.297,-31.250,-36.133,-41.504,0.000
1714024096.193,-16.113,-29.785,-31.250,-30.762,0.000
1714024096.197,-13.672,-22.949,-30.273,-30.273,0.000
1714024096.201,-12.695,-25.879,-31.738,-27.344,0.000
1714024096.205,-14.160,-32.227,-27.832,-29.785,0.000
1714024096.209,-11.719,-28.809,-29.297,-27.344,0.000
1714024096.213,-12.207,-22.461,-29.297,-31.738,0.000
1714024096.216,-19.043,-24.902,-31.250,-36.621,0.000
1714024096.220,-13.672,-26.367,-31.738,-28.809,0.000
1714024096.224,-11.719,-25.391,-24.902,-21.973,0.000
1714024096.228,-13.672,-20.020,-23.438,-18.555,0.000
1714024096.232,-22.461,-19.043,-32.227,-26.855,0.000
1714024096.236,-26.855,-26.367,-30.762,-34.180,0.000
1714024096.240,-26.367,-30.273,-31.738,-34.668,0.000
1714024096.244,-32.227,-38.574,-37.109,-26.367,0.000
1714024096.248,-30.762,-36.133,-28.320,-30.273,0.000
1714024096.252,-32.715,-32.227,-27.344,-42.969,0.000
1714024096.256,-35.156,-30.762,-26.367,-40.039,0.000
1714024096.259,-33.203,-26.855,-20.508,-32.227,0.000
1714024096.263,-33.691,-22.949,-26.855,-39.551,0.000
1714024096.267,-32.227,-19.531,-34.180,-49.316,0.000
1714024096.271,-28.320,-31.738,-26.855,-49.316,0.000
1714024096.275,-30.762,-38.086,-24.902,-46.875,0.000
1714024096.279,-28.809,-33.203,-30.273,-41.504,0.000
1714024096.283,-19.043,-30.273,-29.297,-37.109,0.000
1714024096.287,-18.066,-27.344,-29.297,-28.809,0.000
1714024096.290,-16.113,-26.855,-25.391,-25.391,0.000
1714024096.294,-12.695,-25.391,-27.344,-31.250,0.000
1714024096.298,-10.254,-20.020,-34.180,-30.762,0.000
1714024096.302,-4.883,-16.602,-19.531,-23.926,0.000
1714024096.306,-7.324,-24.414,-19.531,-22.461,0.000
1714024096.310,-1.465,-20.020,-32.715,-21.973,0.000
1714024096.314,5.371,-18.066,-33.203,-29.785,0.000
1714024096.318,-0.977,-23.926,-37.109,-43.945,0.000
1714024096.321,-0.488,-24.902,-32.715,-37.598,0.000
1714024096.325,4.883,-20.508,-29.297,-29.297,0.000
1714024096.329,-6.836,-12.207,-34.668,-28.320,0.000
1714024096.333,-10.254,-12.695,-23.926,-27.832,0.000
1714024096.337,-16.113,-17.090,-13.672,-39.062,0.000
1714024096.341,-33.691,-28.809,-22.949,-49.805,0.000
1714024096.345,-33.691,-35.156,-34.668,-48.828,0.000
1714024096.349,-38.086,-30.762,-36.621,-54.199,0.000
1714024096.353,-40.039,-24.414,-34.668,-49.805,0.000
1714024096.356,-34.668,-22.949,-29.785,-32.715,0.000
1714024096.360,-25.879,-22.949,-30.273,-27.832,0.000
1714024096.364,-20.508,-24.902,-31.250,-30.273,0.000
1714024096.368,-22.949,-30.273,-27.344,-32.715,0.000
1714024096.372,-26.367,-26.855,-25.391,-28.320,0.000
1714024096.376,-25.391,-20.996,-31.250,-23.438,0.000
1714024096.380,-25.391,-28.320,-32.227,-27.344,0.000
1714024096.384,-24.902,-33.203,-29.785,-28.809,0.000
1714024096.388,-23.926,-31.738,-31.738,-24.902,0.000
1714024096.391,-19.531,-24.902,-25.879,-16.602,0.000
1714024096.395,-24.414,-25.879,-29.297,-18.555,0.000
1714024096.399,-24.414,-35.645,-26.367,-27.832,0.000
1714024096.403,-24.414,-35.645,-23.926,-32.715,0.000
1714024096.407,-29.785,-22.461,-28.809,-31.738,0.000
1714024096.411,-31.738,-13.672,-29.297,-29.785,0.000
1714024096.415,-35.156,-23.926,-25.879,-41.016,0.000
1714024096.419,-31.738,-24.902,-13.672,-42.480,0.000
1714024096.423,-37.109,-22.461,-19.531,-36.133,0.000
1714024096.427,-42.480,-17.578,-29.297,-30.273,0.000
1714024096.431,-34.668,-18.066,-25.879,-32.227,0.000
1714024096.435,-25.391,-22.461,-14.648,-37.598,0.000
1714024096.439,-33.691,-29.785,-16.113,-39.062,0.000
1714024096.442,-39.062,-30.762,-25.879,-37.109,0.000
1714024096.446,-30.273,-19.531,-27.832,-32.227,0.000
1714024096.450,-29.785,-20.020,-24.414,-37.109,0.000
1714024096.454,-28.809,-27.832,-21.484,-36.133,0.000
1714024096.458,-30.762,-26.367,-30.273,-32.715,0.000
1714024096.462,-30.273,-30.273,-32.227,-34.180,0.000
1714024096.466,-21.484,-29.297,-14.648,-25.391,0.000
1714024096.470,-20.508,-28.320,-16.602,-26.855,0.000
1714024096.474,-27.344,-29.785,-29.785,-27.344,0.000
1714024096.478,-31.250,-29.785,-24.414,-26.855,0.000
1714024096.482,-28.809,-30.762,-21.973,-35.156,0.000
1714024096.486,-34.180,-29.297,-29.297,-37.109,0.000
1714024096.490,-34.668,-29.297,-32.227,-40.039,0.000
1714024096.493,-31.738,-33.203,-15.625,-43.457,0.000
1714024096.497,-37.109,-38.574,-7.812,-46.387,0.000
1714024096.501,-39.062,-36.621,-30.762,-60.547,0.000
1714024096.505,-38.574,-32.227,-43.945,-64.941,0.000
1714024096.509,-28.809,-28.809,-27.344,-48.340,0.000
1714024096.513,-25.391,-23.438,-21.484,-37.598,0.000
1714024096.517,-32.227,-20.020,-36.621,-42.480,0.000
1714024096.521,-34.180,-16.113,-32.715,-44.434,0.000
1714024096.525,-29.297,-22.949,-22.461,-30.273,0.000
1714024096.529,-23.926,-30.273,-20.508,-17.090,0.000
1714024096.533,-26.367,-25.879,-24.414,-25.879,0.000
1714024096.536,-24.902,-25.391,-29.297,-32.227,0.000
1714024096.540,-21.484,-27.344,-23.438,-18.066,0.000
1714024096.544,-19.043,-21.973,-19.043,-7.324,0.000
1714024096.548,-21.484,-16.602,-24.414,-16.602,0.000
1714024096.552,-28.809,-21.484,-30.273,-28.809,0.000
1714024096.556,-33.203,-21.973,-33.691,-37.109,0.000
1714024096.560,-29.297,-25.391,-21.484,-32.715,0.000
1714024096.564,-30.273,-29.785,-23.438,-35.645,0.000
1714024096.568,-38.086,-28.320,-38.086,-45.410,0.000
1714024096.572,-35.645,-30.273,-42.480,-34.668,0.000
1714024096.575,-28.809,-25.391,-32.227,-33.203,0.000
1714024096.579,-22.461,-22.461,-21.973,-41.504,0.000
1714024096.583,-11.719,-23.926,-29.297,-39.062,0.000
1714024096.587,-29.297,-26.367,-32.715,-47.852,0.000
1714024096.591,-54.199,-24.902,-22.949,-56.641,0.000
1714024096.595,-47.852,-31.738,-22.461,-48.828,0.000
1714024096.599,-46.875,-39.062,-27.832,-48.340,0.000
1714024096.603,-55.176,-40.527,-29.785,-53.223,0.000
1714024096.607,-47.363,-39.551,-29.297,-43.945,0.000
1714024096.611,-38.086,-34.668,-20.508,-33.203,0.000
1714024096.614,-40.527,-34.180,-17.578,-34.668,0.000
1714024096.618,-33.203,-35.156,-17.578,-24.902,0.000
1714024096.622,-24.414,-31.738,-15.625,-13.184,0.000
1714024096.626,-21.973,-26.855,-20.996,-15.137,0.000
1714024096.630,-21.484,-30.762,-28.809,-21.484,0.000
1714024096.634,-26.855,-36.133,-35.645,-31.738,0.000
1714024096.638,0.000,-37.598,-34.180,-32.715,0.000
1714024096.642,0.000,-35.156,-26.855,-19.531,0.000
1714024096.646,0.000,-27.344,-18.066,-20.508,0.000
1714024096.649,0.000,-27.344,-21.973,-35.156,0.000
1714024096.653,0.000,-32.227,-35.645,-36.621,0.000
1714024096.657,0.000,-27.344,-32.715,-28.320,0.000
1714024096.661,0.000,-27.832,-18.066,-34.180,0.000
1714024096.665,0.000,-38.574,-26.855,-44.922,0.000
1714024096.669,0.000,-41.016,-35.645,-51.270,0.000
1714024096.673,0.000,-37.109,-26.367,-46.387,0.000
1714024096.677,0.000,-36.621,-18.555,-39.062,0.000
1714024096.681,0.000,-29.785,-17.578,-35.645,0.000
1714024096.684,-25.391,-24.902,-20.508,-29.297,0.000
1714024096.688,-18.066,-26.367,-18.066,-21.484,0.000
1714024096.692,-27.832,-31.250,-25.391,-21.484,0.000
1714024096.696,-34.180,-29.297,-38.086,-28.809,0.000
1714024096.700,-27.832,-28.320,-35.156,-32.715,0.000
1714024096.704,-26.855,-32.227,-26.855,-28.320,0.000
1714024096.708,-28.320,-28.809,-28.320,-18.555,0.000
1714024096.712,-17.578,-23.926,-26.367,-18.066,0.000
1714024096.716,-17.090,-29.297,-15.625,-24.414,0.000
1714024096.720,-26.367,-40.039,-16.602,-28.809,0.000
1714024096.723,-22.461,-30.762,-19.043,-23.926,0.000
1714024096.727,-19.043,-16.602,-19.531,-20.508,0.000
1714024096.732,-24.414,-20.020,-22.461,-29.297,0.000
1714024096.735,-25.879,-23.926,-20.996,-36.133,0.000
1714024096.739,-20.508,-22.461,-12.207,-31.250,0.000
1714024096.743,-21.484,-12.695,-15.137,-31.250,0.000
1714024096.747,-31.250,-16.602,-28.809,-42.480,0.000
1714024096.751,-38.574,-30.273,-34.180,-50.781,0.000
1714024096.755,-42.480,-30.762,-34.180,-48.828,0.000
1714024096.759,-35.645,-20.996,-28.809,-37.598,0.000
1714024096.763,-27.832,-17.578,-26.367,-39.551,0.000
1714024096.767,-28.809,-22.461,-27.344,-47.363,0.000
1714024096.771,-32.715,-23.438,-28.809,-44.434,0.000
1714024096.775,-33.691,-25.391,-25.879,-35.645,0.000
1714024096.779,-31.738,-31.738,-26.855,-31.738,0.000
1714024096.783,-33.203,-33.691,-30.273,-36.621,0.000
1714024096.787,-34.180,-31.250,-27.832,-33.691,0.000
1714024096.790,-32.227,-24.414,-34.668,-32.715,0.000
1714024096.794,-31.738,-7.812,-36.621,-29.297,0.000
1714024096.798,-30.273,-10.742,-32.715,-27.832,0.000
1714024096.802,-31.250,-29.297,-35.156,-36.133,0.000
1714024096.806,-32.227,-33.203,-32.715,-45.410,0.000
1714024096.810,-34.668,-28.809,-34.668,-43.457,0.000
1714024096.814,-31.738,-30.762,-28.809,-31.738,0.000
1714024096.818,-32.227,-26.367,-11.719,-37.598,0.000
1714024096.822,-35.156,-16.113,-21.973,-47.852,0.000
1714024096.826,-32.715,-18.066,-28.809,-43.945,0.000
1714024096.830,-31.250,-19.043,-20.996,-43.945,0.000
1714024096.834,-41.504,-23.926,-32.715,-52.734,0.000
1714024096.837,-46.875,-39.551,-46.875,-53.223,0.000
1714024096.841,-38.574,-39.062,-43.457,-47.363,0.000
1714024096.845,-30.762,-24.902,-31.250,-42.969,0.000
1714024096.849,-34.180,-25.879,-23.438,-50.781,0.000
1714024096.853,-31.250,-31.250,-26.855,-48.340,0.000
1714024096.857,-25.391,-20.996,-28.320,-31.738,0.000
1714024096.861,-27.832,-16.113,-33.691,-27.832,0.000
1714024096.865,-24.414,-21.973,-38.086,-35.156,0.000
1714024096.869,-21.484,-25.879,-36.133,-37.598,0.000
1714024096.873,-24.902,-28.809,-33.203,-32.227,0.000
1714024096.877,-20.996,-23.926,-29.785,-26.367,0.000
1714024096.880,-17.578,-24.902,-26.367,-24.414,0.000
1714024096.884,-20.996,-33.203,-23.926,-31.250,0.000
1714024096.888,-27.344,-35.156,-27.832,-39.062,0.000
1714024096.892,-30.762,-24.902,-39.062,-38.086,0.000
1714024096.896,-26.855,-23.926,-41.016,-35.645,0.000
1714024096.900,-28.320,-33.691,-34.180,-38.086,0.000
1714024096.904,-36.621,-37.598,-35.156,-34.180,0.000
1714024096.908,-39.551,-34.180,-29.297,-34.668,0.000
1714024096.912,-38.574,-24.414,-15.137,-34.180,0.000
1714024096.916,-36.621,-22.949,-18.066,-34.180,0.000
1714024096.920,-43.457,-31.250,-32.715,-48.828,0.000
1714024096.924,-42.480,-34.668,-41.016,-44.434,0.000
1714024096.928,-33.691,-24.902,-37.109,-36.621,0.000
1714024096.932,-33.691,-21.484,-28.809,-41.992,0.000
1714024096.936,-34.668,-27.832,-27.344,-40.527,0.000
1714024096.940,-35.645,-35.156,-23.438,-36.621,0.000
1714024096.944,-36.621,-41.016,-22.949,-32.715,0.000
1714024096.948,-29.297,-39.551,-27.344,-28.809,0.000
1714024096.951,-23.438,-34.668,-31.250,-29.785,0.000
1714024096.955,-26.855,-26.855,-33.203,-30.762,0.000
1714024096.959,-23.438,-23.926,-24.902,-20.996,0.000
1714024096.963,-19.043,-19.531,-23.438,-19.043,0.000
1714024096.967,-23.926,-20.020,-23.438,-31.738,0.000
1714024096.971,-26.855,-33.203,-21.973,-35.645,0.000
1714024096.975,-29.785,-41.016,-31.738,-36.133,0.000
1714024096.979,-32.227,-43.457,-29.785,-38.574,0.000
1714024096.983,-33.691,-42.480,-29.785,-47.852,0.000
1714024096.986,-27.832,-35.645,-33.203,-41.016,0.000
1714024096.990,-27.344,-21.484,-34.668,-35.645,0.000
1714024096.994,-33.203,-17.578,-33.691,-42.480,0.000
1714024096.998,-30.762,-21.484,-19.043,-42.969,0.000
1714024097.002,-32.715,-24.414,-18.555,-51.270,0.000
1714024097.006,-35.645,-29.297,-33.203,-51.758,0.000
1714024097.010,-36.133,-31.738,-34.668,-38.086,0.000
1714024097.014,-34.180,-27.344,-24.902,-43.457,0.000
1714024097.017,-34.668,-23.438,-25.879,-52.246,0.000
1714024097.021,-39.551,-26.367,-30.273,-49.316,0.000
1714024097.025,-43.457,-29.297,-29.785,-44.434,0.000
1714024097.029,-43.457,-31.738,-25.391,-43.945,0.000
1714024097.033,-38.086,-33.691,-23.438,-44.922,0.000
1714024097.037,-41.504,-33.691,-35.645,-39.062,0.000
1714024097.041,-37.598,-29.785,-31.250,-26.855,0.000
1714024097.045,-29.297,-20.020,-12.695,-29.297,0.000
1714024097.049,-27.832,-22.949,-9.277,-34.668,0.000
1714024097.053,-22.949,-32.227,-16.113,-31.250,0.000
1714024097.057,-26.367,-31.250,-23.438,-32.715,0.000
1714024097.060,-33.203,-29.785,-35.156,-42.969,0.000
1714024097.064,-30.273,-33.203,-43.457,-41.016,0.000
1714024097.068,-30.273,-31.738,-37.109,-38.574,0.000
1714024097.072,-31.738,-29.297,-22.461,-36.621,0.000
1714024097.076,-31.250,-31.250,-16.113,-36.621,0.000
1714024097.080,-36.133,-28.320,-25.391,-39.551,0.000
1714024097.084,-37.598,-31.250,-34.668,-39.062,0.000
1714024097.087,-32.227,-27.344,-24.902,-38.086,0.000
1714024097.091,-26.367,-20.020,-20.996,-38.574,0.000
1714024097.095,-28.320,-21.973,-30.273,-38.574,0.000
1714024097.099,-34.668,-22.949,-38.086,-42.480,0.000
1714024097.103,-33.203,-25.391,-32.227,-47.852,0.000
1714024097.107,-33.203,-26.367,-29.297,-50.293,0.000
1714024097.111,-30.273,-30.762,-40.527,-47.852,0.000
1714024097.115,-18.555,-26.855,-27.832,-37.109,0.000
1714024097.119,-10.742,-22.461,-15.625,-36.133,0.000
1714024097.123,-14.648,-23.438,-25.391,-34.668,0.000
1714024097.127,-15.625,-23.438,-34.180,-30.762,0.000
1714024097.131,-10.742,-23.926,-31.738,-30.273,0.000
1714024097.135,-4.395,-25.879,-22.461,-29.297,0.000
1714024097.139,-10.742,-29.785,-23.926,-30.762,0.000
1714024097.143,-21.484,-32.227,-30.273,-29.297,0.000
1714024097.146,-21.973,-34.180,-26.367,-26.855,0.000
1714024097.150,-22.949,-32.227,-26.367,-30.762,0.000
1714024097.154,-25.391,-23.926,-30.273,-37.109,0.000
1714024097.158,-27.344,-26.855,-33.691,-41.016,0.000
1714024097.162,-26.367,-37.109,-37.109,-45.410,0.000
1714024097.166,-23.926,-31.738,-29.785,-46.387,0.000
1714024097.170,-21.484,-30.273,-23.438,-42.480,0.000
1714024097.174,-29.297,-35.156,-26.367,-36.621,0.000
1714024097.178,-41.504,-33.691,-26.367,-38.574,0.000
1714024097.182,-38.574,-29.785,-28.809,-42.969,0.000
1714024097.186,-42.480,-33.691,-40.039,-53.711,0.000
1714024097.190,-44.434,-31.250,-38.574,-49.805,0.000
1714024097.194,-35.645,-25.879,-29.297,-42.480,0.000
1714024097.197,-29.785,-22.949,-22.949,-43.457,0.000
1714024097.201,-30.762,-22.461,-22.949,-45.410,0.000
1714024097.205,-31.250,-29.785,-22.949,-43.945,0.000
1714024097.209,-28.809,-33.691,-22.461,-38.086,0.000
1714024097.213,-30.762,-27.832,-19.531,-39.551,0.000
1714024097.217,-33.691,-27.832,-21.484,-44.922,0.000
1714024097.221,-34.180,-24.902,-34.180,-47.363,0.000
1714024097.225,-33.203,-20.508,-30.273,-34.668,0.000
1714024097.229,-34.668,-24.414,-22.461,-33.203,0.000
1714024097.233,-30.762,-21.973,-34.668,-35.645,0.000
1714024097.237,-30.762,-26.367,-27.832,-33.203,0.000
1714024097.241,-39.062,-32.227,-18.066,-45.410,0.000
1714024097.244,-38.574,-38.574,-26.855,-38.086,0.000
1714024097.248,-23.438,-40.527,-28.809,-24.414,0.000
1714024097.252,-26.855,-32.715,-30.273,-43.945,0.000
1714024097.256,-39.062,-18.555,-21.973,-53.223,0.000
1714024097.260,-34.180,-18.555,-14.648,-40.527,0.000
1714024097.264,-29.297,-21.973,-26.855,-43.945,0.000
1714024097.268,-27.344,-18.066,-24.414,-50.781,0.000
1714024097.272,-28.809,-18.066,-23.926,-46.875,0.000
1714024097.276,-32.227,-24.414,-30.762,-42.480,0.000
1714024097.280,-30.273,-33.203,-31.250,-38.574,0.000
1714024097.284,-29.785,-31.738,-26.367,-41.504,0.000
1714024097.287,-26.367,-22.461,-21.484,-42.969,0.000
