timestamps,TP9,AF7,AF8,TP10,Right AUX
1714027779.020,7.812,-11.719,-31.738,4.395,0.000
1714027779.023,3.906,-16.602,-34.180,-1.953,0.000
1714027779.027,1.465,-21.973,-35.645,-6.348,0.000
1714027779.031,5.859,-20.996,-35.156,-3.906,0.000
1714027779.035,10.742,-19.043,-33.691,0.000,0.000
1714027779.039,12.207,-20.996,-34.668,2.441,0.000
1714027779.043,9.277,-22.949,-36.133,5.371,0.000
1714027779.047,7.324,-25.879,-36.133,13.184,0.000
1714027779.051,7.324,-27.344,-36.133,14.160,0.000
1714027779.055,2.930,-25.879,-36.133,2.930,0.000
1714027779.059,3.906,-26.367,-37.109,4.395,0.000
1714027779.063,3.906,-31.250,-38.086,10.742,0.000
1714027779.066,-1.465,-27.344,-34.180,8.789,0.000
1714027779.070,-3.906,-28.320,-34.180,2.441,0.000
1714027779.074,-9.277,-35.156,-37.598,-0.488,0.000
1714027779.078,-12.695,-39.062,-42.480,-2.930,0.000
1714027779.082,-10.742,-35.645,-47.363,-11.719,0.000
1714027779.086,-7.324,-30.762,-45.898,-15.625,0.000
1714027779.090,-7.324,-28.809,-38.574,-9.277,0.000
1714027779.094,-13.184,-26.855,-39.551,-5.371,0.000
1714027779.098,-10.254,-27.832,-38.574,-9.766,0.000
1714027779.101,-10.254,-30.273,-33.691,-13.672,0.000
1714027779.105,-11.719,-33.203,-37.598,-15.137,0.000
1714027779.109,-12.695,-33.691,-37.109,-12.695,0.000
1714027779.113,-13.184,-32.227,-29.297,-7.324,0.000
1714027779.117,-13.672,-31.738,-30.762,-12.695,0.000
1714027779.121,-22.461,-30.273,-37.109,-23.438,0.000
1714027779.125,-26.855,-29.785,-39.062,-20.996,0.000
1714027779.129,-21.484,-30.273,-41.016,-17.578,0.000
1714027779.133,-8.301,-26.855,-33.203,-18.555,0.000
1714027779.136,-4.395,-24.414,-31.738,-10.254,0.000
1714027779.140,-5.371,-23.438,-29.785,-6.348,0.000
1714027779.144,-9.766,-23.438,-20.996,-5.371,0.000
1714027779.148,-13.184,-24.414,-24.902,-4.883,0.000
1714027779.152,-14.648,-26.367,-24.902,-11.230,0.000
1714027779.156,-19.043,-27.832,-25.391,-21.484,0.000
1714027779.160,-21.484,-28.809,-30.273,-25.879,0.000
1714027779.164,-18.066,-29.297,-32.227,-22.461,0.000
1714027779.167,-15.625,-27.832,-32.715,-19.531,0.000
1714027779.171,-12.207,-25.879,-26.367,-17.090,0.000
1714027779.175,-13.184,-25.879,-29.297,-11.230,0.000
1714027779.179,-14.648,-23.926,-29.297,-9.277,0.000
1714027779.183,-15.625,-26.367,-21.973,-7.812,0.000
1714027779.187,-20.020,-31.738,-27.344,-21.484,0.000
1714027779.191,-20.996,-30.762,-32.715,-33.691,0.000
1714027779.195,-20.996,-32.715,-37.598,-26.367,0.000
1714027779.199,-23.926,-36.133,-44.434,-20.020,0.000
1714027779.203,-24.414,-28.809,-39.062,-25.879,0.000
1714027779.207,-20.020,-28.320,-33.691,-20.996,0.000
1714027779.211,-17.578,-32.715,-36.133,-15.625,0.000
1714027779.215,-14.160,-30.273,-34.180,-17.578,0.000
1714027779.219,-18.066,-30.273,-34.668,-20.020,0.000
1714027779.222,-20.996,-32.227,-35.156,-20.996,0.000
1714027779.226,-24.902,-29.297,-31.738,-20.996,0.000
1714027779.230,-25.879,-25.391,-32.227,-22.461,0.000
1714027779.234,-19.043,-28.809,-30.273,-15.625,0.000
1714027779.238,-20.020,-34.180,-35.156,-19.531,0.000
1714027779.242,-20.508,-34.180,-35.645,-22.461,0.000
1714027779.246,-18.555,-26.367,-26.855,-17.090,0.000
1714027779.250,-17.578,-21.484,-30.762,-22.461,0.000
1714027779.254,-18.555,-22.949,-39.062,-30.762,0.000
1714027779.258,-20.508,-24.414,-35.156,-23.926,0.000
1714027779.262,-22.949,-27.832,-28.809,-25.391,0.000
1714027779.266,-24.414,-28.320,-28.809,-28.320,0.000
1714027779.270,-20.996,-32.715,-29.297,-26.855,0.000
1714027779.273,-14.160,-29.785,-28.809,-26.855,0.000
1714027779.277,-18.066,-22.461,-29.785,-17.578,0.000
1714027779.281,-22.949,-28.809,-31.738,-22.461,0.000
1714027779.285,-23.438,-31.738,-35.645,-22.461,0.000
1714027779.289,-24.902,-35.156,-34.180,-14.160,0.000
1714027779.293,-27.832,-33.691,-32.715,-20.996,0.000
1714027779.297,-26.855,-33.203,-33.691,-20.508,0.000
1714027779.301,-20.996,-32.715,-29.785,-18.066,0.000
1714027779.305,-25.879,-26.855,-32.227,-22.949,0.000
1714027779.309,-26.855,-26.367,-33.203,-18.555,0.000
1714027779.313,-19.531,-24.414,-26.367,-13.184,0.000
1714027779.317,-21.484,-24.902,-19.531,-15.137,0.000
1714027779.320,-22.949,-20.508,-19.531,-21.484,0.000
1714027779.324,-19.531,-17.090,-22.461,-23.926,0.000
1714027779.328,-22.949,-18.555,-25.879,-28.320,0.000
1714027779.332,-28.320,-23.926,-24.902,-27.832,0.000
1714027779.336,-29.297,-22.949,-21.484,-30.273,0.000
1714027779.340,-24.902,-20.508,-21.484,-30.762,0.000
1714027779.344,-23.438,-24.414,-20.996,-26.855,0.000
1714027779.348,-24.902,-25.879,-23.438,-26.367,0.000
1714027779.352,-29.297,-26.367,-24.902,-30.762,0.000
1714027779.356,-27.832,-26.367,-23.926,-33.203,0.000
1714027779.360,-27.832,-29.297,-26.367,-34.668,0.000
1714027779.363,-26.367,-26.367,-25.879,-33.203,0.000
1714027779.367,-24.902,-20.020,-20.508,-26.855,0.000
1714027779.371,-27.344,-22.461,-20.020,-30.273,0.000
1714027779.375,-33.203,-26.367,-21.973,-37.109,0.000
1714027779.379,-32.227,-24.414,-22.461,-21.973,0.000
1714027779.383,-28.809,-21.973,-22.949,-30.273,0.000
1714027779.387,-27.832,-24.414,-21.484,-43.457,0.000
1714027779.391,-32.715,-28.320,-25.879,-39.062,0.000
1714027779.395,-31.738,-26.855,-33.203,-37.598,0.000
1714027779.399,-31.738,-27.344,-34.180,-39.551,0.000
1714027779.402,-32.227,-28.320,-28.809,-39.062,0.000
1714027779.406,-28.320,-31.738,-30.273,-33.691,0.000
1714027779.410,-25.879,-30.762,-27.832,-31.738,0.000
1714027779.414,-28.809,-26.855,-24.902,-32.715,0.000
1714027779.418,-32.227,-30.273,-34.668,-41.016,0.000
1714027779.422,-24.414,-30.762,-42.480,-30.762,0.000
1714027779.426,-24.902,-31.250,-36.133,-21.484,0.000
1714027779.430,-30.762,-31.738,-32.715,-30.273,0.000
1714027779.434,-25.879,-24.414,-30.762,-28.320,0.000
1714027779.438,-20.020,-26.855,-30.273,-28.809,0.000
1714027779.441,-25.391,-32.715,-30.762,-27.344,0.000
1714027779.445,-21.973,-26.855,-28.809,-18.066,0.000
1714027779.449,-21.484,-27.832,-31.738,-21.973,0.000
1714027779.453,-26.367,-28.320,-26.367,-28.320,0.000
1714027779.457,-20.996,-23.926,-21.973,-22.461,0.000
1714027779.461,-20.020,-19.043,-22.461,-19.531,0.000
1714027779.465,-27.832,-18.555,-21.973,-22.461,0.000
1714027779.469,-28.809,-19.531,-25.391,-18.066,0.000
1714027779.473,-33.691,-18.555,-24.414,-24.414,0.000
1714027779.477,-37.109,-22.949,-19.531,-26.855,0.000
1714027779.480,-33.203,-23.438,-16.113,-16.602,0.000
1714027779.484,-30.762,-21.484,-17.090,-22.461,0.000
1714027779.488,-30.273,-22.461,-16.602,-25.879,0.000
1714027779.492,-29.785,-23.438,-21.484,-18.555,0.000
1714027779.496,-27.832,-24.902,-26.855,-16.602,0.000
1714027779.500,-30.762,-22.461,-24.414,-24.902,0.000
1714027779.504,-24.902,-18.555,-23.438,-27.344,0.000
1714027779.508,-22.461,-25.879,-28.320,-26.367,0.000
1714027779.511,-22.461,-29.785,-34.180,-26.855,0.000
1714027779.515,-12.207,-26.367,-29.785,-25.879,0.000
1714027779.519,-7.812,-26.367,-28.809,-34.668,0.000
1714027779.523,-7.324,-25.879,-33.203,-31.250,0.000
1714027779.527,-2.930,-22.949,-29.297,-26.855,0.000
1714027779.531,-1.465,-27.344,-29.297,-30.762,0.000
1714027779.535,-4.395,-26.855,-34.180,-30.762,0.000
1714027779.539,-8.301,-22.461,-40.039,-27.832,0.000
1714027779.542,-16.113,-27.344,-36.133,-24.414,0.000
1714027779.546,-25.391,-31.250,-31.250,-19.531,0.000
1714027779.550,-27.832,-27.832,-34.180,-20.508,0.000
1714027779.554,-24.902,-22.461,-32.227,-20.508,0.000
1714027779.558,-31.250,-25.879,-36.621,-25.391,0.000
1714027779.562,-27.344,-23.438,-32.715,-20.508,0.000
1714027779.566,-29.297,-25.391,-31.738,-19.531,0.000
1714027779.570,-34.668,-29.785,-35.156,-23.438,0.000
1714027779.574,-29.297,-29.297,-31.250,-19.531,0.000
1714027779.578,-33.203,-29.297,-27.344,-16.602,0.000
1714027779.582,-29.297,-27.344,-25.879,-20.996,0.000
1714027779.586,-26.367,-31.250,-27.832,-37.109,0.000
1714027779.590,-38.574,-35.156,-28.320,-41.016,0.000
1714027779.594,-41.504,-33.203,-24.414,-34.668,0.000
1714027779.597,-33.203,-32.715,-26.367,-36.621,0.000
1714027779.601,-31.250,-27.344,-27.832,-36.133,0.000
1714027779.605,-30.762,-23.926,-24.414,-31.250,0.000
1714027779.609,-31.738,-25.879,-24.902,-32.715,0.000
1714027779.613,-34.668,-28.320,-24.414,-37.109,0.000
1714027779.617,-35.156,-34.668,-24.414,-35.156,0.000
1714027779.621,-35.156,-29.785,-25.879,-36.621,0.000
1714027779.625,-35.156,-30.273,-33.203,-41.992,0.000
1714027779.629,-31.738,-31.250,-31.738,-33.691,0.000
1714027779.633,-30.762,-26.367,-28.320,-33.691,0.000
1714027779.637,-31.738,-26.367,-29.785,-43.945,0.000
1714027779.641,-26.855,-23.926,-33.691,-39.062,0.000
1714027779.644,-25.391,-24.414,-34.180,-33.203,0.000
1714027779.648,-26.855,-27.344,-30.273,-28.320,0.000
1714027779.652,-25.391,-25.879,-32.227,-33.691,0.000
1714027779.656,-27.832,-25.879,-32.715,-38.086,0.000
1714027779.660,-28.320,-27.832,-32.227,-27.832,0.000
1714027779.664,-21.484,-25.391,-27.832,-18.555,0.000
1714027779.668,-21.484,-21.973,-22.949,-26.855,0.000
1714027779.672,-28.320,-24.414,-25.879,-33.203,0.000
1714027779.676,-29.785,-26.855,-24.902,-25.879,0.000
1714027779.680,-28.320,-29.785,-21.484,-15.625,0.000
1714027779.684,-22.949,-23.438,-20.020,-19.043,0.000
1714027779.688,-22.461,-17.090,-19.531,-24.414,0.000
1714027779.692,-24.902,-17.578,-20.996,-22.461,0.000
1714027779.695,-22.461,-19.043,-30.762,-22.949,0.000
1714027779.699,-20.996,-19.531,-24.414,-24.414,0.000
1714027779.703,-20.020,-21.973,-17.578,-19.043,0.000
1714027779.707,-20.020,-25.879,-18.555,-4.395,0.000
1714027779.711,-22.461,-19.531,-12.695,-9.277,0.000
1714027779.715,-19.043,-14.648,-11.230,-19.043,0.000
1714027779.719,-16.113,-18.555,-18.555,-22.461,0.000
1714027779.723,-18.066,-16.113,-24.414,-27.344,0.000
1714027779.727,-22.949,-15.137,-24.414,-23.926,0.000
1714027779.731,-21.973,-15.625,-24.414,-24.902,0.000
1714027779.734,-19.043,-16.113,-25.391,-27.832,0.000
1714027779.738,-22.949,-17.090,-29.785,-27.832,0.000
1714027779.742,-27.832,-22.949,-34.668,-28.809,0.000
1714027779.746,-24.414,-26.367,-34.180,-33.691,0.000
1714027779.750,-19.531,-23.438,-34.668,-34.180,0.000
1714027779.754,-13.672,-23.926,-37.109,-15.137,0.000
1714027779.758,-14.648,-20.996,-30.273,-17.578,0.000
1714027779.762,-21.484,-22.461,-27.832,-27.832,0.000
1714027779.766,-16.602,-21.973,-29.785,-22.461,0.000
1714027779.770,-12.207,-15.137,-26.855,-24.414,0.000
1714027779.774,-17.090,-21.484,-24.902,-21.484,0.000
1714027779.777,-17.578,-24.902,-18.555,-12.695,0.000
1714027779.781,-22.461,-22.949,-20.020,-17.090,0.000
1714027779.785,-26.367,-22.949,-25.391,-21.973,0.000
1714027779.789,-27.832,-24.414,-26.367,-24.902,0.000
1714027779.793,-31.250,-23.926,-24.414,-23.438,0.000
1714027779.797,-26.367,-31.250,-28.320,-17.578,0.000
1714027779.801,-21.973,-34.668,-24.902,-19.531,0.000
1714027779.805,-27.344,-29.297,-26.367,-29.297,0.000
1714027779.809,-28.320,-29.785,-27.344,-23.926,0.000
1714027779.813,-27.832,-28.809,-26.855,-17.090,0.000
1714027779.816,-29.297,-24.414,-28.320,-22.461,0.000
1714027779.820,-20.508,-21.484,-26.367,-25.391,0.000
1714027779.824,-21.973,-20.508,-25.879,-20.020,0.000
1714027779.828,-28.809,-24.902,-22.461,-17.578,0.000
1714027779.832,-24.902,-25.391,-20.996,-26.367,0.000
1714027779.836,-23.926,-28.320,-23.926,-34.180,0.000
1714027779.840,-24.902,-28.809,-29.785,-28.320,0.000
1714027779.844,-21.973,-27.344,-24.414,-18.066,0.000
1714027779.848,-20.020,-27.832,-13.672,-12.695,0.000
1714027779.852,-21.973,-25.879,-19.531,-18.555,0.000
1714027779.855,-22.461,-25.391,-28.809,-27.344,0.000
1714027779.859,-20.508,-24.902,-30.762,-25.391,0.000
1714027779.863,-23.438,-22.949,-28.809,-25.879,0.000
1714027779.867,-25.879,-24.414,-25.391,-24.414,0.000
1714027779.871,-30.762,-23.926,-32.227,-25.879,0.000
1714027779.875,-35.645,-25.879,-34.668,-27.344,0.000
1714027779.879,-36.133,-29.297,-29.785,-26.855,0.000
1714027779.883,-36.133,-25.391,-34.668,-32.715,0.000
1714027779.886,-35.156,-23.438,-36.133,-25.391,0.000
1714027779.890,-40.039,-24.902,-31.250,-28.320,0.000
1714027779.894,-41.992,-26.367,-30.273,-34.668,0.000
1714027779.898,-35.645,-28.320,-34.180,-35.645,0.000
1714027779.902,-32.227,-27.344,-30.762,-31.738,0.000
1714027779.906,-31.250,-29.297,-22.949,-20.996,0.000
1714027779.910,-29.785,-32.227,-26.367,-26.855,0.000
1714027779.914,-27.344,-35.645,-32.715,-40.039,0.000
1714027779.917,-33.691,-31.738,-35.156,-43.457,0.000
1714027779.921,-35.156,-30.273,-37.109,-39.551,0.000
1714027779.925,-34.180,-33.203,-35.156,-36.133,0.000
1714027779.929,-37.109,-30.762,-39.062,-40.039,0.000
1714027779.933,-29.297,-29.785,-40.039,-30.762,0.000
1714027779.937,-29.785,-29.785,-31.738,-24.414,0.000
1714027779.941,-30.762,-29.297,-30.273,-22.461,0.000
1714027779.945,-20.996,-29.297,-31.250,-19.531,0.000
1714027779.949,-16.113,-23.926,-24.902,-21.484,0.000
1714027779.953,-19.043,-20.020,-28.320,-25.391,0.000
1714027779.957,-17.578,-18.066,-30.762,-21.484,0.000
1714027779.961,-19.531,-20.020,-34.668,-17.090,0.000
1714027779.965,-26.367,-22.949,-35.645,-24.902,0.000
1714027779.969,-24.902,-26.367,-30.273,-29.785,0.000
1714027779.972,-30.273,-31.738,-32.227,-34.180,0.000
1714027779.976,-33.691,-31.250,-33.203,-29.297,0.000
1714027779.980,-29.297,-31.250,-33.691,-23.438,0.000
1714027779.984,-28.809,-28.320,-32.715,-32.715,0.000
1714027779.988,-32.715,-21.973,-27.832,-32.715,0.000
1714027779.992,-34.668,-22.461,-27.344,-26.855,0.000
1714027779.996,-31.250,-21.484,-25.879,-30.273,0.000
1714027780.000,-26.367,-20.020,-21.484,-32.227,0.000
1714027780.004,-24.902,-18.555,-20.020,-36.133,0.000
1714027780.008,-28.320,-20.508,-22.949,-39.551,0.000
1714027780.012,-32.715,-30.762,-25.391,-46.387,0.000
1714027780.016,-35.645,-30.273,-26.367,-47.852,0.000
1714027780.019,-33.203,-26.367,-23.438,-38.574,0.000
1714027780.023,-30.762,-30.273,-21.484,-33.691,0.000
1714027780.027,-30.273,-27.832,-21.973,-24.902,0.000
1714027780.031,-30.273,-21.484,-23.438,-20.996,0.000
1714027780.035,-33.203,-26.367,-28.809,-26.367,0.000
1714027780.039,-34.180,-27.344,-29.785,-20.508,0.000
1714027780.043,-31.250,-24.414,-23.438,-23.438,0.000
1714027780.047,-30.762,-24.414,-26.855,-31.738,0.000
1714027780.051,-25.879,-21.973,-31.738,-35.156,0.000
1714027780.055,-27.832,-23.926,-29.785,-35.156,0.000
1714027780.059,-33.203,-24.902,-27.344,-30.762,0.000
1714027780.063,-28.320,-22.949,-27.344,-23.438,0.000
1714027780.066,-26.855,-23.926,-25.391,-20.508,0.000
1714027780.070,-28.320,-21.973,-28.320,-22.461,0.000
1714027780.074,-28.809,-22.461,-29.297,-21.973,0.000
1714027780.078,-27.344,-23.926,-24.414,-23.926,0.000
1714027780.082,-28.320,-24.414,-30.273,-25.879,0.000
1714027780.086,-30.762,-25.391,-30.273,-30.762,0.000
1714027780.090,-27.344,-24.414,-20.996,-27.344,0.000
1714027780.094,-25.879,-21.484,-25.391,-30.273,0.000
1714027780.098,-27.344,-21.484,-35.156,-38.574,0.000
1714027780.102,-26.367,-25.879,-29.297,-36.133,0.000
1714027780.106,-28.809,-26.855,-21.973,-37.598,0.000
1714027780.109,-27.344,-22.461,-24.414,-28.320,0.000
1714027780.113,-24.414,-20.996,-23.926,-23.438,0.000
1714027780.117,-19.043,-20.996,-21.973,-25.391,0.000
1714027780.121,-18.066,-20.508,-16.113,-19.531,0.000
1714027780.125,-18.555,-21.973,-15.137,-13.672,0.000
1714027780.129,-21.973,-23.926,-21.973,-9.277,0.000
1714027780.133,-24.902,-27.832,-21.484,-14.648,0.000
1714027780.137,-21.973,-27.344,-26.367,-20.020,0.000
1714027780.141,-19.531,-26.855,-28.809,-20.020,0.000
1714027780.145,-19.043,-26.855,-26.367,-15.137,0.000
1714027780.148,-18.555,-26.367,-22.949,-16.602,0.000
1714027780.152,-24.414,-26.855,-21.484,-24.902,0.000
1714027780.156,-28.809,-27.344,-23.926,-26.855,0.000
1714027780.160,-30.762,-30.273,-24.902,-29.297,0.000
1714027780.164,-32.715,-27.832,-28.809,-30.273,0.000
1714027780.168,-33.203,-25.391,-29.297,-27.832,0.000
1714027780.172,-31.250,-26.367,-26.855,-24.414,0.000
1714027780.176,-34.180,-28.320,-32.715,-28.809,0.000
1714027780.180,-38.574,-26.367,-32.715,-32.715,0.000
1714027780.184,-29.785,-27.832,-29.297,-37.109,0.000
1714027780.188,-22.949,-26.855,-28.809,-39.062,0.000
1714027780.191,-25.391,-26.367,-28.809,-37.109,0.000
1714027780.195,-24.414,-24.902,-23.438,-34.668,0.000
1714027780.199,-22.949,-25.391,-20.996,-31.738,0.000
1714027780.203,-20.508,-25.391,-26.367,-37.109,0.000
1714027780.207,-17.578,-25.391,-30.273,-38.086,0.000
1714027780.211,-3.906,-23.438,-38.574,-24.902,0.000
1714027780.215,-0.488,-23.926,-39.551,-20.996,0.000
1714027780.219,-15.137,-27.832,-30.273,-33.203,0.000
1714027780.223,-23.926,-28.809,-28.320,-40.527,0.000
1714027780.226,-22.461,-38.574,-31.250,-28.320,0.000
1714027780.230,-24.414,-43.945,-29.785,-26.855,0.000
1714027780.234,-29.297,-35.156,-24.414,-27.344,0.000
1714027780.238,-29.297,-28.809,-19.531,-14.648,0.000
1714027780.242,-32.715,-30.273,-22.949,-19.531,0.000
1714027780.246,-31.250,-28.320,-26.367,-24.902,0.000
1714027780.250,-24.902,-26.855,-19.043,-24.902,0.000
1714027780.254,-27.344,-28.320,-20.020,-29.297,0.000
1714027780.258,-31.738,-32.715,-24.902,-29.297,0.000
1714027780.261,-33.203,-36.133,-26.367,-19.043,0.000
1714027780.265,-35.156,-33.203,-24.414,-13.184,0.000
1714027780.269,-40.039,-29.297,-22.461,-27.832,0.000
1714027780.273,-41.992,-26.855,-28.320,-36.621,0.000
1714027780.277,-36.133,-28.320,-24.902,-33.691,0.000
1714027780.281,-36.133,-30.273,-21.484,-32.715,0.000
1714027780.285,-37.109,-30.762,-26.855,-35.645,0.000
1714027780.289,-37.109,-34.180,-33.203,-32.227,0.000
1714027780.292,-44.922,-40.527,-32.227,-28.320,0.000
1714027780.296,-49.316,-36.133,-27.344,-29.297,0.000
1714027780.300,-41.992,-29.785,-28.320,-32.227,0.000
1714027780.304,-35.156,-32.227,-32.227,-40.039,0.000
1714027780.308,-33.691,-29.785,-34.180,-31.250,0.000
1714027780.312,-31.250,-30.273,-26.855,-24.902,0.000
1714027780.316,-25.879,-30.273,-21.484,-21.973,0.000
1714027780.320,-20.508,-30.273,-24.902,-24.414,0.000
1714027780.324,-23.438,-31.738,-25.391,-36.133,0.000
1714027780.328,-28.809,-27.832,-24.414,-36.133,0.000
1714027780.332,-24.414,-27.344,-26.367,-26.367,0.000
1714027780.336,-26.367,-31.250,-29.297,-30.273,0.000
1714027780.340,-28.320,-28.809,-30.762,-35.156,0.000
1714027780.344,-18.066,-27.832,-25.879,-19.531,0.000
1714027780.347,-18.066,-27.344,-29.785,-20.020,0.000
1714027780.351,-21.484,-28.320,-31.250,-32.227,0.000
1714027780.355,-21.973,-36.133,-27.832,-24.902,0.000
1714027780.359,-30.762,-39.062,-33.691,-25.879,0.000
1714027780.363,-35.156,-35.156,-35.156,-25.879,0.000
1714027780.367,-32.715,-34.180,-35.156,-15.137,0.000
1714027780.371,-32.227,-36.133,-39.062,-17.578,0.000
1714027780.375,-29.785,-34.668,-36.133,-29.785,0.000
1714027780.379,-26.855,-34.180,-31.738,-36.621,0.000
1714027780.383,-27.344,-37.598,-40.039,-37.598,0.000
1714027780.387,-25.391,-31.738,-40.527,-35.645,0.000
1714027780.391,-28.809,-26.367,-33.691,-35.645,0.000
1714027780.395,-31.250,-25.391,-38.086,-34.180,0.000
1714027780.398,-24.902,-23.438,-42.480,-30.762,0.000
1714027780.402,-23.438,-26.367,-38.086,-28.809,0.000
1714027780.406,-27.832,-25.879,-30.762,-21.973,0.000
1714027780.410,-29.785,-26.855,-37.109,-20.020,0.000
1714027780.414,-26.367,-29.297,-33.691,-20.508,0.000
1714027780.418,-25.391,-24.902,-26.855,-22.949,0.000
1714027780.422,-26.855,-23.926,-24.414,-25.391,0.000
1714027780.426,-24.902,-27.832,-23.438,-17.090,0.000
1714027780.430,-22.461,-24.902,-27.832,-17.090,0.000
1714027780.434,-18.066,-20.508,-31.738,-23.438,0.000
1714027780.438,-18.066,-21.484,-31.738,-26.855,0.000
1714027780.442,-20.996,-20.020,-31.738,-23.926,0.000
1714027780.445,-17.578,-20.996,-28.809,-14.160,0.000
1714027780.449,-20.996,-20.996,-27.832,-23.438,0.000
1714027780.453,-23.438,-20.020,-31.738,-32.227,0.000
1714027780.457,-20.020,-19.531,-32.227,-17.578,0.000
1714027780.461,-18.066,-14.160,-31.738,-10.254,0.000
1714027780.465,-19.043,-15.137,-24.902,-27.344,0.000
1714027780.469,-16.113,-19.043,-21.484,-33.691,0.000
1714027780.473,-16.602,-22.949,-27.832,-34.668,0.000
1714027780.477,-20.996,-26.367,-30.273,-36.621,0.000
1714027780.481,-22.949,-20.996,-30.762,-34.180,0.000
1714027780.484,-20.996,-22.461,-36.133,-35.156,0.000
1714027780.488,-20.508,-22.949,-29.785,-34.180,0.000
1714027780.492,-30.762,-24.414,-33.203,-35.645,0.000
1714027780.496,-33.203,-29.785,-40.039,-39.551,0.000
1714027780.500,-29.297,-30.762,-30.762,-33.691,0.000
1714027780.504,-32.227,-27.344,-29.297,-23.438,0.000
1714027780.508,-33.691,-26.855,-32.227,-31.738,0.000
1714027780.512,-31.250,-28.809,-32.715,-34.668,0.000
1714027780.516,-27.832,-31.738,-35.156,-27.344,0.000
1714027780.520,-30.762,-31.738,-31.250,-23.926,0.000
1714027780.523,-34.180,-25.391,-29.297,-27.832,0.000
1714027780.527,-34.668,-27.832,-39.062,-33.691,0.000
1714027780.531,-31.250,-31.250,-38.086,-29.785,0.000
1714027780.535,-32.227,-28.320,-32.715,-28.809,0.000
1714027780.539,-31.250,-28.320,-38.086,-27.832,0.000
1714027780.543,-26.855,-29.785,-39.551,-27.832,0.000
1714027780.547,-33.203,-34.180,-41.992,-25.391,0.000
1714027780.551,-32.227,-34.668,-37.109,-22.949,0.000
1714027780.555,-27.832,-30.273,-26.367,-28.320,0.000
1714027780.559,-30.762,-26.855,-23.926,-22.949,0.000
1714027780.563,-32.227,-21.973,-19.043,-16.602,0.000
1714027780.566,-30.762,-21.484,-12.695,-21.484,0.000
1714027780.570,-27.344,-20.508,-13.184,-25.879,0.000
1714027780.574,-30.273,-21.484,-24.902,-25.391,0.000
1714027780.578,-37.598,-27.832,-29.297,-31.738,0.000
1714027780.582,-36.621,-25.879,-22.461,-28.809,0.000
1714027780.586,-35.156,-28.320,-26.855,-27.344,0.000
1714027780.590,-38.574,-31.250,-28.809,-32.227,0.000
1714027780.594,-36.133,-30.762,-21.973,-26.367,0.000
1714027780.598,-33.691,-30.762,-23.926,-31.738,0.000
1714027780.602,-39.551,-26.855,-26.367,-41.016,0.000
1714027780.605,-40.527,-26.367,-29.297,-39.551,0.000
1714027780.609,-39.551,-34.668,-36.621,-36.621,0.000
1714027780.613,-41.504,-32.227,-36.621,-35.156,0.000
1714027780.617,-34.180,-23.438,-28.809,-27.344,0.000
1714027780.621,-29.785,-22.461,-33.203,-24.902,0.000
1714027780.625,-33.691,-20.020,-32.227,-34.180,0.000
1714027780.629,-36.133,-22.461,-30.273,-31.250,0.000
1714027780.633,-23.926,-26.367,-33.691,-25.391,0.000
1714027780.636,-24.414,-27.832,-31.738,-27.832,0.000
1714027780.640,-32.227,-30.762,-37.109,-23.926,0.000
1714027780.644,-25.879,-27.832,-37.598,-26.855,0.000
1714027780.648,-19.043,-24.414,-25.879,-24.902,0.000
1714027780.652,-17.090,-27.344,-27.344,-20.020,0.000
1714027780.656,-15.625,-29.785,-31.738,-23.438,0.000
1714027780.660,-19.043,-29.297,-27.832,-23.926,0.000
1714027780.664,-22.949,-34.180,-26.367,-25.879,0.000
1714027780.667,-22.461,-37.598,-24.902,-29.297,0.000
1714027780.671,-26.855,-33.203,-24.902,-31.250,0.000
1714027780.675,-32.227,-28.809,-29.297,-35.156,0.000
1714027780.679,-31.738,-33.203,-31.738,-36.133,0.000
1714027780.683,-28.320,-34.668,-28.320,-33.691,0.000
1714027780.687,-32.715,-34.180,-25.879,-31.738,0.000
1714027780.691,-38.086,-31.738,-29.297,-29.297,0.000
1714027780.695,-33.203,-33.203,-31.250,-24.414,0.000
1714027780.699,-33.691,-33.203,-29.297,-23.438,0.000
1714027780.703,-34.180,-30.762,-27.832,-29.785,0.000
1714027780.707,-32.227,-30.762,-25.391,-31.738,0.000
1714027780.711,-31.738,-31.250,-23.438,-24.414,0.000
1714027780.715,-35.156,-27.832,-20.508,-23.438,0.000
1714027780.719,-34.180,-27.832,-19.531,-35.156,0.000
1714027780.722,-29.297,-30.762,-28.320,-39.062,0.000
1714027780.726,-28.809,-32.227,-35.645,-36.621,0.000
1714027780.730,-32.227,-32.715,-35.645,-36.621,0.000
1714027780.734,-28.320,-29.785,-34.180,-35.645,0.000
1714027780.738,-24.902,-26.855,-35.156,-30.273,0.000
1714027780.742,-25.879,-24.414,-36.621,-22.949,0.000
1714027780.746,-28.320,-22.461,-24.902,-27.832,0.000
1714027780.750,-23.926,-20.508,-21.484,-31.738,0.000
1714027780.754,-21.484,-23.926,-36.133,-29.785,0.000
1714027780.758,-24.414,-28.809,-39.551,-30.762,0.000
1714027780.762,-21.484,-26.367,-25.391,-28.809,0.000
1714027780.766,-18.066,-22.949,-22.949,-24.902,0.000
1714027780.770,-16.113,-20.508,-26.367,-26.367,0.000
1714027780.773,-17.578,-23.438,-23.926,-30.273,0.000
1714027780.777,-23.438,-22.461,-27.344,-28.809,0.000
1714027780.781,-29.785,-17.090,-32.715,-30.273,0.000
1714027780.785,-30.762,-20.996,-33.203,-25.879,0.000
1714027780.789,-21.973,-20.996,-29.785,-14.160,0.000
1714027780.793,-22.461,-20.508,-26.855,-19.531,0.000
1714027780.797,-30.273,-23.926,-29.785,-28.320,0.000
1714027780.801,-29.785,-26.855,-35.645,-29.297,0.000
1714027780.805,-27.344,-27.344,-31.738,-21.484,0.000
1714027780.809,-29.785,-26.367,-36.621,-18.066,0.000
1714027780.813,-29.297,-25.879,-41.016,-19.531,0.000
1714027780.817,-21.973,-21.484,-32.227,-22.949,0.000
1714027780.820,-19.531,-22.949,-27.344,-25.391,0.000
1714027780.824,-20.996,-28.320,-31.250,-20.020,0.000
1714027780.828,-27.344,-30.762,-28.809,-22.461,0.000
1714027780.832,-31.738,-32.715,-28.809,-22.949,0.000
1714027780.836,-31.738,-33.691,-21.484,-21.484,0.000
1714027780.840,-32.715,-26.855,-21.484,-21.973,0.000
1714027780.844,-32.227,-25.391,-34.668,-27.832,0.000
1714027780.848,-23.926,-21.484,-32.227,-31.250,0.000
1714027780.852,-25.391,-22.461,-25.391,-28.809,0.000
1714027780.856,-31.250,-29.297,-22.949,-30.273,0.000
1714027780.860,-28.320,-28.809,-21.484,-37.109,0.000
1714027780.863,-26.367,-26.855,-20.020,-34.180,0.000
1714027780.867,-25.391,-28.320,-24.414,-31.250,0.000
1714027780.871,-26.855,-28.809,-30.762,-37.598,0.000
1714027780.875,-27.344,-26.855,-34.180,-28.320,0.000
1714027780.879,-21.484,-27.344,-33.691,-20.996,0.000
1714027780.883,-19.531,-28.809,-32.715,-32.715,0.000
1714027780.887,-21.484,-30.762,-32.715,-39.551,0.000
1714027780.891,-17.578,-29.785,-33.203,-41.016,0.000
1714027780.895,-18.066,-30.273,-30.273,-43.457,0.000
1714027780.899,-23.926,-34.180,-21.973,-40.039,0.000
1714027780.902,-26.855,-30.273,-28.809,-35.156,0.000
1714027780.906,-34.668,-32.227,-37.109,-34.180,0.000
1714027780.910,-39.551,-35.645,-22.949,-28.320,0.000
1714027780.914,-43.457,-35.645,-23.926,-27.832,0.000
1714027780.918,-39.551,-33.203,-36.621,-34.180,0.000
1714027780.922,-32.227,-28.809,-36.133,-26.367,0.000
1714027780.926,-34.180,-30.762,-24.902,-23.438,0.000
1714027780.930,-33.691,-29.297,-27.832,-24.902,0.000
1714027780.934,-31.250,-27.344,-33.203,-31.738,0.000
1714027780.938,-35.156,-30.273,-35.156,-37.598,0.000
1714027780.941,-33.691,-31.250,-35.645,-37.109,0.000
1714027780.945,-30.273,-35.645,-33.691,-34.668,0.000
1714027780.949,-31.250,-30.762,-41.504,-34.668,0.000
1714027780.953,-28.809,-22.949,-42.969,-34.668,0.000
1714027780.957,-26.367,-20.996,-31.250,-28.320,0.000
1714027780.961,-29.297,-23.438,-26.855,-29.785,0.000
1714027780.965,-28.320,-27.344,-29.785,-30.273,0.000
1714027780.969,-34.668,-32.227,-35.645,-28.809,0.000
1714027780.973,-38.574,-29.785,-39.551,-33.203,0.000
1714027780.977,-28.809,-23.926,-33.691,-31.738,0.000
1714027780.980,-23.926,-21.973,-34.668,-28.320,0.000
1714027780.984,-27.832,-24.902,-38.086,-29.785,0.000
1714027780.988,-29.785,-28.809,-39.551,-33.203,0.000
1714027780.992,-29.785,-30.762,-43.457,-28.809,0.000
1714027780.996,-25.879,-26.855,-41.016,-27.832,0.000
1714027781.000,-27.344,-28.320,-40.527,-36.621,0.000
1714027781.004,-27.832,-30.273,-44.922,-40.527,0.000
1714027781.008,-28.809,-26.855,-45.410,-35.156,0.000
1714027781.011,-29.297,-27.832,-38.086,-27.832,0.000
1714027781.015,-26.367,-31.738,-29.785,-23.926,0.000
1714027781.019,-32.227,-35.645,-32.715,-32.715,0.000
1714027781.023,-37.598,-36.621,-43.457,-42.969,0.000
1714027781.027,-29.297,-33.203,-46.387,-37.598,0.000
1714027781.031,-28.320,-34.180,-39.551,-37.109,0.000
1714027781.035,-30.762,-39.551,-39.551,-41.016,0.000
1714027781.039,-27.832,-36.621,-44.434,-32.227,0.000
1714027781.042,-31.738,-32.227,-38.086,-22.949,0.000
1714027781.046,-32.227,-39.062,-32.227,-19.531,0.000
1714027781.050,-31.250,-35.156,-35.645,-25.879,0.000
1714027781.054,-35.156,-23.438,-36.621,-26.855,0.000
1714027781.058,-32.227,-23.438,-32.715,-17.578,0.000
1714027781.062,-26.855,-23.926,-32.715,-20.508,0.000
1714027781.066,-23.926,-20.996,-36.133,-24.902,0.000
1714027781.070,-20.996,-21.973,-30.273,-23.926,0.000
1714027781.074,-24.414,-22.949,-27.344,-29.297,0.000
1714027781.078,-26.855,-24.902,-32.715,-27.832,0.000
1714027781.082,-23.926,-30.273,-32.715,-19.043,0.000
1714027781.086,-26.367,-31.738,-30.273,-20.996,0.000
1714027781.090,-27.832,-23.926,-28.320,-20.996,0.000
1714027781.094,-29.785,-21.484,-21.973,-23.926,0.000
1714027781.097,-24.902,-24.902,-23.926,-26.367,0.000
1714027781.101,-19.531,-26.855,-33.691,-20.508,0.000
1714027781.105,-26.855,-29.785,-32.227,-23.438,0.000
1714027781.109,-34.668,-23.926,-25.391,-24.414,0.000
1714027781.113,-27.344,-15.625,-12.207,-15.625,0.000
1714027781.117,-18.066,-21.973,-12.207,-15.625,0.000
1714027781.121,-30.273,-18.066,-20.996,-24.902,0.000
1714027781.125,-46.875,-19.531,-14.648,-33.203,0.000
1714027781.129,-49.805,-35.156,-23.438,-36.621,0.000
1714027781.133,-52.734,-33.691,-30.762,-47.363,0.000
1714027781.137,-56.152,-30.273,-28.320,-57.129,0.000
1714027781.141,-60.059,-22.949,-29.785,-64.453,0.000
1714027781.144,-57.617,-21.973,-24.902,-65.430,0.000
1714027781.148,-73.730,-28.809,-24.414,-69.336,0.000
1714027781.152,-96.680,-29.785,-22.949,-88.867,0.000
1714027781.156,-101.562,-32.227,-16.113,-105.469,0.000
1714027781.160,-107.422,-31.738,-15.625,-112.305,0.000
1714027781.164,-113.281,-26.855,-16.113,-105.469,0.000
1714027781.168,-126.465,-19.531,-4.883,-122.559,0.000
1714027781.172,-126.953,-19.043,-7.324,-127.930,0.000
1714027781.176,-119.629,-24.414,-17.578,-109.863,0.000
1714027781.180,-121.582,-20.996,-20.508,-119.141,0.000
1714027781.184,-117.676,-20.020,-20.996,-120.605,0.000
1714027781.188,-106.445,-25.391,-17.090,-104.004,0.000
1714027781.191,-98.633,-22.949,-14.160,-94.727,0.000
1714027781.195,-89.355,-22.461,-18.555,-83.984,0.000
1714027781.199,-71.777,-19.531,-26.855,-68.848,0.000
1714027781.203,-71.289,-19.531,-30.273,-73.242,0.000
1714027781.207,-63.477,-21.484,-29.785,-67.383,0.000
1714027781.211,-48.828,-20.020,-23.926,-45.898,0.000
1714027781.215,-50.293,-23.438,-30.273,-49.316,0.000
1714027781.219,-47.363,-27.832,-35.645,-45.898,0.000
1714027781.223,-38.086,-26.367,-32.227,-28.320,0.000
1714027781.227,-38.086,-25.879,-35.645,-25.879,0.000
1714027781.231,-33.691,-27.344,-36.621,-26.367,0.000
1714027781.234,-28.809,-31.250,-39.062,-21.973,0.000
1714027781.238,-28.320,-29.297,-39.062,-16.113,0.000
1714027781.242,-20.996,-24.902,-35.156,-12.207,0.000
1714027781.246,-15.137,-26.855,-35.645,-17.090,0.000
1714027781.250,-18.555,-32.715,-42.969,-17.090,0.000
1714027781.254,-15.137,-33.691,-45.898,-12.695,0.000
1714027781.258,-13.184,-28.809,-40.039,-20.996,0.000
1714027781.262,-14.160,-30.762,-39.551,-17.090,0.000
1714027781.266,-5.859,-28.809,-40.527,-4.883,0.000
1714027781.270,-6.348,-26.855,-41.504,-6.836,0.000
1714027781.273,-8.301,-28.320,-34.180,-7.324,0.000
1714027781.277,-10.254,-29.785,-34.180,-5.371,0.000
1714027781.281,-11.230,-31.738,-43.457,-6.836,0.000
1714027781.285,-4.883,-33.203,-42.969,-2.930,0.000
1714027781.289,-4.395,-26.855,-42.480,0.000,0.000
1714027781.293,2.930,-18.066,-40.039,8.301,0.000
1714027781.297,3.906,-17.090,-36.133,14.648,0.000
1714027781.301,0.977,-14.160,-36.133,7.324,0.000
1714027781.305,0.977,-11.719,-32.715,3.418,0.000
1714027781.309,-0.977,-16.602,-32.715,-4.395,0.000
1714027781.313,-3.906,-30.273,-38.086,-14.160,0.000
1714027781.316,-8.789,-32.715,-36.133,-11.719,0.000
1714027781.320,-6.348,-26.367,-32.715,-5.859,0.000
1714027781.324,-10.254,-28.320,-41.504,-11.230,0.000
1714027781.328,-19.531,-32.715,-49.805,-16.602,0.000
1714027781.332,-19.531,-31.250,-38.574,-12.207,0.000
1714027781.336,-13.672,-30.762,-32.715,-13.184,0.000
1714027781.340,-14.648,-39.062,-38.086,-20.508,0.000
1714027781.344,-18.066,-36.133,-39.551,-8.789,0.000
1714027781.348,-19.043,-31.738,-41.504,-10.742,0.000
1714027781.351,-12.207,-33.203,-46.875,-17.090,0.000
1714027781.355,-11.719,-29.785,-50.781,-19.043,0.000
1714027781.359,-14.648,-28.320,-53.223,-14.648,0.000
1714027781.363,-11.230,-30.762,-47.852,-4.883,0.000
1714027781.367,-10.254,-32.227,-36.133,-11.719,0.000
1714027781.371,-15.137,-33.203,-35.645,-17.090,0.000
1714027781.375,-19.043,-34.180,-46.387,-9.766,0.000
1714027781.379,-18.066,-30.273,-49.316,-13.672,0.000
1714027781.383,-18.066,-32.715,-48.828,-19.043,0.000
1714027781.386,-14.160,-39.062,-50.781,-11.719,0.000
1714027781.390,-16.602,-33.691,-41.992,-9.277,0.000
1714027781.394,-15.137,-29.785,-39.062,-14.160,0.000
1714027781.398,-11.230,-29.785,-37.109,-11.719,0.000
1714027781.402,-7.812,-28.809,-32.227,-6.836,0.000
1714027781.406,-11.719,-25.391,-31.250,-11.230,0.000
1714027781.410,-16.602,-26.855,-35.645,-8.789,0.000
1714027781.414,-19.531,-31.738,-34.668,-15.137,0.000
1714027781.417,-17.578,-31.738,-29.297,-21.973,0.000
1714027781.421,-17.578,-30.273,-27.344,-20.996,0.000
1714027781.425,-18.555,-28.809,-27.832,-23.926,0.000
1714027781.429,-17.090,-27.832,-29.297,-21.973,0.000
1714027781.433,-15.625,-28.320,-29.785,-24.902,0.000
1714027781.437,-16.113,-25.391,-31.738,-34.668,0.000
1714027781.441,-17.578,-23.926,-37.598,-30.762,0.000
1714027781.445,-25.391,-35.645,-39.062,-34.180,0.000
1714027781.449,-34.668,-40.527,-38.086,-43.945,0.000
1714027781.453,-38.086,-35.645,-44.922,-42.969,0.000
1714027781.457,-34.180,-30.762,-35.156,-34.668,0.000
1714027781.461,-36.133,-31.738,-26.855,-31.250,0.000
1714027781.465,-36.621,-33.691,-33.203,-31.738,0.000
1714027781.469,-31.250,-28.809,-37.598,-33.203,0.000
1714027781.472,-34.668,-34.180,-39.551,-37.109,0.000
1714027781.476,-33.203,-34.668,-37.109,-26.367,0.000
1714027781.480,-23.438,-29.785,-38.086,-21.973,0.000
1714027781.484,-20.020,-30.762,-33.691,-25.879,0.000
1714027781.488,-20.996,-30.762,-32.715,-23.926,0.000
1714027781.492,-20.508,-33.203,-35.156,-20.020,0.000
1714027781.496,-20.508,-28.809,-31.250,-15.625,0.000
1714027781.500,-15.137,-28.320,-34.180,-15.625,0.000
1714027781.504,-14.160,-32.227,-40.527,-20.996,0.000
1714027781.508,-17.090,-26.367,-37.109,-17.090,0.000
1714027781.512,-19.531,-25.879,-26.855,-12.695,0.000
1714027781.516,-23.926,-25.879,-21.973,-19.531,0.000
1714027781.520,-19.043,-26.367,-21.973,-13.184,0.000
1714027781.523,-17.090,-27.832,-24.414,-6.836,0.000
1714027781.527,-15.137,-26.367,-26.367,-7.324,0.000
1714027781.531,-12.695,-23.438,-27.344,-8.301,0.000
1714027781.535,-13.184,-26.367,-32.227,-13.672,0.000
1714027781.539,-19.043,-29.297,-36.133,-10.254,0.000
1714027781.543,-20.508,-22.949,-26.855,-16.113,0.000
1714027781.547,-18.066,-20.020,-18.066,-20.020,0.000
1714027781.551,-20.020,-27.344,-20.508,-18.066,0.000
1714027781.555,-20.508,-31.250,-29.785,-20.020,0.000
1714027781.559,-20.020,-31.738,-37.109,-19.531,0.000
1714027781.563,-18.555,-29.297,-39.062,-20.020,0.000
1714027781.567,-18.555,-24.902,-37.109,-20.996,0.000
1714027781.570,-16.602,-27.344,-35.645,-30.273,0.000
1714027781.574,-10.742,-29.785,-36.133,-35.156,0.000
1714027781.578,-7.812,-27.344,-31.250,-28.320,0.000
1714027781.582,-10.254,-28.320,-32.715,-25.391,0.000
1714027781.586,-19.043,-33.203,-40.039,-29.297,0.000
1714027781.590,-25.879,-35.156,-34.180,-30.273,0.000
1714027781.594,-28.320,-28.809,-30.762,-28.809,0.000
1714027781.598,-27.344,-30.273,-34.180,-31.250,0.000
1714027781.602,-38.086,-38.086,-37.598,-36.133,0.000
1714027781.606,-45.898,-37.109,-36.621,-34.180,0.000
1714027781.609,-40.527,-35.156,-25.391,-24.414,0.000
1714027781.613,-37.109,-32.715,-22.949,-22.461,0.000
1714027781.617,-37.598,-32.715,-26.367,-24.902,0.000
1714027781.621,-41.016,-34.668,-29.297,-27.832,0.000
1714027781.625,-43.457,-35.645,-40.527,-30.762,0.000
1714027781.629,-41.992,-37.109,-38.086,-26.367,0.000
1714027781.633,-40.527,-36.133,-25.879,-29.785,0.000
1714027781.637,-37.109,-33.691,-28.320,-35.156,0.000
1714027781.641,-36.621,-33.203,-31.738,-31.738,0.000
1714027781.645,-35.645,-30.762,-32.227,-30.762,0.000
1714027781.649,-35.156,-31.738,-33.203,-30.762,0.000
1714027781.652,-30.762,-31.738,-28.809,-26.855,0.000
1714027781.656,-33.203,-35.645,-29.785,-29.785,0.000
1714027781.660,-34.180,-35.156,-32.227,-29.297,0.000
1714027781.664,-24.414,-33.691,-26.855,-22.461,0.000
1714027781.668,-20.020,-33.691,-21.973,-21.484,0.000
1714027781.672,-24.902,-34.668,-28.809,-20.508,0.000
1714027781.676,-27.344,-32.227,-30.273,-20.020,0.000
1714027781.680,-24.414,-30.762,-26.367,-22.949,0.000
1714027781.684,-21.484,-32.227,-32.715,-28.320,0.000
1714027781.688,-23.438,-33.691,-37.109,-30.273,0.000
1714027781.691,-23.438,-33.203,-29.785,-25.879,0.000
1714027781.695,-26.367,-31.738,-32.227,-25.879,0.000
1714027781.699,-26.855,-33.203,-41.504,-28.320,0.000
1714027781.703,-27.344,-34.180,-39.062,-32.715,0.000
1714027781.707,-26.855,-33.203,-34.180,-31.250,0.000
1714027781.711,-24.414,-30.273,-30.273,-23.438,0.000
1714027781.715,-30.273,-30.762,-29.785,-25.391,0.000
1714027781.719,-30.273,-27.344,-35.645,-20.020,0.000
1714027781.723,-25.391,-25.879,-37.598,-24.902,0.000
1714027781.727,-23.926,-30.762,-36.133,-28.320,0.000
1714027781.730,-22.461,-21.973,-31.250,-25.879,0.000
1714027781.734,-23.926,-15.625,-32.227,-32.715,0.000
1714027781.738,-28.809,-20.996,-37.109,-36.621,0.000
1714027781.742,-26.367,-21.973,-33.203,-32.227,0.000
1714027781.746,-28.320,-21.484,-30.273,-27.344,0.000
1714027781.750,-29.785,-24.414,-26.367,-30.762,0.000
1714027781.754,-28.809,-27.344,-26.367,-34.180,0.000
1714027781.758,-32.227,-26.367,-31.738,-34.668,0.000
1714027781.762,-34.668,-28.320,-39.062,-26.855,0.000
1714027781.765,-36.621,-30.762,-36.133,-29.297,0.000
1714027781.769,-32.715,-32.227,-24.902,-31.250,0.000
1714027781.773,-28.320,-30.273,-24.414,-20.508,0.000
1714027781.777,-26.855,-24.902,-23.438,-24.414,0.000
1714027781.781,-21.484,-20.996,-23.926,-30.273,0.000
1714027781.785,-18.066,-20.020,-24.414,-23.438,0.000
1714027781.789,-24.414,-24.902,-27.344,-18.555,0.000
1714027781.792,-30.273,-27.344,-36.133,-23.926,0.000
1714027781.796,-23.438,-24.414,-36.133,-22.949,0.000
1714027781.800,-21.973,-28.320,-30.762,-27.344,0.000
1714027781.804,-27.344,-23.926,-31.250,-33.691,0.000
1714027781.808,-24.902,-22.461,-35.645,-27.344,0.000
1714027781.812,-18.066,-22.949,-33.691,-25.391,0.000
1714027781.816,-13.184,-21.973,-27.344,-28.320,0.000
1714027781.820,-19.043,-25.391,-23.438,-33.203,0.000
1714027781.824,-22.949,-22.461,-20.508,-27.832,0.000
1714027781.828,-21.484,-25.391,-25.391,-28.809,0.000
1714027781.832,-26.367,-30.273,-31.250,-35.645,0.000
1714027781.836,-22.461,-22.461,-29.297,-29.785,0.000
1714027781.840,-20.996,-18.066,-30.273,-33.203,0.000
1714027781.844,-30.762,-28.320,-28.320,-41.504,0.000
1714027781.847,-31.738,-32.715,-21.973,-41.016,0.000
1714027781.851,-24.414,-29.297,-31.738,-37.109,0.000
1714027781.855,-26.855,-32.227,-33.203,-37.598,0.000
1714027781.859,-30.762,-29.785,-21.973,-31.250,0.000
1714027781.863,-31.250,-30.762,-23.926,-31.250,0.000
1714027781.867,-32.715,-32.715,-30.273,-26.855,0.000
1714027781.871,-27.832,-28.320,-24.414,-22.949,0.000
1714027781.875,-27.344,-30.762,-22.949,-24.414,0.000
1714027781.879,-26.855,-29.297,-32.227,-23.438,0.000
1714027781.883,-27.344,-28.809,-33.203,-27.344,0.000
1714027781.887,-29.297,-35.156,-28.320,-26.367,0.000
1714027781.891,-28.809,-36.621,-32.715,-21.484,0.000
1714027781.894,-28.809,-37.598,-35.156,-27.344,0.000
1714027781.898,-27.832,-34.180,-29.785,-27.344,0.000
1714027781.902,-31.738,-35.156,-23.438,-28.809,0.000
1714027781.906,-36.133,-39.062,-16.113,-33.691,0.000
1714027781.910,-29.785,-33.691,-19.531,-23.926,0.000
1714027781.914,-29.785,-37.598,-20.020,-18.555,0.000
1714027781.918,-29.785,-38.574,-20.020,-26.367,0.000
1714027781.922,-29.785,-29.785,-23.926,-33.203,0.000
1714027781.926,-34.180,-30.762,-28.320,-32.715,0.000
1714027781.930,-30.273,-34.668,-30.762,-34.180,0.000
1714027781.934,-29.785,-36.133,-22.949,-37.109,0.000
1714027781.938,-34.668,-40.527,-26.855,-31.738,0.000
1714027781.941,-32.227,-37.598,-35.645,-28.320,0.000
1714027781.945,-31.250,-35.645,-33.203,-26.855,0.000
1714027781.949,-28.809,-37.598,-32.227,-25.391,0.000
1714027781.953,-15.625,-38.086,-31.738,-10.254,0.000
1714027781.957,1.465,-36.133,-33.691,7.812,0.000
1714027781.961,-18.555,-27.832,-33.203,-19.043,0.000
1714027781.965,-36.133,-29.297,-31.250,-41.992,0.000
1714027781.969,-21.973,-32.715,-34.180,-39.062,0.000
1714027781.973,-16.113,-26.855,-42.480,-33.691,0.000
1714027781.977,-13.184,-23.438,-44.434,-30.273,0.000
1714027781.981,-14.160,-20.508,-43.945,-30.762,0.000
1714027781.985,-15.625,-17.578,-46.875,-38.086,0.000
1714027781.988,-9.766,-16.602,-44.922,-41.016,0.000
1714027781.992,-14.160,-15.137,-49.316,-33.203,0.000
1714027781.996,-6.836,-12.207,-56.152,-33.203,0.000
1714027782.000,0.977,-11.719,-53.711,-28.809,0.000
1714027782.004,2.441,-14.648,-54.688,-22.461,0.000
1714027782.008,3.418,-8.789,-56.152,-27.344,0.000
1714027782.012,7.812,-6.348,-62.012,-17.578,0.000
1714027782.016,10.742,-3.906,-64.941,-12.207,0.000
1714027782.020,4.883,-2.441,-66.895,-23.438,0.000
1714027782.024,9.766,-4.395,-67.383,-24.414,0.000
1714027782.027,18.066,-0.977,-62.500,-12.695,0.000
1714027782.031,19.531,-4.883,-63.477,-4.883,0.000
1714027782.035,13.672,-13.672,-62.988,-7.324,0.000
1714027782.039,5.859,-11.230,-62.500,-9.277,0.000
1714027782.043,5.371,-9.277,-63.477,-13.672,0.000
1714027782.047,6.348,-10.254,-59.570,-11.719,0.000
1714027782.051,5.371,-7.812,-57.129,-6.836,0.000
1714027782.055,-3.418,-9.277,-54.688,-18.066,0.000
1714027782.059,-6.836,-7.324,-55.176,-12.207,0.000
1714027782.063,-5.859,-12.207,-53.223,-4.395,0.000
1714027782.066,-3.906,-15.137,-46.387,-16.113,0.000
1714027782.070,-5.371,-13.184,-47.852,-20.996,0.000
1714027782.074,-10.254,-16.602,-51.270,-19.043,0.000
1714027782.078,-8.301,-14.648,-49.316,-19.531,0.000
1714027782.082,-11.230,-13.184,-46.387,-20.508,0.000
1714027782.086,-12.695,-14.160,-41.504,-19.531,0.000
1714027782.090,-5.371,-17.090,-32.227,-17.090,0.000
1714027782.094,-7.324,-21.484,-30.273,-12.207,0.000
1714027782.098,-13.184,-18.555,-32.227,-20.020,0.000
1714027782.102,-13.672,-17.090,-34.180,-24.902,0.000
1714027782.105,-9.766,-13.184,-31.250,-18.066,0.000
1714027782.109,-14.648,-14.160,-28.320,-14.160,0.000
1714027782.113,-18.066,-20.508,-32.715,-9.766,0.000
1714027782.117,-21.973,-22.461,-38.574,-16.113,0.000
1714027782.121,-20.020,-18.066,-37.598,-20.508,0.000
1714027782.125,-18.066,-18.066,-40.527,-29.297,0.000
1714027782.129,-22.949,-22.461,-41.992,-28.320,0.000
1714027782.133,-22.461,-24.414,-46.875,-23.926,0.000
1714027782.136,-21.484,-22.461,-51.758,-21.973,0.000
1714027782.140,-34.180,-30.273,-45.898,-21.973,0.000
1714027782.144,-35.645,-28.320,-41.016,-26.367,0.000
1714027782.148,-24.902,-19.043,-47.852,-28.809,0.000
1714027782.152,-27.832,-22.461,-48.340,-27.344,0.000
1714027782.156,-30.273,-24.902,-36.621,-26.367,0.000
1714027782.160,-27.832,-21.484,-32.227,-30.273,0.000
1714027782.164,-26.855,-21.484,-35.645,-33.203,0.000
1714027782.167,-22.461,-20.996,-37.598,-33.691,0.000
1714027782.171,-23.926,-25.391,-33.691,-35.156,0.000
1714027782.175,-34.668,-28.320,-33.691,-36.621,0.000
1714027782.179,-31.738,-20.020,-39.062,-25.879,0.000
1714027782.183,-20.996,-17.578,-33.691,-14.648,0.000
1714027782.187,-19.531,-19.043,-21.973,-23.438,0.000
1714027782.191,-20.020,-17.090,-23.438,-24.902,0.000
1714027782.195,-23.926,-20.996,-30.762,-28.809,0.000
1714027782.199,-28.320,-18.066,-27.344,-30.273,0.000
1714027782.203,-29.297,-12.207,-25.879,-24.414,0.000
1714027782.206,-23.926,-15.137,-24.414,-24.414,0.000
1714027782.210,-23.438,-18.066,-30.273,-31.250,0.000
1714027782.214,-21.973,-18.066,-33.691,-36.621,0.000
1714027782.218,-16.602,-17.090,-30.273,-32.715,0.000
1714027782.222,-21.484,-20.020,-41.504,-26.855,0.000
1714027782.226,-28.809,-21.973,-46.875,-29.297,0.000
1714027782.230,-28.320,-23.926,-31.250,-30.762,0.000
1714027782.233,-24.902,-31.738,-21.973,-30.762,0.000
1714027782.237,-27.832,-34.668,-25.391,-31.738,0.000
1714027782.241,-28.320,-34.180,-31.738,-15.625,0.000
1714027782.245,-21.973,-37.109,-28.809,-6.348,0.000
1714027782.249,-11.719,-38.574,-29.785,-10.254,0.000
1714027782.253,-20.020,-34.180,-33.203,-20.020,0.000
1714027782.257,-34.668,-31.250,-33.691,-22.949,0.000
1714027782.261,-37.109,-30.273,-32.715,-21.973,0.000
1714027782.265,-36.133,-26.855,-33.203,-31.250,0.000
1714027782.269,-34.180,-22.461,-33.691,-26.367,0.000
1714027782.273,-32.715,-22.949,-33.691,-24.414,0.000
1714027782.277,-31.250,-27.344,-38.086,-32.715,0.000
1714027782.281,-29.297,-28.320,-40.527,-30.273,0.000
1714027782.284,-30.762,-28.809,-41.016,-28.320,0.000
1714027782.288,-35.645,-29.785,-38.086,-29.297,0.000
1714027782.292,-29.785,-28.809,-35.645,-27.344,0.000
1714027782.296,-24.902,-24.414,-38.574,-25.391,0.000
1714027782.300,-28.809,-23.438,-35.156,-25.879,0.000
1714027782.304,-28.809,-24.414,-25.879,-24.902,0.000
1714027782.308,-33.203,-25.879,-24.902,-19.043,0.000
1714027782.312,-34.180,-30.762,-31.250,-15.625,0.000
1714027782.316,-32.227,-29.785,-35.645,-22.949,0.000
1714027782.320,-28.320,-27.832,-36.133,-24.902,0.000
1714027782.324,-27.344,-29.297,-33.691,-22.461,0.000
1714027782.328,-25.879,-25.879,-36.133,-17.578,0.000
1714027782.332,-20.020,-27.344,-40.527,-16.602,0.000
1714027782.335,-23.438,-32.227,-36.133,-21.484,0.000
1714027782.339,-22.949,-26.855,-27.832,-23.438,0.000
1714027782.343,-20.996,-23.926,-30.762,-21.484,0.000
1714027782.347,-18.066,-25.391,-31.250,-27.344,0.000
1714027782.351,-9.766,-21.484,-31.250,-31.738,0.000
1714027782.355,-14.648,-21.484,-34.668,-37.598,0.000
1714027782.359,-17.578,-26.367,-35.156,-32.227,0.000
1714027782.363,-16.602,-26.855,-39.551,-18.066,0.000
1714027782.367,-20.508,-24.902,-39.062,-15.137,0.000
1714027782.371,-16.602,-21.973,-30.762,-19.043,0.000
1714027782.375,-18.066,-22.461,-29.785,-21.973,0.000
1714027782.378,-26.855,-32.227,-34.180,-16.113,0.000
1714027782.382,-28.320,-30.762,-26.855,-20.020,0.000
1714027782.386,-27.832,-24.902,-26.855,-24.902,0.000
1714027782.390,-24.414,-25.391,-35.645,-20.508,0.000
1714027782.394,-25.879,-21.973,-38.086,-22.461,0.000
1714027782.398,-28.320,-25.391,-34.180,-30.273,0.000
1714027782.402,-26.855,-30.273,-30.762,-34.180,0.000
1714027782.406,-25.879,-25.391,-35.645,-26.855,0.000
1714027782.410,-22.461,-21.973,-33.203,-29.785,0.000
1714027782.414,-21.484,-22.949,-32.227,-32.227,0.000
1714027782.417,-20.508,-24.902,-37.109,-21.973,0.000
1714027782.421,-24.414,-26.855,-34.180,-22.949,0.000
1714027782.425,-27.832,-22.461,-31.738,-22.461,0.000
1714027782.429,-19.531,-15.625,-27.832,-16.602,0.000
1714027782.433,-18.066,-21.973,-21.973,-22.949,0.000
1714027782.437,-28.809,-27.344,-28.809,-29.297,0.000
1714027782.441,-30.762,-23.438,-41.504,-28.320,0.000
1714027782.445,-30.273,-27.344,-39.062,-34.180,0.000
1714027782.449,-34.180,-29.297,-31.250,-35.645,0.000
1714027782.453,-28.809,-24.902,-38.086,-25.879,0.000
1714027782.457,-12.695,-25.391,-41.016,-4.883,0.000
1714027782.461,-8.789,-25.879,-36.133,0.488,0.000
1714027782.465,-30.762,-24.414,-35.156,-20.020,0.000
1714027782.469,-39.062,-26.855,-33.203,-23.438,0.000
1714027782.473,-33.691,-29.297,-27.344,-28.809,0.000
1714027782.477,-40.039,-25.391,-29.785,-30.762,0.000
1714027782.480,-43.945,-31.250,-35.645,-33.691,0.000
1714027782.484,-43.945,-44.434,-39.062,-42.969,0.000
1714027782.488,-39.062,-38.086,-38.086,-31.738,0.000
1714027782.492,-33.691,-28.809,-33.691,-21.484,0.000
1714027782.496,-33.203,-31.738,-30.273,-24.902,0.000
1714027782.500,-33.203,-31.250,-31.738,-23.926,0.000
1714027782.504,-30.273,-25.879,-29.785,-22.949,0.000
1714027782.508,-29.785,-28.809,-25.879,-24.414,0.000
1714027782.512,-31.250,-32.715,-30.762,-21.973,0.000
1714027782.515,-29.297,-30.273,-31.738,-27.344,0.000
1714027782.519,-25.879,-25.879,-27.344,-31.250,0.000
1714027782.523,-21.484,-22.949,-34.668,-31.250,0.000
1714027782.527,-18.555,-27.344,-37.109,-26.855,0.000
1714027782.531,-19.043,-28.320,-22.949,-24.902,0.000
1714027782.535,-15.625,-22.461,-17.090,-28.809,0.000
1714027782.539,-17.090,-20.020,-18.066,-26.367,0.000
1714027782.543,-16.602,-18.066,-20.996,-26.367,0.000
1714027782.546,-17.578,-21.973,-28.809,-19.531,0.000
1714027782.550,-21.973,-24.414,-34.668,-19.531,0.000
1714027782.554,-19.043,-20.508,-34.668,-23.438,0.000
1714027782.558,-21.973,-26.855,-28.320,-20.996,0.000
1714027782.562,-28.320,-33.203,-23.926,-29.297,0.000
1714027782.566,-32.227,-34.180,-27.832,-30.762,0.000
1714027782.570,-30.762,-29.785,-34.180,-30.762,0.000
1714027782.574,-30.273,-29.785,-27.832,-20.020,0.000
1714027782.578,-29.297,-32.227,-23.926,-15.625,0.000
1714027782.581,-29.297,-33.203,-33.203,-25.391,0.000
1714027782.585,-30.273,-39.551,-32.715,-27.344,0.000
1714027782.589,-26.367,-39.062,-28.809,-24.902,0.000
1714027782.593,-25.879,-32.715,-36.133,-23.438,0.000
1714027782.597,-23.438,-27.832,-34.180,-20.996,0.000
1714027782.601,-20.996,-23.438,-27.344,-20.996,0.000
1714027782.605,-27.344,-29.297,-23.438,-29.785,0.000
1714027782.609,-25.879,-26.855,-21.973,-29.785,0.000
1714027782.613,-20.996,-18.555,-22.461,-19.531,0.000
1714027782.616,-19.531,-24.902,-22.949,-15.625,0.000
1714027782.620,-26.855,-29.785,-23.926,-25.879,0.000
1714027782.624,-33.691,-31.250,-24.414,-36.621,0.000
1714027782.628,-29.297,-30.762,-25.391,-37.109,0.000
1714027782.632,-26.367,-27.832,-31.250,-26.367,0.000
1714027782.636,-25.391,-24.902,-26.367,-17.578,0.000
1714027782.640,-23.926,-27.344,-24.414,-20.020,0.000
1714027782.644,-26.855,-28.320,-34.668,-29.785,0.000
1714027782.648,-29.297,-30.762,-41.016,-31.250,0.000
1714027782.652,-33.203,-32.715,-39.551,-30.762,0.000
1714027782.656,-37.598,-28.320,-34.668,-39.062,0.000
1714027782.660,-37.109,-28.320,-37.109,-38.086,0.000
1714027782.664,-28.809,-30.762,-34.180,-24.902,0.000
1714027782.667,-28.809,-32.715,-29.297,-30.273,0.000
1714027782.671,-33.203,-32.715,-31.738,-37.598,0.000
1714027782.675,-37.109,-30.273,-26.367,-34.180,0.000
1714027782.679,-41.016,-28.809,-24.902,-32.715,0.000
1714027782.683,-37.109,-27.344,-29.785,-33.203,0.000
1714027782.687,-35.645,-26.855,-33.203,-34.180,0.000
1714027782.691,-39.551,-32.715,-32.227,-31.250,0.000
1714027782.695,-34.180,-34.180,-23.438,-26.367,0.000
1714027782.699,-30.273,-24.414,-25.391,-24.902,0.000
1714027782.703,-31.738,-23.926,-36.621,-31.738,0.000
1714027782.707,-28.320,-24.414,-33.203,-33.203,0.000
1714027782.711,-26.367,-19.531,-24.902,-24.902,0.000
1714027782.714,-25.879,-20.996,-25.391,-27.344,0.000
1714027782.718,-26.855,-29.297,-26.367,-33.691,0.000
1714027782.722,-29.297,-29.785,-40.039,-32.715,0.000
1714027782.726,-27.344,-25.391,-41.504,-26.367,0.000
1714027782.730,-25.391,-30.273,-29.785,-21.484,0.000
1714027782.734,-32.715,-37.109,-30.273,-30.273,0.000
1714027782.738,-30.762,-34.180,-32.227,-28.809,0.000
1714027782.742,-28.809,-29.785,-32.715,-25.879,0.000
1714027782.746,-31.250,-31.250,-27.832,-32.227,0.000
1714027782.750,-29.297,-30.762,-28.809,-33.203,0.000
1714027782.754,-27.832,-34.180,-35.645,-38.574,0.000
1714027782.757,-32.227,-40.039,-31.738,-40.039,0.000
1714027782.761,-33.203,-38.574,-32.227,-36.133,0.000
1714027782.765,-28.809,-30.762,-31.738,-41.992,0.000
1714027782.769,-28.320,-22.461,-29.785,-40.039,0.000
1714027782.773,-30.762,-24.414,-29.297,-37.598,0.000
1714027782.777,-28.809,-24.902,-24.902,-24.414,0.000
1714027782.781,-27.832,-23.438,-27.832,-21.484,0.000
1714027782.785,-21.973,-25.879,-33.691,-32.715,0.000
1714027782.789,-23.926,-24.414,-31.250,-37.109,0.000
1714027782.793,-29.297,-21.973,-37.109,-32.715,0.000
1714027782.797,-27.344,-24.902,-44.434,-26.367,0.000
1714027782.800,-24.902,-21.973,-37.598,-31.250,0.000
1714027782.804,-24.414,-21.484,-35.156,-35.156,0.000
1714027782.808,-26.855,-24.414,-38.574,-33.203,0.000
1714027782.812,-17.090,-18.555,-35.156,-20.020,0.000
1714027782.816,-1.953,-19.043,-29.297,-8.301,0.000
1714027782.820,-14.160,-26.367,-23.926,-15.625,0.000
1714027782.824,-39.062,-33.203,-20.020,-24.902,0.000
1714027782.828,-43.945,-34.668,-17.578,-27.832,0.000
1714027782.832,-40.527,-32.715,-20.020,-25.391,0.000
1714027782.836,-37.109,-31.738,-20.996,-26.855,0.000
1714027782.839,-35.645,-32.227,-20.020,-26.855,0.000
1714027782.843,-33.203,-31.738,-20.996,-17.090,0.000
1714027782.847,-22.949,-24.902,-21.484,-15.625,0.000
1714027782.851,-18.555,-26.855,-30.273,-24.414,0.000
1714027782.855,-25.879,-30.273,-33.203,-28.320,0.000
1714027782.859,-28.320,-23.926,-28.809,-15.625,0.000
1714027782.863,-27.344,-20.996,-26.367,-11.719,0.000
1714027782.867,-21.973,-24.414,-21.484,-19.043,0.000
1714027782.870,-18.555,-22.461,-23.438,-20.020,0.000
1714027782.874,-18.555,-21.973,-26.367,-20.508,0.000
1714027782.878,-16.602,-20.508,-25.391,-18.555,0.000
1714027782.882,-20.508,-21.484,-30.273,-26.367,0.000
1714027782.886,-21.973,-27.344,-30.762,-28.809,0.000
1714027782.890,-27.344,-30.762,-32.715,-20.996,0.000
1714027782.894,-28.809,-28.320,-33.203,-27.832,0.000
1714027782.898,-24.414,-29.297,-29.785,-33.203,0.000
1714027782.902,-29.297,-31.738,-33.203,-41.016,0.000
1714027782.906,-34.668,-29.297,-31.738,-42.480,0.000
1714027782.909,-25.391,-22.461,-26.367,-35.156,0.000
1714027782.913,-19.043,-17.090,-18.066,-29.297,0.000
1714027782.917,-19.531,-19.043,-20.020,-27.832,0.000
1714027782.921,-24.414,-24.902,-27.344,-30.762,0.000
1714027782.925,-33.203,-29.297,-25.879,-28.809,0.000
1714027782.929,-27.832,-23.926,-28.320,-21.484,0.000
1714027782.933,-25.879,-25.391,-28.809,-23.926,0.000
1714027782.937,-31.250,-27.832,-24.414,-32.715,0.000
1714027782.941,-30.273,-27.832,-24.902,-29.785,0.000
1714027782.944,-31.250,-33.691,-27.344,-27.344,0.000
1714027782.948,-32.227,-32.227,-26.367,-25.391,0.000
1714027782.952,-33.203,-32.227,-24.902,-31.250,0.000
1714027782.956,-33.691,-37.598,-23.438,-30.273,0.000
1714027782.960,-35.156,-38.574,-21.973,-19.043,0.000
1714027782.964,-40.527,-41.016,-25.879,-30.762,0.000
1714027782.968,-37.598,-38.574,-20.020,-36.621,0.000
1714027782.972,-33.691,-33.691,-16.113,-26.855,0.000
1714027782.976,-31.738,-29.297,-26.855,-19.531,0.000
1714027782.980,-26.855,-29.297,-25.879,-14.648,0.000
1714027782.984,-21.484,-30.273,-21.484,-17.090,0.000
1714027782.988,-24.902,-33.691,-23.926,-17.578,0.000
1714027782.992,-33.203,-35.156,-31.250,-13.672,0.000
1714027782.996,-31.250,-29.297,-29.785,-17.090,0.000
1714027782.999,-24.902,-23.438,-20.020,-18.066,0.000
1714027783.004,-31.250,-23.926,-26.367,-23.926,0.000
1714027783.008,-33.691,-30.762,-35.156,-26.367,0.000
1714027783.011,-33.203,-28.320,-33.203,-25.879,0.000
1714027783.015,-36.133,-25.391,-30.762,-25.879,0.000
1714027783.019,-33.691,-25.391,-30.762,-23.438,0.000
1714027783.023,-37.109,-24.414,-28.809,-23.926,0.000
1714027783.027,-37.109,-21.484,-25.879,-21.973,0.000
1714027783.031,-33.691,-20.996,-27.832,-25.879,0.000
1714027783.035,-24.414,-24.902,-32.227,-24.414,0.000
1714027783.039,-12.695,-25.879,-31.250,-6.836,0.000
1714027783.043,-13.184,-24.414,-22.461,-4.395,0.000
1714027783.047,-30.762,-28.809,-13.672,-15.137,0.000
1714027783.051,-46.875,-30.762,-17.578,-24.414,0.000
1714027783.055,-45.898,-31.738,-20.020,-24.414,0.000
1714027783.058,-40.527,-40.527,-17.090,-15.625,0.000
1714027783.062,-38.574,-32.715,-15.625,-19.043,0.000
1714027783.066,-38.574,-30.762,-22.461,-28.320,0.000
1714027783.070,-35.645,-37.109,-28.809,-25.879,0.000
1714027783.074,-29.785,-31.738,-26.367,-21.484,0.000
1714027783.078,-23.438,-26.855,-26.367,-20.020,0.000
1714027783.082,-21.973,-24.414,-26.855,-18.066,0.000
1714027783.086,-26.855,-24.902,-25.391,-19.531,0.000
1714027783.090,-28.809,-27.832,-24.414,-24.414,0.000
1714027783.094,-23.438,-31.250,-18.555,-23.926,0.000
1714027783.098,-24.414,-32.715,-15.625,-28.809,0.000
1714027783.102,-27.832,-33.691,-29.297,-35.156,0.000
1714027783.105,-25.391,-35.645,-34.668,-36.133,0.000
1714027783.109,-28.320,-36.133,-32.227,-37.598,0.000
1714027783.113,-30.273,-33.203,-29.297,-31.738,0.000
1714027783.117,-31.250,-25.879,-27.344,-29.785,0.000
1714027783.121,-28.320,-20.020,-23.438,-26.367,0.000
1714027783.125,-23.438,-17.090,-19.043,-19.043,0.000
1714027783.129,-20.996,-16.113,-24.414,-12.695,0.000
1714027783.133,-26.367,-17.090,-26.855,-22.949,0.000
1714027783.137,-30.762,-21.484,-31.738,-30.273,0.000
1714027783.141,-28.320,-24.902,-35.645,-27.344,0.000
1714027783.144,-27.344,-19.531,-31.738,-31.738,0.000
1714027783.148,-28.320,-20.020,-30.273,-32.227,0.000
1714027783.152,-31.250,-25.391,-35.156,-31.738,0.000
1714027783.156,-32.227,-28.809,-37.598,-24.414,0.000
1714027783.160,-28.809,-35.156,-29.785,-15.137,0.000
1714027783.164,-32.227,-38.086,-31.738,-19.043,0.000
1714027783.168,-38.086,-34.180,-34.180,-23.438,0.000
1714027783.172,-34.180,-32.227,-28.320,-19.043,0.000
1714027783.176,-32.227,-33.203,-25.879,-14.648,0.000
1714027783.180,-35.156,-28.809,-27.832,-18.555,0.000
1714027783.184,-29.785,-23.926,-27.832,-15.137,0.000
1714027783.187,-25.879,-26.855,-23.926,-7.812,0.000
1714027783.191,-22.949,-25.879,-19.531,-10.742,0.000
1714027783.195,-21.484,-23.926,-20.996,-18.066,0.000
1714027783.199,-24.414,-24.902,-30.762,-20.996,0.000
1714027783.203,-21.973,-28.320,-36.133,-16.602,0.000
1714027783.207,-23.438,-28.320,-32.227,-12.207,0.000
1714027783.211,-24.902,-27.832,-30.762,-15.137,0.000
1714027783.215,-19.531,-28.809,-28.320,-14.648,0.000
1714027783.219,-12.695,-32.227,-27.832,-15.137,0.000
1714027783.223,-12.695,-30.273,-29.297,-28.320,0.000
1714027783.226,-15.137,-29.785,-29.297,-32.227,0.000
1714027783.230,-12.695,-30.762,-31.738,-35.645,0.000
1714027783.234,-12.695,-29.297,-29.785,-34.180,0.000
1714027783.238,-18.555,-25.879,-24.902,-26.855,0.000
1714027783.242,-22.461,-23.438,-21.484,-22.949,0.000
1714027783.246,-24.902,-27.832,-23.438,-20.996,0.000
1714027783.250,-26.855,-26.855,-22.949,-20.508,0.000
1714027783.254,-35.156,-25.879,-17.578,-22.949,0.000
1714027783.258,-34.180,-27.344,-16.602,-20.996,0.000
1714027783.261,-34.668,-30.273,-28.320,-22.949,0.000
1714027783.265,-34.668,-28.809,-32.715,-28.320,0.000
1714027783.269,-28.809,-21.973,-27.832,-26.855,0.000
1714027783.273,-32.227,-21.973,-27.344,-22.949,0.000
1714027783.277,-31.250,-28.320,-28.320,-20.508,0.000
1714027783.281,-32.715,-33.203,-30.762,-30.762,0.000
1714027783.285,-42.969,-33.691,-31.738,-46.387,0.000
1714027783.289,-41.504,-31.250,-32.227,-45.898,0.000
1714027783.292,-35.156,-25.879,-26.367,-38.574,0.000
1714027783.296,-34.668,-26.367,-20.508,-29.785,0.000
1714027783.300,-32.715,-28.809,-26.855,-29.785,0.000
1714027783.304,-31.738,-31.738,-38.574,-32.715,0.000
1714027783.308,-36.133,-34.668,-45.410,-26.367,0.000
1714027783.312,-39.551,-31.250,-40.527,-28.809,0.000
1714027783.316,-37.598,-27.344,-32.715,-28.809,0.000
1714027783.320,-35.645,-26.855,-33.203,-29.785,0.000
1714027783.324,-31.738,-23.438,-38.086,-30.273,0.000
1714027783.328,-24.902,-20.996,-34.180,-24.414,0.000
1714027783.332,-26.367,-25.391,-29.297,-30.273,0.000
1714027783.336,-29.297,-31.738,-35.156,-36.621,0.000
1714027783.340,-31.250,-31.738,-36.133,-28.809,0.000
1714027783.343,-32.715,-28.320,-28.320,-29.785,0.000
1714027783.347,-33.691,-26.855,-25.391,-38.086,0.000
1714027783.351,-33.203,-29.297,-30.762,-38.086,0.000
1714027783.355,-34.668,-33.691,-31.738,-32.227,0.000
1714027783.359,-29.297,-28.320,-28.320,-23.926,0.000
1714027783.363,-21.484,-21.484,-25.879,-18.066,0.000
1714027783.367,-22.949,-27.344,-23.926,-10.254,0.000
1714027783.371,-20.996,-25.391,-17.578,-12.207,0.000
1714027783.375,-17.090,-17.578,-18.555,-16.113,0.000
1714027783.379,-17.578,-19.043,-21.484,-11.719,0.000
1714027783.383,-14.160,-18.066,-20.996,-14.160,0.000
1714027783.387,-11.230,-19.531,-19.043,-11.719,0.000
1714027783.391,-14.648,-21.484,-22.949,-10.254,0.000
1714027783.394,-23.926,-25.879,-27.832,-16.602,0.000
1714027783.398,-27.344,-24.902,-27.832,-24.414,0.000
1714027783.402,-21.973,-19.531,-22.949,-30.762,0.000
1714027783.406,-15.137,-17.578,-24.414,-29.785,0.000
1714027783.410,-12.207,-17.578,-22.949,-23.926,0.000
1714027783.414,-19.043,-21.484,-22.949,-16.113,0.000
1714027783.418,-23.926,-22.461,-26.855,-23.926,0.000
1714027783.422,-24.902,-25.391,-30.762,-34.668,0.000
1714027783.426,-27.832,-23.926,-30.762,-31.250,0.000
1714027783.430,-26.855,-22.949,-26.367,-27.344,0.000
1714027783.434,-27.832,-22.949,-20.996,-27.344,0.000
1714027783.438,-28.809,-20.996,-27.344,-32.227,0.000
1714027783.441,-28.320,-24.414,-36.133,-32.715,0.000
1714027783.445,-20.996,-22.461,-34.180,-24.414,0.000
1714027783.449,-15.137,-24.414,-31.738,-22.461,0.000
1714027783.453,-17.090,-27.344,-35.156,-21.973,0.000
1714027783.457,-22.461,-27.344,-39.062,-17.578,0.000
1714027783.461,-24.414,-27.832,-32.227,-23.438,0.000
1714027783.465,-22.949,-23.926,-25.391,-31.250,0.000
1714027783.469,-26.855,-20.020,-31.738,-33.691,0.000
1714027783.473,-24.414,-21.973,-34.668,-26.855,0.000
1714027783.477,-20.996,-20.020,-28.320,-24.902,0.000
1714027783.481,-20.508,-18.066,-22.461,-24.902,0.000
1714027783.484,-18.066,-21.973,-21.973,-18.555,0.000
1714027783.488,-18.555,-20.020,-22.461,-20.508,0.000
1714027783.492,-22.461,-20.508,-19.531,-17.578,0.000
1714027783.496,-27.832,-17.090,-21.973,-19.531,0.000
1714027783.500,-24.902,-13.672,-28.809,-24.902,0.000
1714027783.504,-23.926,-19.531,-33.691,-22.949,0.000
1714027783.508,-28.809,-18.555,-28.809,-27.832,0.000
1714027783.512,-23.438,-13.184,-24.902,-26.367,0.000
1714027783.516,-22.949,-12.695,-26.367,-22.949,0.000
1714027783.520,-23.438,-7.812,-23.926,-25.879,0.000
1714027783.523,-20.508,-8.301,-21.484,-30.762,0.000
1714027783.527,-19.531,-8.789,-29.297,-27.344,0.000
1714027783.531,-19.531,-1.953,-38.086,-25.391,0.000
1714027783.535,-22.461,-7.324,-24.414,-25.879,0.000
1714027783.539,-30.273,-11.719,-25.391,-30.273,0.000
1714027783.543,-37.598,-10.254,-29.785,-38.086,0.000
1714027783.547,-23.926,-15.625,-29.297,-20.020,0.000
1714027783.551,-31.738,-21.973,-30.762,-25.879,0.000
1714027783.555,-53.223,-20.996,-20.508,-48.340,0.000
1714027783.559,-60.059,-13.184,-10.742,-48.828,0.000
1714027783.563,-71.289,-13.184,-18.066,-57.129,0.000
1714027783.566,-82.520,-20.996,-17.578,-79.590,0.000
1714027783.570,-98.145,-24.902,-13.672,-97.656,0.000
1714027783.574,-108.398,-26.367,-14.160,-104.004,0.000
1714027783.578,-121.094,-29.785,-8.301,-113.281,0.000
1714027783.582,-135.254,-35.645,-2.441,-128.906,0.000
1714027783.586,-140.137,-39.062,-5.859,-132.324,0.000
1714027783.590,-141.113,-40.527,-5.859,-129.883,0.000
1714027783.594,-139.648,-41.992,3.418,-124.023,0.000
1714027783.598,-145.508,-47.852,13.672,-132.324,0.000
1714027783.601,-147.461,-50.781,17.578,-132.324,0.000
1714027783.605,-135.742,-51.758,8.789,-113.770,0.000
1714027783.609,-125.488,-54.688,9.277,-104.980,0.000
1714027783.613,-130.859,-55.664,19.043,-102.539,0.000
1714027783.617,-130.371,-59.082,19.531,-95.215,0.000
1714027783.621,-112.305,-57.617,11.230,-75.684,0.000
1714027783.625,-94.238,-55.176,15.625,-62.500,0.000
1714027783.629,-87.891,-50.293,13.672,-68.359,0.000
1714027783.632,-81.543,-44.434,0.488,-70.801,0.000
1714027783.636,-72.754,-46.875,-9.277,-55.176,0.000
1714027783.640,-71.289,-50.781,-14.648,-48.828,0.000
1714027783.644,-60.059,-42.969,-16.602,-47.852,0.000
1714027783.648,-47.363,-37.598,-10.742,-37.598,0.000
1714027783.652,-47.363,-40.039,-4.395,-38.086,0.000
1714027783.656,-46.875,-42.480,-13.184,-41.992,0.000
1714027783.660,-40.527,-42.480,-23.438,-30.273,0.000
1714027783.663,-35.156,-41.016,-20.996,-20.508,0.000
1714027783.667,-36.621,-36.621,-13.672,-27.344,0.000
1714027783.671,-30.762,-25.391,-14.160,-19.043,0.000
1714027783.675,-29.297,-24.902,-15.137,-18.555,0.000
1714027783.679,-25.391,-22.949,-22.461,-20.020,0.000
1714027783.683,-24.414,-26.367,-28.320,-22.949,0.000
1714027783.687,-40.527,-34.180,-18.555,-36.133,0.000
1714027783.691,-49.316,-41.504,-21.973,-41.016,0.000
1714027783.695,-51.758,-32.715,-15.625,-46.387,0.000
1714027783.699,-49.805,-19.043,-3.906,-39.062,0.000
1714027783.703,-68.848,-33.691,-15.137,-54.199,0.000
1714027783.706,-97.168,-38.574,-20.020,-83.008,0.000
1714027783.710,-111.816,-38.086,-11.719,-92.773,0.000
1714027783.714,-116.699,-34.668,-6.348,-102.539,0.000
1714027783.718,-108.398,-29.297,-5.371,-105.469,0.000
1714027783.722,-115.723,-27.832,-4.395,-107.422,0.000
1714027783.726,-134.277,-27.832,-10.742,-115.723,0.000
1714027783.730,-139.648,-33.203,-12.207,-126.465,0.000
1714027783.733,-128.906,-34.180,-3.418,-112.305,0.000
1714027783.737,-124.023,-31.250,6.836,-106.445,0.000
1714027783.741,-120.605,-29.785,14.648,-101.074,0.000
1714027783.745,-103.516,-28.320,10.742,-83.496,0.000
1714027783.749,-92.773,-33.203,2.441,-89.844,0.000
1714027783.753,-94.238,-36.133,1.953,-89.844,0.000
1714027783.757,-78.125,-33.691,-1.465,-56.641,0.000
1714027783.761,-59.570,-28.809,-2.930,-47.852,0.000
1714027783.765,-62.500,-28.809,-7.812,-67.383,0.000
1714027783.769,-61.523,-31.250,-16.113,-60.547,0.000
1714027783.773,-41.504,-33.691,-16.602,-40.039,0.000
1714027783.777,-29.785,-33.691,-16.113,-29.297,0.000
1714027783.781,-36.133,-39.062,-21.484,-33.691,0.000
1714027783.784,-26.855,-45.410,-33.203,-22.461,0.000
1714027783.788,-15.625,-41.016,-41.016,-0.488,0.000
1714027783.792,-17.090,-34.668,-42.480,-0.488,0.000
1714027783.796,-16.113,-33.203,-33.203,-7.812,0.000
1714027783.800,-12.207,-39.062,-35.156,-15.625,0.000
1714027783.804,-12.207,-40.039,-43.457,-12.695,0.000
1714027783.808,-3.906,-35.645,-41.504,1.953,0.000
1714027783.812,10.254,-38.086,-43.945,5.371,0.000
1714027783.816,11.230,-36.133,-47.852,5.859,0.000
1714027783.820,16.602,-34.180,-47.363,18.555,0.000
1714027783.824,22.949,-36.133,-47.852,23.438,0.000
1714027783.828,23.926,-33.203,-54.199,24.414,0.000
1714027783.832,24.902,-34.668,-52.734,33.691,0.000
1714027783.835,30.762,-38.086,-47.363,30.762,0.000
1714027783.839,35.156,-31.738,-43.457,28.320,0.000
1714027783.843,39.062,-29.297,-43.457,37.598,0.000
1714027783.847,39.551,-28.809,-47.852,36.621,0.000
1714027783.851,36.133,-28.320,-52.734,31.738,0.000
1714027783.855,37.109,-30.273,-52.734,30.762,0.000
1714027783.859,39.062,-25.879,-51.270,26.367,0.000
1714027783.863,38.574,-27.344,-53.711,23.438,0.000
1714027783.867,32.715,-27.344,-56.641,25.879,0.000
1714027783.871,29.785,-24.902,-55.176,27.344,0.000
1714027783.875,26.367,-29.785,-52.246,30.273,0.000
1714027783.878,23.438,-33.203,-59.570,37.109,0.000
1714027783.882,27.832,-28.809,-50.781,34.180,0.000
1714027783.886,26.367,-28.320,-43.457,23.438,0.000
1714027783.890,20.508,-34.180,-45.410,18.555,0.000
1714027783.894,19.531,-30.273,-44.434,22.461,0.000
1714027783.898,23.926,-27.832,-47.363,30.273,0.000
1714027783.902,17.090,-33.203,-51.758,20.508,0.000
1714027783.906,12.207,-32.715,-51.270,11.230,0.000
1714027783.910,15.625,-31.738,-53.711,16.602,0.000
1714027783.914,18.555,-28.809,-50.781,21.973,0.000
1714027783.917,17.578,-26.855,-42.480,24.414,0.000
1714027783.921,14.648,-27.832,-45.898,26.367,0.000
1714027783.925,12.695,-23.926,-45.898,31.250,0.000
1714027783.929,12.207,-21.973,-40.527,20.508,0.000
1714027783.933,16.113,-22.461,-40.039,15.625,0.000
1714027783.937,19.043,-21.484,-40.527,22.949,0.000
1714027783.941,10.742,-19.531,-41.992,24.414,0.000
1714027783.945,11.719,-16.113,-41.504,30.273,0.000
1714027783.949,20.020,-15.625,-36.621,26.367,0.000
1714027783.953,14.160,-16.602,-35.645,23.438,0.000
1714027783.956,12.695,-21.973,-33.203,31.738,0.000
1714027783.960,14.160,-26.367,-31.250,30.273,0.000
1714027783.964,9.766,-23.926,-34.180,16.602,0.000
1714027783.968,0.488,-24.414,-38.086,13.672,0.000
1714027783.972,-0.977,-23.438,-39.551,8.301,0.000
1714027783.976,7.324,-23.438,-36.133,5.371,0.000
1714027783.980,9.277,-21.484,-36.621,14.648,0.000
1714027783.984,9.277,-20.020,-36.133,18.555,0.000
1714027783.988,8.301,-20.508,-35.645,16.113,0.000
1714027783.992,8.301,-20.020,-38.086,11.230,0.000
1714027783.996,0.977,-27.832,-36.621,5.859,0.000
1714027784.000,-2.441,-28.320,-33.691,3.906,0.000
1714027784.004,0.000,-22.949,-36.621,3.906,0.000
1714027784.008,-3.906,-15.625,-36.621,1.953,0.000
1714027784.012,-4.395,-11.230,-31.738,8.789,0.000
1714027784.016,-9.766,-17.578,-31.250,3.906,0.000
1714027784.019,-5.371,-20.508,-29.297,-5.371,0.000
1714027784.023,-3.418,-20.020,-32.227,-3.906,0.000
1714027784.027,-16.113,-21.484,-37.598,-11.719,0.000
1714027784.031,-16.602,-25.391,-36.133,-19.531,0.000
1714027784.035,-17.090,-30.762,-35.645,-12.695,0.000
1714027784.039,-14.648,-25.391,-35.156,-5.859,0.000
1714027784.043,-9.277,-19.531,-38.574,-4.883,0.000
1714027784.046,-11.230,-20.996,-34.668,-5.371,0.000
1714027784.050,-10.742,-20.020,-28.320,-3.418,0.000
1714027784.054,-12.695,-20.996,-31.738,-4.395,0.000
1714027784.058,-18.555,-26.855,-34.180,-7.324,0.000
1714027784.062,-13.672,-23.438,-30.273,-4.883,0.000
1714027784.066,-8.301,-20.508,-31.250,-12.695,0.000
1714027784.070,-4.395,-18.066,-39.062,-15.625,0.000
1714027784.074,-5.371,-17.578,-38.574,-1.465,0.000
1714027784.078,-15.137,-21.484,-37.598,-7.324,0.000
1714027784.081,-18.066,-23.438,-40.039,-14.648,0.000
1714027784.085,-18.555,-27.832,-37.598,-17.090,0.000
1714027784.089,-18.066,-25.879,-28.809,-14.160,0.000
1714027784.093,-16.602,-21.484,-24.414,-8.789,0.000
1714027784.097,-20.996,-25.879,-26.855,-16.602,0.000
1714027784.101,-11.230,-23.926,-19.531,-15.137,0.000
1714027784.105,-2.930,-15.625,-19.531,-22.461,0.000
1714027784.109,-13.184,-16.602,-20.020,-37.598,0.000
1714027784.113,-11.230,-20.996,-11.230,-36.621,0.000
1714027784.116,-16.602,-29.297,-27.344,-41.016,0.000
1714027784.120,-36.621,-25.879,-23.438,-52.246,0.000
1714027784.124,-59.082,-25.879,-11.230,-56.152,0.000
1714027784.128,-82.031,-35.156,-8.789,-65.918,0.000
1714027784.132,-98.633,-30.762,-6.348,-86.426,0.000
1714027784.136,-115.234,-29.297,-5.371,-110.840,0.000
1714027784.140,-124.512,-31.738,2.930,-120.117,0.000
1714027784.144,-122.070,-25.879,11.719,-116.699,0.000
1714027784.148,-128.906,-22.461,10.254,-126.465,0.000
1714027784.152,-143.066,-20.020,9.766,-142.578,0.000
1714027784.156,-141.602,-15.137,10.742,-139.648,0.000
1714027784.160,-126.953,-18.555,6.348,-118.652,0.000
1714027784.164,-119.141,-27.832,7.324,-111.328,0.000
1714027784.167,-108.887,-25.391,6.836,-108.398,0.000
1714027784.171,-92.285,-12.207,-11.719,-101.074,0.000
1714027784.175,-91.797,-15.625,-28.809,-103.027,0.000
1714027784.179,-79.102,-16.113,-33.691,-93.750,0.000
1714027784.183,-56.152,-11.230,-32.227,-73.730,0.000
1714027784.187,-59.570,-17.090,-35.645,-78.613,0.000
1714027784.191,-54.688,-20.508,-38.086,-65.430,0.000
1714027784.195,-37.598,-19.531,-41.016,-41.504,0.000
1714027784.199,-36.133,-25.391,-46.875,-47.363,0.000
1714027784.203,-33.203,-25.391,-45.410,-48.340,0.000
1714027784.207,-23.926,-18.066,-38.086,-24.902,0.000
1714027784.211,-19.531,-21.484,-40.527,-11.719,0.000
1714027784.214,-16.602,-23.926,-46.387,-25.391,0.000
1714027784.218,-12.207,-22.461,-49.316,-28.320,0.000
1714027784.222,-7.324,-18.555,-47.852,-24.414,0.000
1714027784.226,-2.441,-12.207,-41.992,-18.555,0.000
1714027784.230,-1.465,-14.648,-35.156,-11.719,0.000
1714027784.234,3.418,-17.578,-32.715,-11.230,0.000
1714027784.238,3.418,-20.020,-32.227,-9.277,0.000
1714027784.242,-4.395,-20.020,-30.762,-7.812,0.000
1714027784.246,-9.277,-17.578,-26.855,-16.602,0.000
1714027784.250,-17.090,-11.719,-29.785,-34.180,0.000
1714027784.254,-31.250,-19.531,-30.273,-46.875,0.000
1714027784.257,-38.574,-13.184,-23.926,-54.199,0.000
1714027784.261,-42.480,-6.348,-19.043,-54.688,0.000
1714027784.265,-74.219,-17.090,-14.648,-74.707,0.000
1714027784.269,-91.309,-17.090,-8.301,-92.773,0.000
1714027784.273,-92.285,-13.672,0.488,-96.191,0.000
1714027784.277,-96.680,-15.625,-0.977,-95.703,0.000
1714027784.281,-96.191,-16.113,-4.395,-94.238,0.000
1714027784.285,-102.051,-13.672,-5.371,-112.305,0.000
1714027784.289,-101.074,-11.230,-4.395,-114.746,0.000
1714027784.293,-97.656,-7.324,-0.488,-101.562,0.000
1714027784.297,-100.098,-10.254,-9.277,-101.074,0.000
1714027784.300,-88.867,-14.648,-10.742,-87.891,0.000
1714027784.304,-78.613,-17.090,-5.859,-83.008,0.000
1714027784.308,-67.871,-19.043,-13.672,-70.801,0.000
1714027784.312,-48.340,-21.973,-13.184,-52.734,0.000
1714027784.316,-37.598,-20.020,-8.789,-55.176,0.000
1714027784.320,-31.738,-22.949,-11.230,-47.852,0.000
1714027784.324,-20.508,-24.414,-18.555,-27.344,0.000
1714027784.328,-19.043,-23.438,-22.949,-21.973,0.000
1714027784.332,-14.648,-25.391,-25.879,-19.531,0.000
1714027784.335,-2.441,-23.926,-27.832,-6.836,0.000
1714027784.339,1.953,-25.391,-30.762,-3.418,0.000
1714027784.343,7.812,-27.344,-33.203,4.395,0.000
1714027784.347,9.277,-26.855,-32.715,1.465,0.000
1714027784.351,12.695,-26.367,-41.016,2.930,0.000
1714027784.355,16.602,-29.297,-49.805,11.719,0.000
1714027784.359,13.672,-32.715,-51.758,4.395,0.000
1714027784.363,20.020,-31.250,-50.293,11.230,0.000
1714027784.367,28.809,-27.832,-43.457,24.902,0.000
1714027784.371,29.297,-25.879,-42.480,22.949,0.000
1714027784.374,28.320,-30.762,-47.852,26.367,0.000
1714027784.378,32.715,-30.273,-46.875,35.156,0.000
1714027784.382,34.668,-29.297,-44.922,34.180,0.000
1714027784.386,37.109,-31.738,-47.363,33.691,0.000
1714027784.390,34.180,-30.273,-47.363,32.715,0.000
1714027784.394,28.809,-30.273,-46.387,34.668,0.000
1714027784.398,28.809,-32.227,-51.270,32.715,0.000
1714027784.402,26.855,-30.762,-54.199,32.715,0.000
1714027784.406,21.973,-26.855,-50.293,31.738,0.000
1714027784.409,23.438,-29.785,-51.270,33.691,0.000
1714027784.413,27.832,-27.344,-49.805,37.598,0.000
1714027784.417,24.902,-27.832,-46.875,32.715,0.000
1714027784.421,22.461,-32.227,-48.340,24.902,0.000
1714027784.425,20.020,-28.809,-48.340,27.832,0.000
1714027784.429,22.461,-26.855,-50.293,38.574,0.000
1714027784.433,23.926,-25.879,-47.363,34.668,0.000
1714027784.437,21.973,-26.855,-38.574,28.809,0.000
1714027784.441,14.648,-30.762,-43.945,25.879,0.000
1714027784.444,10.254,-27.344,-49.805,20.508,0.000
1714027784.448,13.184,-28.320,-51.270,22.461,0.000
1714027784.452,11.719,-32.227,-49.805,17.578,0.000
1714027784.456,6.348,-34.180,-43.945,17.578,0.000
1714027784.460,6.836,-33.203,-46.387,16.602,0.000
1714027784.464,14.160,-23.438,-40.039,13.184,0.000
1714027784.468,15.137,-19.531,-37.109,10.742,0.000
1714027784.472,12.695,-22.949,-40.039,16.602,0.000
1714027784.476,13.184,-23.926,-41.992,24.414,0.000
1714027784.480,8.301,-25.391,-40.527,20.996,0.000
1714027784.484,4.883,-25.879,-34.668,11.719,0.000
1714027784.488,10.254,-24.902,-34.668,7.812,0.000
1714027784.492,13.672,-22.461,-37.598,13.672,0.000
1714027784.496,5.371,-23.438,-35.156,2.441,0.000
1714027784.499,0.977,-25.391,-31.250,-2.441,0.000
1714027784.504,0.000,-23.438,-31.250,2.930,0.000
1714027784.507,0.488,-22.461,-31.738,1.953,0.000
1714027784.511,4.395,-25.879,-27.344,7.324,0.000
1714027784.515,6.348,-24.902,-27.344,4.883,0.000
1714027784.519,3.906,-23.926,-35.156,-2.930,0.000
1714027784.523,0.488,-31.250,-35.645,-4.883,0.000
1714027784.527,0.000,-30.762,-28.809,-5.371,0.000
1714027784.531,-3.418,-28.320,-26.855,0.977,0.000
1714027784.535,-9.766,-36.133,-31.738,-2.441,0.000
1714027784.539,-8.789,-36.621,-34.668,2.441,0.000
1714027784.543,-2.930,-27.344,-32.715,12.695,0.000
1714027784.547,-2.441,-26.855,-32.227,5.371,0.000
1714027784.551,-9.277,-28.809,-31.738,-3.906,0.000
1714027784.555,-11.230,-28.320,-26.855,-2.441,0.000
1714027784.558,-7.812,-22.461,-27.832,-4.883,0.000
1714027784.562,-8.301,-21.484,-32.715,-17.090,0.000
1714027784.566,-4.883,-26.367,-38.574,-12.695,0.000
1714027784.570,-4.883,-24.414,-34.668,-7.324,0.000
1714027784.574,-15.625,-24.902,-32.715,-13.672,0.000
1714027784.578,-20.508,-23.926,-33.691,-20.996,0.000
1714027784.582,-11.719,-24.414,-33.203,-19.043,0.000
1714027784.586,-10.742,-29.785,-35.156,-16.113,0.000
1714027784.590,-15.625,-23.926,-30.762,-20.020,0.000
1714027784.594,-11.719,-21.973,-26.367,-12.695,0.000
1714027784.598,-9.766,-27.832,-28.809,-9.277,0.000
1714027784.601,-12.207,-29.297,-32.715,-17.578,0.000
1714027784.605,-15.137,-23.926,-29.297,-16.113,0.000
1714027784.609,-12.207,-19.043,-23.438,-7.324,0.000
1714027784.613,-8.301,-22.949,-25.879,-5.859,0.000
1714027784.617,-6.348,-23.438,-30.762,-6.836,0.000
1714027784.621,-9.766,-25.879,-31.250,-7.324,0.000
1714027784.625,-15.625,-29.297,-28.809,0.977,0.000
1714027784.629,-16.602,-28.320,-25.879,6.348,0.000
1714027784.633,-8.301,-26.367,-23.438,-7.324,0.000
1714027784.637,-7.324,-27.344,-26.367,-22.461,0.000
1714027784.640,-16.113,-31.250,-29.297,-22.461,0.000
1714027784.644,-17.578,-25.879,-31.738,-15.137,0.000
1714027784.648,-11.230,-23.926,-29.785,-15.137,0.000
1714027784.652,-10.254,-27.832,-31.250,-20.996,0.000
1714027784.656,-14.648,-31.250,-34.180,-25.391,0.000
1714027784.660,-15.625,-27.344,-30.273,-20.996,0.000
1714027784.664,-13.184,-27.832,-30.273,-15.137,0.000
1714027784.668,-11.230,-29.297,-31.738,-21.484,0.000
1714027784.672,-11.230,-29.297,-26.367,-20.996,0.000
1714027784.676,-16.602,-34.668,-19.531,-11.719,0.000
1714027784.680,-13.672,-28.320,-17.090,-9.766,0.000
1714027784.683,-12.695,-26.367,-18.555,-15.137,0.000
1714027784.687,-20.508,-34.668,-20.996,-15.625,0.000
1714027784.691,-25.391,-35.156,-19.043,-12.695,0.000
1714027784.695,-27.344,-34.180,-24.902,-15.625,0.000
1714027784.699,-23.926,-33.691,-32.227,-13.184,0.000
1714027784.703,-21.973,-30.273,-30.273,-13.672,0.000
1714027784.707,-22.461,-28.320,-26.855,-15.625,0.000
1714027784.711,-24.414,-33.691,-26.367,-13.672,0.000
1714027784.715,-17.578,-34.668,-27.344,-13.184,0.000
1714027784.718,-15.625,-30.273,-32.227,-14.160,0.000
1714027784.722,-20.020,-25.391,-27.832,-14.648,0.000
1714027784.726,-15.625,-24.902,-23.438,-7.324,0.000
1714027784.730,-15.137,-27.832,-32.715,-11.719,0.000
1714027784.734,-17.090,-34.180,-39.062,-22.949,0.000
1714027784.738,-21.973,-33.691,-35.645,-25.879,0.000
1714027784.742,-24.902,-30.762,-40.527,-24.414,0.000
1714027784.746,-20.508,-30.762,-39.062,-19.043,0.000
1714027784.750,-13.672,-26.855,-29.297,-16.602,0.000
1714027784.753,-19.531,-25.391,-25.391,-27.832,0.000
1714027784.757,-22.949,-27.344,-27.832,-22.461,0.000
1714027784.761,-18.066,-30.762,-36.133,-9.766,0.000
1714027784.765,-18.555,-31.738,-41.504,-26.367,0.000
1714027784.769,-16.602,-31.738,-38.574,-36.133,0.000
1714027784.773,-15.137,-27.344,-35.156,-26.855,0.000
1714027784.777,-17.090,-27.832,-42.969,-15.625,0.000
1714027784.781,-9.277,-31.250,-37.109,-11.719,0.000
1714027784.784,-9.277,-29.785,-26.855,-17.090,0.000
1714027784.788,-17.090,-25.391,-31.738,-19.043,0.000
1714027784.792,-14.648,-23.926,-31.250,-12.695,0.000
1714027784.796,-14.648,-28.809,-29.785,-16.113,0.000
1714027784.800,-12.695,-25.391,-32.227,-23.926,0.000
1714027784.804,-12.207,-25.879,-39.062,-22.461,0.000
1714027784.808,-18.066,-30.273,-42.969,-18.555,0.000
1714027784.812,-18.555,-23.926,-40.527,-27.832,0.000
1714027784.816,-13.184,-23.438,-40.039,-26.855,0.000
1714027784.820,-11.230,-26.855,-31.250,-13.184,0.000
1714027784.824,-12.207,-18.555,-23.438,-11.719,0.000
1714027784.827,-16.602,-18.555,-22.461,-15.625,0.000
1714027784.831,-17.090,-20.508,-29.297,-21.484,0.000
1714027784.835,-17.090,-17.578,-39.551,-30.762,0.000
1714027784.839,-20.508,-17.090,-40.527,-25.879,0.000
1714027784.843,-16.602,-16.113,-37.598,-21.973,0.000
1714027784.847,-14.160,-16.602,-37.598,-28.809,0.000
1714027784.851,-20.508,-18.555,-36.621,-34.668,0.000
1714027784.854,-30.762,-22.461,-41.016,-35.156,0.000
1714027784.858,-32.715,-23.926,-39.062,-28.320,0.000
1714027784.862,-23.926,-17.578,-33.691,-20.020,0.000
1714027784.866,-22.461,-18.555,-35.156,-29.297,0.000
1714027784.870,-24.414,-20.508,-35.156,-31.250,0.000
1714027784.874,-24.902,-20.996,-33.691,-22.461,0.000
1714027784.878,-29.297,-26.855,-36.133,-22.949,0.000
1714027784.882,-28.320,-26.855,-35.645,-26.367,0.000
1714027784.886,-28.320,-21.484,-34.180,-28.809,0.000
1714027784.890,-33.691,-18.066,-28.809,-29.297,0.000
1714027784.894,-33.203,-20.020,-22.461,-25.391,0.000
1714027784.898,-35.156,-20.996,-24.902,-29.785,0.000
1714027784.902,-43.457,-17.578,-24.902,-39.062,0.000
1714027784.906,-52.734,-16.602,-31.250,-46.875,0.000
1714027784.909,-55.664,-17.578,-29.297,-46.387,0.000
1714027784.913,-62.012,-20.020,-19.043,-51.270,0.000
1714027784.917,-62.012,-15.137,-10.742,-59.082,0.000
1714027784.921,-72.266,-19.043,-10.742,-69.824,0.000
1714027784.925,-84.961,-22.949,-20.020,-82.520,0.000
1714027784.929,-80.078,-19.043,-20.996,-85.449,0.000
1714027784.933,-92.285,-18.555,-14.160,-98.633,0.000
1714027784.937,-107.910,-19.043,-12.695,-102.539,0.000
1714027784.941,-107.422,-18.066,-11.719,-99.609,0.000
1714027784.945,-107.422,-18.555,-6.836,-107.422,0.000
1714027784.949,-110.840,-20.996,-3.418,-119.629,0.000
1714027784.953,-107.910,-18.555,-1.953,-120.605,0.000
1714027784.956,-92.773,-18.066,-6.348,-103.027,0.000
1714027784.960,-81.543,-19.531,-2.441,-96.680,0.000
1714027784.964,-75.195,-17.578,2.441,-96.680,0.000
1714027784.968,-69.336,-21.484,-5.371,-86.914,0.000
1714027784.972,-76.172,-26.367,-8.301,-87.402,0.000
1714027784.976,-79.102,-26.855,-10.254,-86.426,0.000
1714027784.980,-75.684,-26.855,-11.719,-72.266,0.000
1714027784.984,-76.660,-32.227,-17.578,-65.918,0.000
1714027784.988,-77.148,-31.250,-21.484,-67.871,0.000
1714027784.992,-71.777,-26.855,-22.949,-67.871,0.000
1714027784.996,-65.918,-26.855,-25.879,-68.359,0.000
1714027784.999,-63.477,-29.297,-26.855,-64.941,0.000
1714027785.003,-52.246,-25.879,-24.902,-47.852,0.000
1714027785.007,-53.223,-26.855,-22.461,-48.340,0.000
1714027785.011,-60.547,-33.691,-19.043,-51.758,0.000
1714027785.015,-54.688,-38.086,-28.320,-43.945,0.000
1714027785.019,-58.594,-42.969,-35.156,-57.129,0.000
1714027785.023,-69.336,-39.062,-27.832,-70.801,0.000
1714027785.027,-70.801,-32.227,-14.648,-62.500,0.000
1714027785.031,-82.031,-39.551,-15.137,-69.336,0.000
1714027785.035,-92.285,-43.457,-15.625,-85.938,0.000
1714027785.039,-88.379,-35.156,-10.254,-81.055,0.000
1714027785.042,-100.098,-35.156,-10.742,-97.168,0.000
1714027785.046,-108.398,-40.527,-8.789,-101.074,0.000
1714027785.050,-106.934,-41.504,-6.836,-88.867,0.000
1714027785.054,-104.980,-39.062,-5.371,-95.215,0.000
1714027785.058,-100.586,-38.574,-4.395,-95.703,0.000
1714027785.062,-104.980,-40.039,-5.859,-95.703,0.000
1714027785.066,-110.840,-39.551,-10.254,-103.516,0.000
1714027785.070,-95.703,-34.180,-8.789,-94.238,0.000
1714027785.074,-83.984,-29.785,-8.789,-85.449,0.000
1714027785.078,-84.473,-33.691,-7.812,-83.008,0.000
1714027785.081,-82.520,-36.133,-6.836,-79.590,0.000
1714027785.085,-77.637,-37.598,-10.254,-74.707,0.000
1714027785.089,-69.336,-40.527,-14.648,-63.965,0.000
1714027785.093,-61.035,-42.969,-17.578,-54.688,0.000
1714027785.097,-50.781,-41.992,-18.066,-44.922,0.000
1714027785.101,-39.062,-38.574,-21.973,-32.715,0.000
1714027785.105,-32.715,-35.156,-21.973,-32.227,0.000
1714027785.109,-31.250,-38.086,-20.020,-26.367,0.000
1714027785.113,-25.879,-39.551,-22.949,-14.648,0.000
1714027785.116,-13.672,-34.180,-28.809,-9.277,0.000
1714027785.120,-4.883,-33.691,-34.180,-14.648,0.000
1714027785.124,0.977,-39.062,-36.621,-13.672,0.000
1714027785.128,4.883,-38.574,-40.527,-15.625,0.000
1714027785.132,1.465,-34.668,-45.410,-11.719,0.000
1714027785.136,1.953,-34.180,-46.387,2.441,0.000
1714027785.140,8.789,-33.203,-45.410,16.113,0.000
1714027785.144,7.812,-30.273,-47.852,11.719,0.000
1714027785.148,13.184,-30.762,-48.828,7.812,0.000
1714027785.152,28.320,-31.250,-49.805,22.461,0.000
1714027785.155,25.879,-31.738,-56.152,17.578,0.000
1714027785.159,22.949,-33.691,-58.594,10.742,0.000
1714027785.163,24.414,-34.180,-58.594,15.625,0.000
1714027785.167,22.949,-31.738,-59.570,14.160,0.000
1714027785.171,25.879,-32.715,-60.547,20.508,0.000
1714027785.175,31.250,-33.691,-66.895,22.949,0.000
1714027785.179,34.668,-30.273,-62.500,24.414,0.000
1714027785.183,35.156,-29.785,-54.199,34.668,0.000
1714027785.187,28.809,-29.785,-50.781,26.855,0.000
1714027785.190,22.949,-32.227,-58.594,17.578,0.000
1714027785.194,28.809,-32.227,-66.895,29.785,0.000
1714027785.198,33.691,-28.320,-67.871,32.715,0.000
1714027785.202,31.738,-24.902,-64.453,22.949,0.000
1714027785.206,33.203,-25.391,-62.012,30.273,0.000
1714027785.210,38.086,-23.926,-60.059,40.039,0.000
1714027785.214,34.668,-25.879,-60.059,29.785,0.000
1714027785.217,35.645,-27.832,-61.035,23.438,0.000
1714027785.221,39.062,-23.438,-59.570,29.297,0.000
1714027785.225,29.785,-25.391,-58.594,28.809,0.000
1714027785.229,24.414,-25.391,-57.129,23.438,0.000
1714027785.233,27.344,-20.508,-56.152,24.414,0.000
1714027785.237,30.273,-20.020,-54.688,30.762,0.000
1714027785.241,35.156,-19.531,-52.246,38.086,0.000
1714027785.245,35.645,-19.043,-50.781,38.574,0.000
1714027785.249,28.320,-16.602,-48.340,34.180,0.000
1714027785.253,24.902,-16.113,-44.434,32.715,0.000
1714027785.257,29.297,-20.996,-44.922,33.203,0.000
1714027785.261,24.414,-24.414,-46.875,29.785,0.000
1714027785.265,12.695,-22.949,-52.246,17.578,0.000
1714027785.269,5.371,-26.367,-51.758,13.672,0.000
1714027785.272,0.488,-31.738,-47.852,17.578,0.000
1714027785.276,1.953,-29.785,-41.504,12.695,0.000
1714027785.280,1.465,-28.809,-32.227,9.766,0.000
1714027785.284,2.930,-24.902,-38.086,13.184,0.000
1714027785.288,3.418,-22.949,-39.551,14.160,0.000
1714027785.292,0.000,-27.832,-37.109,9.766,0.000
1714027785.296,1.953,-26.855,-40.039,13.672,0.000
1714027785.300,6.348,-25.391,-41.504,12.207,0.000
1714027785.304,8.301,-21.973,-39.062,12.695,0.000
1714027785.308,5.371,-17.578,-35.645,11.719,0.000
1714027785.312,-0.977,-21.484,-37.598,12.207,0.000
1714027785.316,0.488,-27.344,-39.551,14.648,0.000
1714027785.319,2.930,-27.344,-35.645,7.812,0.000
1714027785.323,-4.395,-31.250,-33.203,3.906,0.000
1714027785.327,-4.883,-29.785,-35.156,1.465,0.000
1714027785.331,-1.953,-24.414,-35.156,8.789,0.000
1714027785.335,-2.930,-20.508,-34.180,14.648,0.000
1714027785.339,-4.883,-21.484,-38.086,9.277,0.000
1714027785.343,-8.789,-27.832,-41.504,2.441,0.000
1714027785.347,-5.371,-28.809,-41.504,-3.418,0.000
1714027785.351,-12.207,-32.715,-41.504,-13.184,0.000
1714027785.355,-18.066,-33.203,-40.039,-17.090,0.000
1714027785.359,-10.742,-23.926,-40.527,-8.301,0.000
1714027785.362,-3.906,-23.926,-41.016,-5.371,0.000
1714027785.366,-5.371,-29.297,-37.598,-10.742,0.000
1714027785.370,-8.789,-30.273,-38.086,-3.906,0.000
1714027785.374,-12.695,-32.715,-38.086,0.000,0.000
1714027785.378,-14.160,-29.785,-39.062,1.953,0.000
1714027785.382,-13.184,-21.973,-34.180,-7.812,0.000
1714027785.386,-12.695,-20.508,-23.926,-20.508,0.000
1714027785.390,-20.508,-25.879,-24.414,-20.020,0.000
1714027785.394,-20.996,-25.879,-26.855,-14.648,0.000
1714027785.398,-10.254,-22.949,-31.250,-15.137,0.000
1714027785.402,-6.348,-19.531,-31.738,-20.508,0.000
1714027785.405,-14.648,-23.926,-31.738,-20.996,0.000
1714027785.409,-23.926,-25.879,-36.621,-19.531,0.000
1714027785.413,-21.973,-24.414,-41.992,-21.973,0.000
1714027785.417,-16.602,-25.391,-40.039,-21.484,0.000
1714027785.421,-12.695,-25.391,-34.668,-13.672,0.000
1714027785.425,-16.602,-22.949,-34.668,-9.766,0.000
1714027785.429,-18.066,-20.020,-31.738,-23.438,0.000
1714027785.433,-8.789,-19.531,-36.133,-26.367,0.000
1714027785.437,-7.812,-22.461,-36.133,-19.043,0.000
1714027785.441,-15.137,-22.461,-26.367,-18.555,0.000
1714027785.444,-18.555,-26.855,-30.762,-16.602,0.000
1714027785.448,-17.090,-28.809,-34.180,-19.531,0.000
1714027785.452,-16.602,-22.461,-27.344,-27.344,0.000
1714027785.456,-20.508,-25.879,-25.879,-23.438,0.000
1714027785.460,-20.020,-27.344,-27.832,-22.949,0.000
1714027785.464,-21.484,-22.949,-28.809,-24.414,0.000
1714027785.468,-20.508,-21.973,-28.320,-21.973,0.000
1714027785.472,-15.625,-18.066,-25.879,-18.555,0.000
1714027785.476,-17.578,-19.043,-27.344,-14.648,0.000
1714027785.480,-18.555,-20.508,-29.297,-17.090,0.000
1714027785.484,-16.113,-18.066,-27.344,-21.484,0.000
1714027785.487,-18.555,-20.020,-26.367,-23.438,0.000
1714027785.491,-19.531,-20.508,-34.180,-17.090,0.000
1714027785.495,-15.137,-20.020,-32.227,-15.625,0.000
1714027785.499,-14.648,-20.508,-23.438,-21.484,0.000
1714027785.503,-15.137,-17.090,-24.414,-24.902,0.000
1714027785.507,-12.207,-16.602,-30.273,-21.973,0.000
1714027785.511,-14.648,-20.508,-32.715,-12.695,0.000
1714027785.515,-18.555,-20.996,-31.250,-17.578,0.000
1714027785.519,-11.719,-15.625,-26.367,-24.902,0.000
1714027785.522,-9.277,-18.555,-24.902,-20.020,0.000
1714027785.526,-9.766,-20.020,-24.902,-8.789,0.000
1714027785.530,-5.859,-17.090,-19.531,-4.883,0.000
1714027785.534,-7.324,-21.484,-19.043,-12.207,0.000
1714027785.538,-19.043,-29.785,-26.367,-17.090,0.000
1714027785.542,-22.949,-32.715,-29.297,-19.531,0.000
1714027785.546,-20.508,-31.250,-27.832,-23.926,0.000
1714027785.550,-18.555,-30.273,-26.855,-27.832,0.000
1714027785.553,-19.043,-28.809,-29.297,-22.949,0.000
1714027785.557,-22.461,-29.785,-25.879,-19.531,0.000
1714027785.561,-25.879,-34.180,-25.391,-26.855,0.000
1714027785.565,-21.484,-33.203,-29.785,-26.367,0.000
1714027785.569,-16.602,-30.273,-33.203,-21.973,0.000
1714027785.573,-20.996,-33.203,-37.598,-22.461,0.000
1714027785.577,-26.367,-33.203,-37.109,-24.414,0.000
1714027785.581,-24.414,-28.320,-32.227,-24.414,0.000
1714027785.584,-25.879,-30.762,-26.855,-25.391,0.000
1714027785.588,-23.438,-30.273,-23.926,-21.973,0.000
1714027785.592,-20.996,-27.344,-21.973,-27.344,0.000
1714027785.596,-22.461,-27.832,-26.367,-32.227,0.000
1714027785.600,-21.484,-28.320,-37.109,-32.227,0.000
1714027785.604,-20.508,-28.320,-40.527,-36.621,0.000
1714027785.608,-25.879,-27.344,-34.180,-25.879,0.000
1714027785.612,-27.344,-23.438,-33.203,-18.555,0.000
1714027785.616,-28.809,-25.391,-36.133,-29.785,0.000
1714027785.620,-26.367,-25.879,-29.785,-31.738,0.000
1714027785.624,-31.250,-32.227,-26.855,-25.879,0.000
1714027785.628,-41.016,-38.574,-36.621,-29.297,0.000
1714027785.632,-36.133,-34.668,-41.504,-28.320,0.000
1714027785.636,-25.391,-30.762,-35.645,-23.926,0.000
1714027785.639,-22.949,-31.738,-30.762,-25.879,0.000
1714027785.643,-26.855,-29.297,-33.203,-27.344,0.000
1714027785.647,-20.508,-27.832,-35.645,-19.531,0.000
1714027785.651,-19.531,-26.367,-31.738,-21.973,0.000
1714027785.655,-25.879,-26.367,-33.203,-31.738,0.000
1714027785.659,-25.879,-31.250,-41.504,-28.320,0.000
1714027785.663,-28.320,-35.156,-41.992,-26.855,0.000
1714027785.667,-23.926,-30.273,-38.086,-22.949,0.000
1714027785.671,-22.461,-30.273,-37.598,-20.020,0.000
1714027785.675,-21.973,-37.109,-36.621,-18.066,0.000
1714027785.679,-20.508,-36.133,-34.180,-12.695,0.000
1714027785.683,-22.461,-36.621,-34.180,-18.066,0.000
1714027785.686,-20.508,-36.133,-31.738,-20.508,0.000
1714027785.690,-13.184,-33.203,-34.668,-11.230,0.000
1714027785.694,-14.160,-28.320,-39.551,-16.602,0.000
1714027785.698,-20.508,-24.902,-39.551,-23.926,0.000
1714027785.702,-22.949,-27.344,-44.922,-26.855,0.000
1714027785.706,-26.367,-26.367,-44.922,-25.391,0.000
1714027785.710,-26.367,-26.367,-39.062,-21.973,0.000
1714027785.714,-24.414,-29.297,-36.621,-26.367,0.000
1714027785.718,-19.043,-28.809,-32.227,-24.902,0.000
1714027785.722,-15.137,-25.879,-32.715,-29.297,0.000
1714027785.726,-17.090,-32.227,-41.016,-38.086,0.000
1714027785.729,-18.066,-39.062,-44.922,-34.668,0.000
1714027785.733,-7.812,-35.156,-46.387,-38.086,0.000
1714027785.737,0.488,-28.809,-48.828,-35.645,0.000
1714027785.741,-9.277,-29.785,-42.969,-28.809,0.000
1714027785.745,-9.766,-30.273,-32.227,-23.438,0.000
1714027785.749,-4.395,-24.902,-32.715,-23.926,0.000
1714027785.753,-13.672,-27.832,-39.062,-22.949,0.000
1714027785.757,-20.996,-30.273,-39.062,-19.043,0.000
1714027785.761,-20.020,-25.391,-35.645,-23.438,0.000
1714027785.765,-23.438,-30.273,-35.156,-26.855,0.000
1714027785.769,-22.461,-33.691,-34.180,-31.738,0.000
1714027785.772,-22.949,-28.809,-35.645,-27.832,0.000
1714027785.776,-28.320,-24.414,-34.180,-23.438,0.000
1714027785.780,-27.832,-22.461,-32.227,-31.250,0.000
1714027785.784,-25.879,-20.020,-34.180,-32.227,0.000
1714027785.788,-30.273,-31.250,-35.645,-27.344,0.000
1714027785.792,-33.203,-37.598,-37.109,-31.250,0.000
1714027785.796,-27.344,-29.785,-38.086,-22.949,0.000
1714027785.800,-23.438,-24.414,-27.832,-20.508,0.000
1714027785.804,-22.461,-25.879,-22.949,-29.785,0.000
1714027785.808,-22.949,-27.832,-22.949,-20.508,0.000
1714027785.812,-24.414,-26.367,-24.414,-18.555,0.000
1714027785.815,-18.066,-22.949,-34.180,-22.461,0.000
1714027785.819,-19.531,-26.367,-40.039,-24.414,0.000
1714027785.823,-23.926,-33.203,-34.180,-23.438,0.000
1714027785.827,-21.484,-30.762,-34.180,-16.602,0.000
1714027785.831,-20.508,-29.785,-34.180,-19.531,0.000
1714027785.835,-18.555,-30.762,-24.414,-21.973,0.000
1714027785.839,-22.461,-29.785,-30.762,-17.578,0.000
1714027785.843,-28.320,-32.227,-37.598,-19.043,0.000
1714027785.847,-24.902,-29.297,-29.297,-26.367,0.000
1714027785.851,-14.648,-25.879,-32.227,-10.742,0.000
1714027785.854,-4.395,-23.438,-40.039,-9.766,0.000
1714027785.858,-15.137,-18.555,-36.621,-27.344,0.000
1714027785.862,-25.391,-23.438,-31.738,-24.414,0.000
1714027785.866,-25.391,-25.391,-29.297,-21.484,0.000
1714027785.870,-25.879,-22.949,-35.645,-28.809,0.000
1714027785.874,-23.438,-24.902,-36.621,-34.180,0.000
1714027785.878,-20.508,-20.996,-36.133,-27.344,0.000
1714027785.882,-21.484,-20.020,-40.527,-23.438,0.000
1714027785.886,-18.555,-25.391,-43.457,-18.555,0.000
1714027785.889,-23.438,-29.785,-44.922,-14.648,0.000
1714027785.893,-26.367,-29.297,-42.969,-21.484,0.000
1714027785.897,-24.414,-25.391,-41.992,-25.391,0.000
1714027785.901,-20.996,-25.879,-34.668,-19.043,0.000
1714027785.905,-21.484,-24.902,-30.273,-16.602,0.000
1714027785.909,-20.996,-20.996,-37.598,-14.160,0.000
1714027785.913,-19.043,-20.020,-42.969,-12.695,0.000
1714027785.917,-20.508,-20.508,-41.504,-19.531,0.000
1714027785.921,-18.066,-20.020,-33.691,-18.066,0.000
1714027785.924,-17.090,-20.996,-35.156,-22.461,0.000
1714027785.928,-20.996,-25.391,-38.574,-28.320,0.000
1714027785.932,-23.926,-25.879,-37.109,-24.414,0.000
1714027785.936,-24.902,-21.973,-37.598,-25.879,0.000
1714027785.940,-26.855,-22.461,-43.945,-27.344,0.000
1714027785.944,-24.902,-20.020,-43.457,-21.973,0.000
1714027785.948,-22.461,-18.555,-39.062,-22.949,0.000
1714027785.952,-20.508,-19.531,-36.133,-21.484,0.000
1714027785.956,-21.484,-20.020,-33.203,-15.137,0.000
1714027785.960,-19.531,-18.555,-34.668,-21.484,0.000
1714027785.964,-12.695,-18.066,-28.320,-20.996,0.000
1714027785.968,-9.766,-17.578,-24.902,-21.484,0.000
1714027785.972,-19.531,-19.531,-35.645,-25.391,0.000
1714027785.976,-20.996,-21.973,-37.598,-19.043,0.000
1714027785.979,-19.531,-23.438,-33.203,-21.484,0.000
1714027785.983,-19.043,-29.297,-33.203,-22.461,0.000
1714027785.987,-16.113,-28.320,-31.738,-16.113,0.000
1714027785.991,-13.672,-20.020,-30.273,-9.277,0.000
1714027785.995,-19.531,-19.531,-32.715,-10.254,0.000
1714027785.999,-19.531,-21.973,-33.691,-16.113,0.000
1714027786.003,-20.020,-21.973,-33.691,-20.508,0.000
1714027786.007,-28.809,-25.391,-39.551,-23.926,0.000
1714027786.011,-29.297,-26.855,-36.133,-23.926,0.000
1714027786.015,-25.879,-25.879,-34.180,-26.855,0.000
1714027786.019,-25.391,-24.902,-36.621,-32.227,0.000
1714027786.023,-22.949,-27.832,-34.180,-30.273,0.000
1714027786.027,-28.809,-27.832,-33.203,-25.391,0.000
1714027786.030,-26.367,-22.949,-32.227,-22.461,0.000
1714027786.034,-16.113,-21.484,-34.668,-17.578,0.000
1714027786.038,-24.902,-23.926,-37.109,-13.672,0.000
1714027786.042,-28.809,-25.879,-39.551,-12.207,0.000
1714027786.046,-21.973,-24.414,-36.621,-20.508,0.000
1714027786.050,-24.414,-23.926,-33.203,-21.973,0.000
1714027786.054,-26.855,-22.949,-36.621,-17.090,0.000
1714027786.058,-23.926,-22.949,-35.156,-17.090,0.000
1714027786.062,-22.949,-24.414,-30.273,-19.043,0.000
1714027786.066,-20.508,-25.391,-25.879,-15.137,0.000
1714027786.070,-24.414,-25.391,-23.926,-15.625,0.000
1714027786.074,-31.250,-23.926,-25.879,-21.484,0.000
1714027786.077,-30.762,-26.367,-25.879,-20.996,0.000
1714027786.081,-28.320,-28.320,-27.344,-20.020,0.000
1714027786.085,-31.738,-31.250,-28.320,-22.949,0.000
1714027786.089,-32.227,-29.785,-29.785,-22.461,0.000
1714027786.093,-26.855,-23.438,-33.203,-17.578,0.000
1714027786.097,-29.297,-23.438,-31.738,-14.160,0.000
1714027786.101,-31.250,-23.438,-24.902,-22.949,0.000
1714027786.105,-31.250,-24.902,-29.297,-26.855,0.000
1714027786.109,-30.762,-23.926,-34.668,-24.414,0.000
1714027786.113,-28.320,-21.973,-30.273,-30.273,0.000
1714027786.117,-35.645,-31.738,-37.109,-32.227,0.000
1714027786.121,-40.039,-36.621,-42.969,-33.203,0.000
1714027786.124,-36.133,-27.832,-35.645,-32.715,0.000
1714027786.128,-39.062,-26.855,-28.320,-28.809,0.000
1714027786.132,-37.109,-26.855,-29.297,-28.809,0.000
1714027786.136,-32.227,-31.250,-31.250,-29.785,0.000
1714027786.140,-41.016,-39.551,-27.832,-25.879,0.000
1714027786.144,-41.992,-41.504,-26.855,-24.902,0.000
1714027786.148,-33.691,-35.156,-31.738,-21.484,0.000
1714027786.152,-34.668,-32.715,-35.156,-18.555,0.000
1714027786.156,-37.109,-33.691,-38.574,-21.484,0.000
1714027786.160,-33.691,-33.691,-38.086,-19.531,0.000
1714027786.164,-27.832,-31.250,-31.250,-20.508,0.000
1714027786.167,-29.297,-26.367,-30.762,-30.273,0.000
1714027786.171,-30.273,-27.344,-38.086,-25.879,0.000
1714027786.175,-28.809,-30.762,-38.086,-22.949,0.000
1714027786.179,-30.273,-28.320,-34.668,-23.926,0.000
1714027786.183,-27.832,-23.438,-33.691,-19.043,0.000
1714027786.187,-29.785,-26.855,-37.109,-26.367,0.000
1714027786.191,-34.668,-30.762,-37.109,-29.297,0.000
1714027786.195,-35.645,-26.855,-30.273,-23.438,0.000
1714027786.199,-34.668,-23.926,-33.691,-25.879,0.000
1714027786.203,-32.715,-23.926,-34.668,-30.762,0.000
1714027786.206,-32.715,-23.438,-31.738,-30.273,0.000
1714027786.210,-36.133,-25.879,-36.621,-31.738,0.000
1714027786.214,-33.691,-28.809,-32.715,-33.203,0.000
1714027786.218,-30.273,-31.250,-33.203,-24.414,0.000
1714027786.222,-34.180,-28.809,-32.715,-23.926,0.000
1714027786.226,-32.715,-25.391,-30.762,-23.926,0.000
1714027786.230,-31.250,-25.879,-29.785,-26.855,0.000
1714027786.234,-30.762,-26.367,-28.320,-28.320,0.000
1714027786.237,-29.297,-31.250,-33.203,-24.902,0.000
1714027786.241,-30.762,-33.203,-32.227,-22.461,0.000
1714027786.245,-32.227,-29.297,-27.344,-20.996,0.000
1714027786.249,-34.668,-27.344,-27.832,-23.926,0.000
1714027786.253,-36.621,-27.832,-30.762,-24.902,0.000
1714027786.257,-39.062,-29.297,-32.715,-26.855,0.000
1714027786.261,-40.039,-31.250,-32.715,-19.531,0.000
1714027786.265,-34.180,-29.785,-35.156,-19.043,0.000
1714027786.269,-32.227,-25.879,-36.621,-32.227,0.000
1714027786.273,-31.738,-26.367,-38.574,-26.855,0.000
1714027786.277,-27.344,-28.809,-37.109,-16.602,0.000
1714027786.280,-23.438,-34.180,-34.668,-18.066,0.000
1714027786.284,-21.484,-29.785,-30.762,-22.949,0.000
1714027786.288,-23.438,-23.438,-34.180,-23.926,0.000
1714027786.292,-27.344,-23.438,-37.109,-20.020,0.000
1714027786.296,-27.832,-21.484,-25.391,-24.414,0.000
1714027786.300,-27.832,-18.555,-31.738,-34.180,0.000
1714027786.304,-25.391,-20.996,-41.504,-29.297,0.000
1714027786.308,-28.320,-30.762,-42.480,-17.090,0.000
1714027786.312,-32.715,-29.785,-37.109,-24.414,0.000
1714027786.315,-31.738,-24.414,-31.738,-31.738,0.000
1714027786.319,-33.203,-24.414,-34.668,-28.320,0.000
1714027786.323,-35.156,-26.855,-36.133,-35.645,0.000
1714027786.327,-33.203,-24.414,-36.621,-38.086,0.000
1714027786.331,-27.832,-20.996,-36.621,-27.832,0.000
1714027786.335,-26.855,-27.344,-40.039,-34.180,0.000
1714027786.339,-28.809,-30.273,-46.875,-34.180,0.000
1714027786.342,-24.414,-29.785,-45.898,-28.809,0.000
1714027786.346,-26.855,-31.738,-43.457,-38.574,0.000
1714027786.350,-25.879,-31.738,-47.363,-42.969,0.000
1714027786.354,-21.484,-28.809,-46.387,-34.180,0.000
1714027786.358,-19.043,-21.484,-36.621,-31.738,0.000
1714027786.362,-19.531,-19.531,-31.738,-28.320,0.000
1714027786.366,-21.973,-22.949,-33.203,-25.879,0.000
1714027786.370,-23.438,-23.926,-36.133,-25.879,0.000
1714027786.374,-32.227,-29.297,-41.016,-27.832,0.000
1714027786.378,-31.738,-27.344,-41.504,-23.926,0.000
1714027786.382,-26.367,-24.902,-36.133,-25.879,0.000
1714027786.386,-30.762,-27.832,-31.250,-26.367,0.000
1714027786.390,-32.227,-31.738,-33.691,-22.461,0.000
1714027786.393,-32.227,-34.180,-39.551,-23.926,0.000
1714027786.397,-34.668,-30.273,-40.039,-24.414,0.000
1714027786.401,-31.738,-33.203,-39.062,-27.832,0.000
1714027786.405,-34.180,-37.109,-37.598,-35.645,0.000
1714027786.409,-37.598,-34.668,-31.250,-34.668,0.000
1714027786.413,-32.227,-29.785,-26.855,-29.785,0.000
1714027786.417,-31.738,-27.832,-33.691,-35.156,0.000
1714027786.421,-37.598,-30.762,-38.086,-37.598,0.000
1714027786.425,-34.668,-27.344,-37.109,-30.762,0.000
1714027786.429,-34.180,-27.344,-33.203,-30.273,0.000
1714027786.433,-39.062,-32.715,-35.156,-32.715,0.000
1714027786.437,-32.715,-33.691,-37.109,-25.391,0.000
1714027786.441,-25.879,-30.762,-31.738,-22.461,0.000
1714027786.444,-28.320,-32.715,-27.344,-24.414,0.000
1714027786.448,-23.926,-28.809,-26.855,-20.508,0.000
1714027786.452,-26.367,-26.367,-29.785,-22.461,0.000
1714027786.456,-31.738,-29.785,-28.320,-20.508,0.000
1714027786.460,-25.879,-26.367,-20.508,-8.301,0.000
1714027786.464,-23.438,-24.414,-18.555,-14.648,0.000
1714027786.468,-24.414,-25.879,-27.344,-30.273,0.000
1714027786.472,-26.367,-29.297,-29.785,-33.203,0.000
1714027786.476,-21.484,-26.855,-30.762,-28.809,0.000
1714027786.480,-15.137,-20.996,-30.273,-28.809,0.000
1714027786.484,-8.789,-21.973,-28.320,-32.227,0.000
1714027786.487,-7.324,-24.414,-29.785,-31.738,0.000
1714027786.491,-16.113,-20.996,-24.414,-29.297,0.000
1714027786.495,-18.555,-20.508,-24.902,-27.344,0.000
1714027786.499,-18.066,-24.414,-33.203,-25.879,0.000
1714027786.503,-23.438,-28.320,-34.180,-20.996,0.000
1714027786.507,-20.020,-25.391,-24.902,-15.625,0.000
1714027786.511,-18.555,-23.438,-21.973,-12.695,0.000
1714027786.515,-23.438,-28.809,-25.879,-15.625,0.000
1714027786.519,-24.414,-28.320,-21.484,-13.672,0.000
1714027786.523,-22.461,-22.949,-19.043,-12.695,0.000
1714027786.527,-23.438,-21.484,-26.367,-14.160,0.000
1714027786.530,-22.949,-24.902,-25.879,-18.066,0.000
1714027786.534,-23.926,-27.344,-23.438,-22.461,0.000
1714027786.538,-25.391,-28.320,-29.785,-20.996,0.000
1714027786.542,-26.367,-28.320,-27.344,-20.020,0.000
1714027786.546,-25.391,-30.273,-23.438,-15.625,0.000
1714027786.550,-29.297,-32.227,-29.297,-20.508,0.000
1714027786.554,-33.691,-33.691,-29.785,-23.438,0.000
1714027786.558,-30.762,-33.691,-24.902,-15.137,0.000
1714027786.562,-24.902,-33.203,-27.344,-13.184,0.000
1714027786.566,-21.973,-35.645,-29.785,-16.602,0.000
1714027786.569,-23.438,-31.738,-31.250,-20.508,0.000
1714027786.573,-14.160,-28.809,-33.203,-13.184,0.000
1714027786.577,-4.883,-30.273,-31.738,2.441,0.000
1714027786.581,-20.996,-28.320,-26.367,-11.230,0.000
1714027786.585,-37.598,-34.180,-26.855,-29.297,0.000
1714027786.589,-34.668,-41.016,-31.738,-18.555,0.000
1714027786.593,-35.645,-38.574,-33.203,-14.648,0.000
1714027786.597,-40.039,-32.227,-31.738,-25.879,0.000
1714027786.601,-31.738,-25.391,-28.809,-29.785,0.000
1714027786.605,-31.738,-24.902,-31.250,-30.762,0.000
1714027786.609,-28.809,-27.344,-31.738,-24.902,0.000
1714027786.612,-22.461,-25.879,-34.668,-24.902,0.000
1714027786.616,-31.250,-24.414,-37.598,-30.762,0.000
1714027786.620,-32.227,-25.391,-39.551,-28.320,0.000
1714027786.624,-28.809,-21.973,-39.551,-23.438,0.000
1714027786.628,-33.203,-22.461,-39.062,-23.438,0.000
1714027786.632,-33.203,-25.879,-40.527,-21.973,0.000
1714027786.636,-34.180,-22.461,-46.875,-20.508,0.000
1714027786.640,-38.086,-22.949,-45.898,-28.809,0.000
1714027786.644,-36.133,-23.438,-39.551,-32.227,0.000
1714027786.647,-29.785,-25.391,-32.227,-24.902,0.000
1714027786.651,-30.273,-27.344,-34.180,-30.762,0.000
1714027786.655,-31.738,-30.273,-38.086,-31.250,0.000
1714027786.659,-27.832,-23.926,-32.227,-19.043,0.000
1714027786.663,-24.902,-23.438,-33.691,-13.672,0.000
1714027786.667,-20.508,-25.879,-42.969,-17.578,0.000
1714027786.671,-24.902,-27.344,-42.480,-20.508,0.000
1714027786.675,-25.391,-24.414,-32.715,-13.184,0.000
1714027786.679,-18.555,-20.508,-36.133,-14.648,0.000
1714027786.682,-15.625,-23.926,-43.945,-20.996,0.000
1714027786.686,-20.020,-25.391,-41.504,-23.438,0.000
1714027786.690,-25.391,-32.227,-47.852,-30.273,0.000
1714027786.694,-31.250,-33.691,-46.875,-36.621,0.000
1714027786.698,-30.762,-27.832,-41.016,-37.598,0.000
1714027786.702,-24.414,-27.344,-39.551,-30.762,0.000
1714027786.706,-20.996,-31.738,-36.133,-21.973,0.000
1714027786.710,-19.531,-31.738,-30.762,-18.066,0.000
1714027786.713,-21.484,-27.832,-25.391,-18.066,0.000
1714027786.717,-25.879,-27.832,-28.809,-20.020,0.000
1714027786.721,-28.809,-29.785,-36.133,-28.320,0.000
1714027786.725,-29.297,-33.691,-37.598,-24.414,0.000
1714027786.729,-28.320,-34.180,-33.203,-21.484,0.000
1714027786.733,-26.367,-31.250,-32.227,-26.367,0.000
1714027786.737,-28.809,-30.762,-36.133,-21.973,0.000
1714027786.741,-23.438,-31.738,-36.621,-15.625,0.000
1714027786.745,-19.043,-34.668,-35.645,-18.555,0.000
1714027786.749,-20.020,-28.809,-38.086,-28.320,0.000
1714027786.753,-22.461,-24.902,-41.016,-29.297,0.000
1714027786.757,-27.344,-27.832,-44.434,-27.832,0.000
1714027786.761,-30.273,-27.344,-44.922,-30.762,0.000
1714027786.764,-29.785,-29.785,-39.551,-31.250,0.000
1714027786.768,-31.738,-28.809,-38.086,-25.391,0.000
1714027786.772,-34.668,-26.855,-43.945,-14.160,0.000
1714027786.776,-28.809,-23.926,-45.898,-18.066,0.000
1714027786.780,-28.320,-22.949,-45.898,-27.832,0.000
1714027786.784,-33.691,-31.250,-53.223,-28.809,0.000
1714027786.788,-44.434,-34.668,-52.246,-32.227,0.000
1714027786.792,-49.805,-31.738,-46.387,-37.598,0.000
1714027786.796,-38.086,-32.227,-42.969,-29.297,0.000
1714027786.800,-35.645,-31.738,-39.551,-23.438,0.000
1714027786.804,-39.062,-27.344,-37.109,-24.902,0.000
1714027786.808,-36.133,-24.902,-27.344,-18.066,0.000
1714027786.811,-36.621,-24.902,-32.715,-20.020,0.000
1714027786.815,-34.180,-27.344,-37.598,-23.438,0.000
1714027786.819,-31.250,-25.879,-31.250,-17.090,0.000
1714027786.823,-30.762,-25.391,-31.738,-14.160,0.000
1714027786.827,-25.391,-23.438,-28.320,-8.301,0.000
1714027786.831,-19.531,-20.020,-31.250,3.418,0.000
1714027786.835,-18.555,-27.344,-27.832,1.953,0.000
1714027786.839,-24.902,-34.668,-19.043,-17.578,0.000
1714027786.843,-29.297,-32.227,-19.043,-23.926,0.000
1714027786.847,-28.320,-30.273,-26.367,-23.438,0.000
1714027786.851,-26.855,-27.832,-30.762,-23.926,0.000
1714027786.855,-24.414,-24.902,-25.391,-16.113,0.000
1714027786.858,-23.926,-20.508,-27.344,-15.137,0.000
1714027786.862,-26.855,-20.508,-33.691,-22.461,0.000
1714027786.866,-23.926,-23.438,-31.738,-22.461,0.000
1714027786.870,-19.043,-17.578,-28.320,-20.508,0.000
1714027786.874,-23.438,-19.531,-30.273,-22.461,0.000
1714027786.878,-21.484,-23.438,-32.715,-14.648,0.000
1714027786.882,-11.719,-16.602,-30.273,-13.672,0.000
1714027786.886,-13.672,-18.066,-31.250,-19.043,0.000
1714027786.890,-22.949,-16.113,-29.785,-18.066,0.000
1714027786.894,-23.926,-10.742,-28.809,-16.113,0.000
1714027786.898,-24.414,-14.160,-34.180,-23.438,0.000
1714027786.901,-32.227,-20.020,-34.180,-33.203,0.000
1714027786.905,-30.273,-24.414,-30.762,-30.273,0.000
1714027786.909,-26.367,-20.508,-28.809,-26.367,0.000
1714027786.913,-27.832,-19.043,-32.715,-29.297,0.000
1714027786.917,-33.203,-24.414,-40.039,-39.062,0.000
1714027786.921,-33.691,-20.508,-39.062,-33.203,0.000
1714027786.925,-21.973,-14.160,-30.762,-20.508,0.000
1714027786.929,-18.555,-19.043,-29.785,-30.762,0.000
1714027786.933,-23.438,-19.043,-34.668,-33.691,0.000
1714027786.937,-23.926,-19.043,-30.762,-25.391,0.000
1714027786.940,-24.414,-20.996,-29.297,-29.297,0.000
1714027786.944,-22.949,-19.531,-34.180,-28.320,0.000
1714027786.948,-19.531,-18.555,-33.203,-22.461,0.000
1714027786.952,-28.809,-28.320,-31.738,-31.738,0.000
1714027786.956,-39.062,-28.320,-34.668,-32.227,0.000
1714027786.960,-37.598,-22.949,-35.156,-30.273,0.000
1714027786.964,-32.227,-26.855,-31.738,-36.133,0.000
1714027786.968,-28.320,-25.879,-28.320,-26.367,0.000
1714027786.972,-33.203,-25.391,-31.250,-29.785,0.000
1714027786.976,-31.250,-28.320,-36.621,-39.062,0.000
1714027786.980,-24.902,-26.855,-35.156,-33.691,0.000
1714027786.983,-25.391,-20.020,-33.691,-31.250,0.000
1714027786.987,-22.949,-16.602,-31.250,-26.855,0.000
1714027786.991,-21.973,-19.531,-30.762,-26.855,0.000
1714027786.995,-29.297,-24.414,-32.715,-38.086,0.000
1714027786.999,-34.668,-32.227,-32.715,-42.480,0.000
1714027787.003,-26.367,-28.320,-30.762,-32.715,0.000
1714027787.007,-27.344,-25.879,-38.574,-29.297,0.000
1714027787.011,-35.156,-32.227,-38.086,-32.227,0.000
1714027787.015,-35.156,-30.273,-30.273,-28.809,0.000
1714027787.018,-33.203,-28.320,-34.668,-28.809,0.000
1714027787.022,-34.668,-32.227,-29.785,-32.715,0.000
1714027787.026,-44.434,-30.762,-24.902,-39.062,0.000
1714027787.030,-44.434,-21.484,-27.832,-40.039,0.000
1714027787.034,-39.551,-14.648,-26.367,-49.316,0.000
1714027787.038,-47.852,-22.461,-26.855,-61.523,0.000
1714027787.042,-54.688,-27.832,-25.391,-61.523,0.000
1714027787.046,-52.734,-20.020,-21.484,-58.105,0.000
1714027787.050,-53.223,-17.090,-20.020,-61.035,0.000
1714027787.053,-62.500,-20.996,-21.484,-67.383,0.000
1714027787.057,-64.941,-17.578,-13.184,-59.570,0.000
1714027787.061,-63.965,-9.277,2.441,-60.059,0.000
1714027787.065,-66.406,-7.324,-6.836,-71.777,0.000
1714027787.069,-79.102,-15.137,-19.043,-81.543,0.000
1714027787.073,-87.402,-22.461,-19.531,-83.984,0.000
1714027787.077,-80.566,-18.066,-17.578,-83.008,0.000
1714027787.080,-75.195,-10.254,-17.578,-85.449,0.000
1714027787.084,-81.543,-8.301,-18.555,-97.168,0.000
1714027787.088,-90.332,-8.301,-21.973,-96.191,0.000
1714027787.092,-104.004,-8.301,-22.949,-99.609,0.000
1714027787.096,-109.863,-5.371,-19.043,-104.980,0.000
1714027787.100,-103.027,-5.371,-22.461,-93.262,0.000
1714027787.104,-103.027,-9.277,-18.555,-92.285,0.000
1714027787.108,-109.863,-14.160,-12.207,-91.797,0.000
1714027787.112,-107.910,-13.672,-10.742,-93.750,0.000
1714027787.116,-101.074,-13.184,-9.277,-93.750,0.000
1714027787.120,-99.121,-18.555,-5.371,-94.727,0.000
1714027787.123,-101.562,-22.461,-5.371,-96.680,0.000
1714027787.128,-102.539,-22.949,-14.160,-88.867,0.000
1714027787.132,-101.074,-18.066,-19.531,-89.844,0.000
1714027787.136,-93.750,-18.066,-16.602,-90.820,0.000
1714027787.140,-91.797,-20.020,-13.672,-90.820,0.000
1714027787.144,-92.285,-16.113,-17.578,-92.773,0.000
1714027787.148,-89.844,-21.484,-19.043,-89.355,0.000
1714027787.152,-89.844,-22.461,-17.090,-81.543,0.000
1714027787.155,-93.262,-22.461,-13.672,-81.543,0.000
1714027787.159,-98.633,-24.902,-13.672,-86.914,0.000
1714027787.163,-95.703,-23.926,-10.742,-81.543,0.000
1714027787.167,-86.914,-24.414,-0.977,-86.426,0.000
1714027787.171,-85.938,-30.273,-7.324,-85.449,0.000
1714027787.175,-80.566,-31.738,-18.555,-72.754,0.000
1714027787.179,-71.777,-25.879,-14.648,-71.777,0.000
1714027787.183,-73.730,-22.461,-12.207,-78.613,0.000
1714027787.187,-82.031,-24.902,-19.531,-88.379,0.000
1714027787.191,-84.473,-24.902,-26.367,-77.148,0.000
1714027787.195,-81.055,-25.879,-16.602,-66.406,0.000
1714027787.199,-87.402,-30.762,-11.230,-74.707,0.000
1714027787.203,-90.820,-32.227,-17.578,-79.102,0.000
1714027787.206,-73.730,-29.297,-14.160,-58.594,0.000
1714027787.210,-62.500,-25.879,-6.348,-44.922,0.000
1714027787.214,-70.801,-25.391,-10.742,-62.500,0.000
1714027787.218,-70.312,-26.367,-15.625,-70.312,0.000
1714027787.222,-64.453,-31.738,-18.066,-57.617,0.000
1714027787.226,-68.848,-30.762,-20.020,-55.664,0.000
1714027787.230,-70.801,-26.855,-17.578,-58.105,0.000
1714027787.234,-65.430,-26.855,-18.066,-57.129,0.000
1714027787.238,-64.941,-22.949,-22.461,-65.430,0.000
1714027787.242,-60.547,-22.461,-23.438,-61.035,0.000
1714027787.246,-58.105,-23.438,-22.461,-58.594,0.000
1714027787.249,-56.152,-20.508,-30.273,-59.082,0.000
1714027787.253,-44.434,-23.438,-38.086,-52.734,0.000
1714027787.257,-36.621,-23.438,-35.645,-54.199,0.000
1714027787.261,-37.109,-20.508,-29.785,-56.641,0.000
1714027787.265,-37.598,-17.578,-23.438,-56.152,0.000
1714027787.269,-37.109,-18.555,-25.879,-56.641,0.000
1714027787.273,-44.434,-20.020,-32.227,-59.082,0.000
1714027787.277,-50.781,-17.578,-34.668,-60.547,0.000
1714027787.281,-52.734,-20.020,-29.297,-52.246,0.000
1714027787.285,-53.711,-25.391,-23.438,-51.758,0.000
1714027787.288,-58.594,-20.996,-24.414,-52.734,0.000
1714027787.292,-55.664,-18.555,-27.344,-51.758,0.000
1714027787.296,-57.129,-17.578,-30.273,-52.734,0.000
1714027787.300,-65.918,-15.137,-30.273,-54.688,0.000
1714027787.304,-63.477,-17.578,-31.738,-55.176,0.000
1714027787.308,-59.082,-21.484,-31.738,-49.805,0.000
1714027787.312,-64.453,-25.879,-28.320,-50.781,0.000
1714027787.316,-66.895,-27.344,-25.879,-55.176,0.000
1714027787.320,-51.758,-23.438,-31.738,-48.340,0.000
1714027787.324,-37.109,-20.020,-33.203,-35.645,0.000
1714027787.327,-46.875,-18.555,-32.715,-41.504,0.000
1714027787.331,-60.059,-16.602,-40.527,-58.594,0.000
1714027787.335,-53.711,-15.137,-44.922,-59.082,0.000
1714027787.339,-46.875,-12.695,-44.922,-51.758,0.000
1714027787.343,-45.410,-11.230,-42.480,-39.062,0.000
1714027787.347,-42.480,-17.090,-34.180,-35.645,0.000
1714027787.351,-35.156,-18.555,-32.227,-31.250,0.000
1714027787.355,-28.809,-17.578,-31.738,-22.461,0.000
1714027787.359,-40.527,-12.695,-28.809,-36.133,0.000
1714027787.362,-46.387,-11.719,-29.297,-43.457,0.000
1714027787.366,-38.574,-17.090,-33.203,-31.738,0.000
1714027787.370,-30.762,-18.066,-36.621,-21.973,0.000
1714027787.374,-30.762,-15.137,-34.180,-25.879,0.000
1714027787.378,-36.621,-18.066,-29.297,-38.086,0.000
1714027787.382,-36.621,-18.555,-31.738,-42.969,0.000
1714027787.386,-36.621,-20.508,-39.062,-39.062,0.000
1714027787.390,-38.574,-20.996,-42.480,-36.621,0.000
1714027787.394,-38.574,-21.973,-36.133,-38.574,0.000
1714027787.398,-37.109,-26.855,-32.715,-36.621,0.000
1714027787.402,-41.504,-23.926,-36.133,-41.016,0.000
1714027787.405,-45.410,-16.602,-40.527,-46.387,0.000
1714027787.409,-44.922,-15.625,-39.551,-49.805,0.000
1714027787.413,-46.387,-17.578,-41.016,-49.316,0.000
1714027787.417,-48.340,-21.973,-44.922,-49.805,0.000
1714027787.421,-44.922,-21.484,-38.574,-38.574,0.000
1714027787.425,-35.156,-13.184,-32.715,-27.344,0.000
1714027787.429,-34.668,-7.324,-32.715,-37.109,0.000
1714027787.433,-35.645,-5.859,-33.203,-40.527,0.000
1714027787.437,-24.414,-1.465,-28.809,-36.133,0.000
1714027787.440,-26.855,-5.371,-31.738,-38.574,0.000
1714027787.444,-33.691,-8.789,-37.109,-39.551,0.000
1714027787.448,-28.320,-8.301,-40.527,-34.668,0.000
1714027787.452,-30.762,-6.836,-41.504,-34.668,0.000
1714027787.456,-46.387,-8.789,-41.016,-53.223,0.000
1714027787.460,-55.664,-9.766,-43.945,-60.547,0.000
1714027787.464,-43.945,-6.836,-41.016,-42.969,0.000
1714027787.467,-32.715,-4.883,-40.039,-36.621,0.000
1714027787.471,-34.668,-6.836,-41.016,-43.457,0.000
1714027787.475,-34.180,-10.254,-41.992,-38.574,0.000
1714027787.479,-22.461,-9.766,-43.457,-25.391,0.000
1714027787.483,-21.973,-10.254,-47.363,-33.691,0.000
1714027787.487,-25.879,-12.207,-48.828,-40.527,0.000
1714027787.491,-20.996,-12.695,-48.828,-31.738,0.000
1714027787.495,-21.484,-15.625,-43.945,-37.109,0.000
1714027787.499,-24.902,-16.602,-37.598,-46.875,0.000
1714027787.503,-24.414,-13.672,-43.945,-40.039,0.000
1714027787.507,-16.602,-13.672,-49.316,-26.855,0.000
1714027787.511,-14.160,-14.648,-41.504,-25.879,0.000
1714027787.515,-31.738,-19.531,-37.598,-33.691,0.000
1714027787.518,-41.016,-20.020,-38.574,-42.480,0.000
1714027787.522,-33.691,-19.043,-40.039,-41.992,0.000
1714027787.526,-29.785,-15.137,-42.480,-33.691,0.000
1714027787.530,-31.738,-15.137,-39.062,-40.039,0.000
1714027787.534,-30.762,-16.602,-38.574,-46.875,0.000
1714027787.538,-23.926,-15.625,-41.016,-33.691,0.000
1714027787.542,-17.578,-19.043,-34.180,-20.020,0.000
1714027787.546,-27.832,-15.625,-31.250,-30.762,0.000
1714027787.550,-37.598,-15.625,-31.250,-48.340,0.000
1714027787.554,-29.297,-15.137,-35.645,-39.062,0.000
1714027787.558,-17.578,-13.672,-37.109,-23.926,0.000
1714027787.562,-23.926,-16.602,-35.156,-28.809,0.000
1714027787.566,-30.273,-19.043,-36.621,-32.227,0.000
1714027787.569,-25.879,-22.461,-29.785,-24.902,0.000
1714027787.573,-20.020,-19.531,-21.484,-19.043,0.000
1714027787.577,-18.555,-15.137,-20.996,-16.602,0.000
1714027787.581,-22.949,-9.277,-18.555,-20.508,0.000
1714027787.585,-22.949,-4.883,-22.461,-21.973,0.000
1714027787.589,-24.902,-9.277,-23.438,-21.484,0.000
1714027787.593,-28.809,-15.137,-21.973,-28.320,0.000
1714027787.597,-23.438,-10.742,-28.320,-30.762,0.000
1714027787.601,-13.184,-10.742,-36.621,-22.461,0.000
1714027787.605,-18.066,-18.066,-35.156,-27.344,0.000
1714027787.609,-29.785,-23.438,-29.297,-38.086,0.000
1714027787.613,-26.855,-22.949,-24.902,-34.668,0.000
1714027787.616,-29.785,-17.090,-21.973,-40.527,0.000
1714027787.620,-45.410,-23.926,-25.879,-53.223,0.000
1714027787.624,-42.969,-32.227,-32.715,-53.711,0.000
1714027787.628,-32.715,-29.297,-40.039,-42.480,0.000
1714027787.632,-34.668,-24.414,-37.598,-41.016,0.000
1714027787.636,-30.273,-23.926,-34.180,-36.133,0.000
1714027787.640,-23.926,-27.832,-32.715,-22.461,0.000
1714027787.644,-32.715,-28.320,-29.297,-26.367,0.000
1714027787.648,-36.621,-26.855,-30.273,-30.762,0.000
1714027787.652,-29.785,-25.879,-30.762,-27.832,0.000
1714027787.655,-23.926,-27.344,-26.367,-24.902,0.000
1714027787.659,-33.691,-31.250,-24.414,-28.809,0.000
1714027787.663,-40.527,-31.250,-28.320,-37.109,0.000
1714027787.667,-27.832,-29.297,-32.227,-33.691,0.000
1714027787.671,-22.949,-31.250,-32.227,-20.508,0.000
1714027787.675,-24.414,-32.227,-23.438,-11.719,0.000
1714027787.679,-28.320,-24.414,-19.043,-27.832,0.000
1714027787.683,-41.016,-23.438,-25.879,-44.922,0.000
1714027787.687,-43.945,-28.320,-30.273,-42.480,0.000
1714027787.691,-42.969,-24.902,-36.133,-44.922,0.000
1714027787.695,-38.574,-19.043,-38.086,-42.969,0.000
1714027787.698,-31.250,-22.949,-35.156,-38.086,0.000
1714027787.702,-44.922,-30.273,-39.062,-48.828,0.000
1714027787.706,-52.246,-28.809,-33.691,-45.898,0.000
1714027787.710,-48.828,-32.715,-28.320,-42.480,0.000
1714027787.714,-44.434,-32.227,-27.344,-46.387,0.000
1714027787.718,-36.133,-31.250,-26.855,-34.668,0.000
1714027787.722,-37.598,-34.668,-26.367,-36.621,0.000
1714027787.726,-35.645,-28.809,-28.809,-41.016,0.000
1714027787.730,-32.227,-28.320,-36.621,-41.504,0.000
1714027787.734,-35.645,-34.180,-37.598,-41.504,0.000
1714027787.737,-36.133,-36.133,-34.180,-37.109,0.000
1714027787.741,-30.762,-36.133,-36.621,-30.273,0.000
