timestamps,TP9,AF7,AF8,TP10,Right AUX
1713985212.844,-103.027,-26.855,-36.621,-122.070,0.000
1713985212.848,-91.309,-24.902,-28.320,-111.328,0.000
1713985212.852,-83.008,-19.043,-17.578,-76.172,0.000
1713985212.856,-61.523,-31.250,-26.855,-42.969,0.000
1713985212.860,-51.758,-49.805,-45.898,-57.617,0.000
1713985212.864,-55.176,-58.105,-63.965,-80.078,0.000
1713985212.868,-43.945,-65.430,-75.195,-45.898,0.000
1713985212.872,-20.508,-68.848,-81.055,-5.371,0.000
1713985212.875,-7.812,-79.590,-88.379,-15.625,0.000
1713985212.879,-4.395,-82.520,-93.750,-37.598,0.000
1713985212.883,-0.488,-83.496,-95.703,-23.926,0.000
1713985212.887,1.465,-84.961,-98.145,-3.418,0.000
1713985212.887,1.465,-84.961,-98.145,-3.418,0.000
1713985212.891,21.484,-83.008,-100.098,11.719,0.000
1713985212.895,37.598,-87.891,-105.469,2.441,0.000
1713985212.899,35.156,-91.309,-111.816,-7.812,0.000
1713985212.903,41.992,-96.191,-105.469,28.320,0.000
1713985212.907,50.293,-103.027,-106.445,55.664,0.000
1713985212.911,58.105,-99.121,-112.793,43.457,0.000
1713985212.914,58.105,-93.262,-113.770,34.180,0.000
1713985212.918,45.898,-113.281,-122.559,52.246,0.000
1713985212.922,57.129,-116.211,-129.395,85.449,0.000
1713985212.926,71.289,-85.449,-125.977,80.078,0.000
1713985212.930,67.383,-79.590,-122.070,56.152,0.000
1713985212.934,63.965,-86.426,-113.770,65.430,0.000
1713985212.938,64.453,-93.750,-112.305,89.844,0.000
1713985212.942,79.102,-89.355,-114.258,94.238,0.000
1713985212.946,78.613,-81.055,-118.164,70.312,0.000
1713985212.950,60.547,-86.426,-121.094,60.547,0.000
1713985212.954,58.594,-91.309,-121.094,79.590,0.000
1713985212.957,64.941,-89.355,-131.348,83.496,0.000
1713985212.961,63.965,-84.473,-133.301,62.500,0.000
1713985212.965,62.012,-88.379,-130.859,51.758,0.000
1713985212.969,62.988,-83.984,-126.465,75.684,0.000
1713985212.973,76.660,-74.707,-117.188,91.309,0.000
1713985212.977,76.172,-84.961,-115.234,63.477,0.000
1713985212.981,62.988,-97.656,-120.605,33.691,0.000
1713985212.985,60.547,-90.820,-124.512,46.875,0.000
1713985212.989,61.523,-80.566,-119.141,64.941,0.000
1713985212.993,61.523,-72.266,-125.000,57.617,0.000
1713985212.996,56.152,-75.195,-130.859,30.762,0.000
1713985213.000,46.387,-83.496,-132.324,27.832,0.000
1713985213.004,43.945,-85.938,-140.625,57.129,0.000
1713985213.008,57.129,-81.055,-139.648,62.988,0.000
1713985213.012,48.828,-79.102,-131.836,26.855,0.000
1713985213.016,31.250,-74.707,-123.047,9.277,0.000
1713985213.020,37.109,-73.242,-114.746,43.457,0.000
1713985213.024,45.898,-70.312,-111.816,57.617,0.000
1713985213.028,39.062,-77.637,-112.305,30.273,0.000
1713985213.031,28.320,-78.613,-116.211,9.766,0.000
1713985213.035,30.762,-68.848,-109.863,33.203,0.000
1713985213.039,39.551,-74.707,-110.840,48.340,0.000
1713985213.043,45.898,-70.801,-118.164,28.809,0.000
1713985213.047,34.180,-69.336,-107.910,8.301,0.000
1713985213.051,16.113,-78.125,-102.051,14.160,0.000
1713985213.055,16.602,-73.730,-108.887,41.016,0.000
1713985213.059,23.438,-66.406,-101.562,38.574,0.000
1713985213.063,20.508,-69.336,-85.449,7.324,0.000
1713985213.067,11.719,-76.172,-97.168,-1.465,0.000
1713985213.071,14.160,-78.613,-105.957,24.414,0.000
1713985213.074,22.949,-77.637,-103.516,34.668,0.000
1713985213.078,19.531,-82.520,-113.770,6.348,0.000
1713985213.082,17.090,-98.145,-107.422,-2.441,0.000
1713985213.086,15.625,-101.562,-95.215,19.531,0.000
1713985213.090,21.484,-75.195,-107.910,31.250,0.000
1713985213.094,28.320,-58.105,-95.703,16.602,0.000
1713985213.098,19.531,-65.430,-83.984,8.301,0.000
1713985213.102,8.301,-73.242,-102.539,20.996,0.000
1713985213.106,12.207,-68.848,-113.770,28.320,0.000
1713985213.109,12.695,-71.289,-107.422,3.906,0.000
1713985213.113,3.906,-72.754,-102.539,-17.090,0.000
1713985213.117,1.953,-67.871,-102.051,0.977,0.000
1713985213.121,1.953,-70.312,-102.051,16.602,0.000
1713985213.125,3.418,-76.660,-101.074,3.418,0.000
1713985213.129,-2.930,-75.195,-91.797,-18.555,0.000
1713985213.133,-8.789,-69.336,-96.191,-17.090,0.000
1713985213.137,2.441,-72.266,-92.285,8.789,0.000
1713985213.141,15.137,-78.125,-87.891,12.207,0.000
1713985213.145,16.113,-84.961,-103.027,-12.695,0.000
1713985213.149,6.348,-71.777,-101.074,-25.879,0.000
1713985213.153,2.930,-74.707,-98.145,-13.184,0.000
1713985213.156,12.695,-89.355,-109.375,5.371,0.000
1713985213.160,12.695,-102.539,-111.816,-16.602,0.000
1713985213.164,1.465,-95.703,-102.051,-43.945,0.000
1713985213.168,0.488,-76.660,-97.168,-9.277,0.000
1713985213.172,5.859,-81.055,-84.473,23.926,0.000
1713985213.176,6.836,-78.125,-79.590,14.160,0.000
1713985213.180,0.977,-73.730,-96.191,-6.836,0.000
1713985213.184,-7.324,-77.148,-100.098,-1.953,0.000
1713985213.188,-2.930,-77.637,-87.891,21.973,0.000
1713985213.192,0.000,-78.125,-92.773,20.508,0.000
1713985213.196,-9.277,-80.566,-104.492,-15.137,0.000
1713985213.200,-16.602,-84.961,-102.539,-19.531,0.000
1713985213.203,-9.277,-84.473,-95.703,8.789,0.000
1713985213.207,-5.371,-86.914,-90.820,12.207,0.000
1713985213.211,-3.418,-83.008,-80.566,-6.348,0.000
1713985213.215,-9.766,-82.031,-72.754,-27.832,0.000
1713985213.219,-15.625,-83.984,-79.590,-14.160,0.000
1713985213.223,-3.906,-76.172,-89.355,9.766,0.000
1713985213.227,-6.348,-89.355,-92.285,-12.695,0.000
1713985213.231,-13.184,-101.074,-96.191,-35.645,0.000
1713985213.235,-16.113,-93.262,-98.145,-21.484,0.000
1713985213.239,-10.254,-88.867,-97.168,5.371,0.000
1713985213.243,2.441,-78.613,-88.867,-2.930,0.000
1713985213.246,2.930,-68.359,-83.008,-26.367,0.000
1713985213.250,0.000,-81.055,-80.566,-10.254,0.000
1713985213.254,4.395,-80.078,-77.148,19.043,0.000
1713985213.258,9.766,-71.777,-88.379,12.695,0.000
1713985213.262,12.207,-80.566,-92.285,-10.254,0.000
1713985213.266,9.766,-80.566,-86.426,-5.859,0.000
1713985213.270,8.301,-68.359,-79.590,14.648,0.000
1713985213.274,9.766,-65.430,-85.938,19.043,0.000
1713985213.278,8.301,-79.590,-101.074,-10.742,0.000
1713985213.282,2.441,-89.844,-103.516,-29.297,0.000
1713985213.286,-2.930,-90.820,-101.074,-1.465,0.000
1713985213.289,2.441,-83.984,-94.727,10.742,0.000
1713985213.293,10.742,-77.637,-86.426,-8.301,0.000
1713985213.297,2.930,-85.449,-84.961,-20.996,0.000
1713985213.301,-8.789,-81.543,-81.543,-14.160,0.000
1713985213.305,-6.348,-85.449,-92.773,3.418,0.000
1713985213.309,9.766,-91.309,-100.586,0.488,0.000
1713985213.313,7.812,-77.148,-98.145,-23.926,0.000
1713985213.317,-4.883,-56.641,-87.891,-18.066,0.000
1713985213.321,-8.789,-62.500,-83.984,8.789,0.000
1713985213.325,-6.836,-82.031,-98.633,3.906,0.000
1713985213.328,-1.953,-80.566,-105.957,-24.414,0.000
1713985213.332,-1.953,-79.102,-95.703,-27.344,0.000
1713985213.336,0.488,-76.660,-85.938,6.836,0.000
1713985213.340,6.836,-74.707,-91.309,30.273,0.000
1713985213.344,10.742,-65.918,-88.379,6.348,0.000
1713985213.348,5.859,-67.383,-83.008,-18.066,0.000
1713985213.352,3.906,-80.078,-83.496,3.418,0.000
1713985213.356,7.812,-78.125,-89.844,23.926,0.000
1713985213.360,5.859,-70.801,-91.797,0.488,0.000
1713985213.364,1.465,-69.824,-88.379,-31.250,0.000
1713985213.367,-3.418,-82.520,-91.309,-20.996,0.000
1713985213.371,1.953,-84.473,-88.379,9.766,0.000
1713985213.375,16.113,-75.684,-78.613,10.254,0.000
1713985213.379,10.742,-72.754,-87.402,-18.066,0.000
1713985213.383,-6.348,-79.102,-93.262,-26.855,0.000
1713985213.387,-2.930,-83.008,-90.820,3.906,0.000
1713985213.391,10.742,-70.801,-87.402,9.766,0.000
1713985213.395,4.883,-70.312,-83.008,-17.090,0.000
1713985213.399,-8.789,-73.242,-81.543,-20.996,0.000
1713985213.403,-9.766,-73.242,-82.031,4.883,0.000
1713985213.406,-2.930,-78.125,-82.520,17.090,0.000
1713985213.410,7.324,-70.312,-77.148,-1.465,0.000
1713985213.414,-0.488,-75.684,-81.543,-23.438,0.000
1713985213.418,-10.742,-88.379,-94.727,-6.348,0.000
1713985213.422,-2.441,-90.332,-102.539,13.672,0.000
1713985213.426,3.418,-83.496,-100.586,-2.930,0.000
1713985213.430,-0.488,-84.473,-100.098,-24.902,0.000
1713985213.434,-5.859,-83.008,-89.355,-12.695,0.000
1713985213.438,-1.953,-69.824,-83.984,13.672,0.000
1713985213.442,7.324,-71.289,-88.867,10.742,0.000
1713985213.445,5.371,-75.684,-86.914,-17.578,0.000
1713985213.449,-7.324,-76.172,-80.078,-26.367,0.000
1713985213.453,-11.230,-72.754,-95.215,-8.301,0.000
1713985213.457,-3.418,-77.637,-98.145,-5.859,0.000
1713985213.461,-0.488,-84.961,-84.961,-30.762,0.000
1713985213.465,-9.277,-84.473,-99.609,-43.457,0.000
1713985213.469,-10.254,-79.102,-106.445,-26.367,0.000
1713985213.473,0.488,-92.773,-97.168,-3.418,0.000
1713985213.477,4.883,-83.496,-98.145,-10.254,0.000
1713985213.480,-11.230,-68.848,-97.656,-43.457,0.000
1713985213.484,-25.391,-69.336,-83.008,-34.668,0.000
1713985213.488,-18.555,-71.777,-83.984,-4.395,0.000
1713985213.492,-17.090,-80.566,-91.797,-16.602,0.000
1713985213.496,-17.090,-95.703,-94.238,-39.062,0.000
1713985213.500,-22.949,-90.332,-98.633,-32.715,0.000
1713985213.504,-18.555,-78.613,-89.844,-2.930,0.000
1713985213.508,-4.395,-82.520,-83.984,0.000,0.000
1713985213.512,-8.789,-92.773,-93.750,-29.297,0.000
1713985213.516,-24.902,-104.980,-104.492,-33.203,0.000
1713985213.520,-27.344,-102.051,-103.516,-8.789,0.000
1713985213.524,-16.113,-81.543,-86.914,0.000,0.000
1713985213.527,-10.742,-79.590,-73.730,-21.484,0.000
1713985213.531,-13.184,-95.703,-82.520,-28.320,0.000
1713985213.535,-15.137,-99.121,-97.656,-0.977,0.000
1713985213.539,-15.137,-91.309,-95.703,14.160,0.000
1713985213.543,-12.207,-83.496,-89.844,-12.695,0.000
1713985213.547,-13.184,-79.590,-92.773,-32.227,0.000
1713985213.551,-19.531,-92.285,-90.332,-12.695,0.000
1713985213.555,-21.484,-106.445,-101.074,3.418,0.000
1713985213.559,-9.766,-92.285,-95.703,-4.883,0.000
1713985213.563,-12.695,-90.332,-82.031,-24.902,0.000
1713985213.567,-29.297,-104.980,-95.215,-24.902,0.000
1713985213.571,-30.273,-102.539,-104.004,4.883,0.000
1713985213.574,-18.555,-96.680,-96.680,4.883,0.000
1713985213.578,-4.883,-96.680,-94.727,-16.113,0.000
1713985213.582,-21.973,-90.332,-97.168,-25.879,0.000
1713985213.586,-31.738,-79.590,-86.426,-14.160,0.000
1713985213.590,-11.230,-80.078,-78.125,6.836,0.000
1713985213.594,-3.906,-79.590,-81.543,-7.324,0.000
1713985213.598,-13.672,-78.125,-82.520,-28.809,0.000
1713985213.602,-21.484,-84.961,-91.309,-19.531,0.000
1713985213.606,-18.555,-96.191,-103.027,1.465,0.000
1713985213.610,-11.230,-99.121,-95.215,-16.602,0.000
1713985213.614,-17.090,-95.215,-85.938,-43.945,0.000
1713985213.617,-25.391,-92.773,-92.285,-34.180,0.000
1713985213.621,-21.973,-83.008,-101.562,-5.859,0.000
1713985213.625,-17.090,-84.961,-92.285,2.441,0.000
1713985213.629,-18.066,-77.148,-83.496,-28.320,0.000
1713985213.633,-22.461,-76.660,-83.984,-35.156,0.000
1713985213.637,-18.066,-89.355,-90.820,4.395,0.000
1713985213.641,-6.836,-82.520,-90.332,15.625,0.000
1713985213.645,-9.766,-78.125,-95.215,-19.531,0.000
1713985213.649,-23.438,-86.914,-95.703,-37.109,0.000
1713985213.653,-25.879,-92.285,-89.355,-17.090,0.000
1713985213.657,-14.160,-86.914,-88.867,-5.371,0.000
1713985213.660,-6.836,-82.520,-89.844,-22.461,0.000
1713985213.664,-8.301,-84.961,-81.055,-35.645,0.000
1713985213.668,-11.230,-99.121,-78.125,-15.625,0.000
1713985213.672,-6.348,-99.121,-96.680,6.836,0.000
1713985213.676,0.488,-80.078,-98.633,-9.277,0.000
1713985213.680,-3.418,-81.543,-94.238,-24.902,0.000
1713985213.684,-18.066,-87.402,-93.750,-21.973,0.000
1713985213.688,-12.695,-82.520,-76.660,0.977,0.000
1713985213.692,6.836,-78.125,-65.430,6.836,0.000
1713985213.696,8.789,-70.801,-72.266,-18.555,0.000
1713985213.699,3.906,-68.848,-72.266,-22.949,0.000
1713985213.703,-3.906,-76.172,-73.730,0.977,0.000
1713985213.707,-10.254,-85.449,-88.379,5.859,0.000
1713985213.711,-11.719,-87.402,-94.727,-17.090,0.000
1713985213.715,-17.090,-93.750,-90.332,-20.508,0.000
1713985213.719,-18.066,-92.285,-81.543,-3.906,0.000
1713985213.723,-14.160,-89.355,-85.449,6.836,0.000
1713985213.727,-7.324,-86.426,-90.332,-10.254,0.000
1713985213.731,-7.812,-80.566,-83.496,-27.344,0.000
1713985213.735,-14.648,-88.867,-77.637,-17.090,0.000
1713985213.738,-11.230,-94.727,-84.961,-4.883,0.000
1713985213.742,-3.906,-90.332,-94.238,-7.812,0.000
1713985213.746,-0.488,-81.055,-74.707,-24.414,0.000
1713985213.750,-12.207,-84.961,-75.195,-26.855,0.000
1713985213.754,-21.484,-90.820,-92.773,1.465,0.000
1713985213.758,-13.184,-81.055,-87.402,7.324,0.000
1713985213.762,-5.859,-79.102,-77.148,-22.949,0.000
1713985213.766,-13.184,-71.289,-74.707,-33.203,0.000
1713985213.770,-13.184,-69.824,-79.102,-2.930,0.000
1713985213.774,1.953,-83.496,-83.008,18.555,0.000
1713985213.778,1.465,-88.379,-82.031,-8.789,0.000
1713985213.782,-5.859,-91.797,-82.031,-31.738,0.000
1713985213.786,-14.160,-104.980,-92.285,-13.184,0.000
1713985213.789,-12.695,-98.145,-91.797,11.230,0.000
1713985213.793,-2.930,-91.797,-67.383,4.883,0.000
1713985213.797,-9.277,-95.703,-67.871,-18.555,0.000
1713985213.801,-15.137,-83.984,-83.496,-11.230,0.000
1713985213.805,-7.324,-80.566,-88.867,21.973,0.000
1713985213.809,-4.395,-79.102,-76.660,12.207,0.000
1713985213.813,-18.066,-94.238,-79.590,-28.809,0.000
1713985213.817,-27.344,-112.305,-96.680,-33.203,0.000
1713985213.821,-18.555,-98.145,-92.285,-6.836,0.000
1713985213.825,1.465,-97.168,-75.195,5.371,0.000
1713985213.828,3.906,-104.980,-72.266,-17.578,0.000
1713985213.832,-13.672,-97.656,-78.613,-29.785,0.000
1713985213.836,-14.648,-102.051,-82.031,-3.418,0.000
1713985213.840,-5.371,-105.957,-76.660,7.812,0.000
1713985213.844,-0.488,-105.957,-83.008,-13.672,0.000
1713985213.848,-8.789,-104.980,-89.355,-29.297,0.000
1713985213.852,-13.184,-107.910,-89.844,-8.301,0.000
1713985213.856,-2.930,-109.375,-90.332,11.719,0.000
1713985213.860,1.465,-99.609,-88.867,-6.836,0.000
1713985213.863,1.465,-109.863,-93.262,-29.297,0.000
1713985213.867,1.953,-99.609,-85.449,-14.160,0.000
1713985213.871,-0.977,-81.543,-82.520,8.301,0.000
1713985213.875,-4.883,-104.980,-76.660,1.465,0.000
1713985213.879,-7.812,-104.004,-76.172,-26.367,0.000
1713985213.883,-16.113,-91.797,-89.844,-30.273,0.000
1713985213.887,-19.043,-88.867,-93.262,-4.883,0.000
1713985213.891,-5.371,-75.195,-80.566,9.277,0.000
1713985213.895,0.488,-88.867,-79.102,-11.230,0.000
1713985213.899,0.488,-85.449,-86.426,-18.555,0.000
1713985213.903,-4.883,-70.801,-80.078,1.465,0.000
1713985213.907,-5.371,-86.426,-80.078,16.602,0.000
1713985213.911,-1.953,-96.680,-89.844,-0.977,0.000
1713985213.914,-8.789,-82.520,-85.449,-32.227,0.000
1713985213.918,-16.602,-84.473,-89.844,-20.508,0.000
1713985213.922,-10.254,-84.961,-96.680,7.812,0.000
1713985213.926,-1.465,-77.148,-85.449,-1.953,0.000
1713985213.930,-6.836,-81.055,-80.566,-28.320,0.000
1713985213.934,-14.648,-82.520,-85.449,-25.879,0.000
1713985213.938,-10.254,-76.660,-86.426,-1.465,0.000
1713985213.942,0.488,-73.242,-86.426,2.930,0.000
1713985213.946,5.859,-69.336,-74.219,-18.066,0.000
1713985213.950,0.977,-71.777,-74.707,-20.996,0.000
1713985213.954,-4.883,-74.219,-94.238,6.836,0.000
1713985213.957,-2.930,-62.988,-96.191,18.066,0.000
1713985213.961,4.883,-51.270,-83.008,-6.348,0.000
1713985213.965,-1.953,-61.035,-94.238,-25.879,0.000
1713985213.969,-8.789,-74.219,-101.074,-10.254,0.000
1713985213.973,6.348,-75.684,-85.938,13.184,0.000
1713985213.977,18.555,-72.266,-82.031,-0.977,0.000
1713985213.981,13.184,-70.312,-91.309,-24.414,0.000
1713985213.985,2.930,-70.312,-111.816,-12.207,0.000
1713985213.989,1.465,-63.477,-103.516,8.789,0.000
1713985213.993,-3.418,-63.965,-89.355,-7.812,0.000
1713985213.997,-3.906,-70.312,-100.586,-22.949,0.000
1713985214.000,-1.953,-65.918,-88.867,-8.789,0.000
1713985214.004,-13.184,-59.570,-69.336,2.930,0.000
1713985214.008,-6.836,-62.012,-83.008,3.418,0.000
1713985214.012,-0.488,-66.895,-86.914,-12.695,0.000
1713985214.016,-9.766,-72.266,-81.055,-24.902,0.000
1713985214.020,-11.719,-69.824,-93.750,-5.371,0.000
1713985214.024,0.488,-66.406,-98.145,10.742,0.000
1713985214.028,5.371,-66.895,-87.402,-7.324,0.000
1713985214.032,-10.254,-61.523,-83.496,-28.809,0.000
1713985214.036,-16.602,-65.918,-83.008,-12.695,0.000
1713985214.040,-3.418,-66.406,-83.984,8.301,0.000
1713985214.043,-7.324,-75.195,-89.844,-14.160,0.000
1713985214.047,-14.160,-92.773,-93.750,-30.762,0.000
1713985214.051,-18.066,-84.473,-84.473,-20.020,0.000
1713985214.055,-20.020,-69.336,-81.055,3.906,0.000
1713985214.059,-5.371,-65.430,-85.449,5.859,0.000
1713985214.063,-3.906,-73.730,-90.332,-31.250,0.000
1713985214.067,-20.020,-76.660,-91.309,-42.969,0.000
1713985214.071,-16.602,-69.336,-84.961,-6.836,0.000
1713985214.075,0.977,-66.406,-81.055,16.602,0.000
1713985214.079,1.465,-65.918,-83.984,-10.742,0.000
1713985214.082,-11.719,-78.125,-91.309,-26.367,0.000
1713985214.086,-17.578,-86.914,-85.938,1.953,0.000
1713985214.090,-10.742,-81.543,-87.402,11.230,0.000
1713985214.094,-5.859,-69.336,-90.820,-13.184,0.000
1713985214.098,-15.625,-71.289,-86.426,-33.691,0.000
1713985214.102,-22.949,-81.055,-92.773,-18.555,0.000
1713985214.106,-7.324,-69.824,-98.145,10.742,0.000
1713985214.110,-1.465,-58.594,-90.332,-1.953,0.000
1713985214.114,-16.113,-63.965,-95.215,-36.133,0.000
1713985214.118,-21.484,-72.754,-108.887,-32.715,0.000
1713985214.121,-10.742,-73.730,-97.168,-4.883,0.000
1713985214.125,-2.441,-72.754,-79.102,-3.906,0.000
1713985214.129,-8.301,-69.824,-83.984,-32.227,0.000
1713985214.133,-16.113,-64.453,-95.703,-29.785,0.000
1713985214.137,-13.672,-62.988,-107.422,-3.906,0.000
1713985214.141,-9.277,-57.617,-103.516,-5.371,0.000
1713985214.145,-8.301,-63.965,-90.332,-31.250,0.000
1713985214.149,-16.602,-72.266,-85.938,-40.039,0.000
1713985214.153,-20.508,-73.730,-92.773,-19.043,0.000
1713985214.156,-4.395,-69.824,-92.285,3.418,0.000
1713985214.160,4.883,-70.801,-83.008,-10.742,0.000
1713985214.164,-9.277,-88.867,-95.215,-40.527,0.000
1713985214.168,-15.137,-90.820,-105.957,-20.996,0.000
1713985214.172,-12.207,-71.777,-97.168,6.348,0.000
1713985214.176,-6.348,-57.617,-89.355,-3.418,0.000
1713985214.180,-11.230,-66.895,-86.426,-28.320,0.000
1713985214.184,-21.484,-73.730,-81.055,-33.203,0.000
1713985214.188,-18.066,-77.637,-83.984,-13.184,0.000
1713985214.192,-12.207,-83.984,-89.844,-2.441,0.000
1713985214.196,-9.277,-82.520,-87.402,-17.090,0.000
1713985214.199,-16.602,-85.938,-92.773,-31.738,0.000
1713985214.203,-21.973,-80.078,-99.609,-9.277,0.000
1713985214.207,-9.766,-70.801,-94.727,5.859,0.000
1713985214.211,-2.441,-64.941,-91.797,-20.996,0.000
1713985214.215,-12.207,-63.477,-84.473,-38.574,0.000
1713985214.219,-19.531,-73.242,-87.891,-23.438,0.000
1713985214.223,-7.812,-69.336,-91.797,0.977,0.000
1713985214.227,-8.301,-66.406,-82.520,-10.254,0.000
1713985214.231,-17.090,-69.336,-78.613,-40.039,0.000
1713985214.234,-15.625,-76.660,-99.609,-30.762,0.000
1713985214.238,-12.695,-79.102,-114.746,0.000,0.000
1713985214.242,-11.230,-77.148,-103.516,-7.324,0.000
1713985214.246,-16.113,-77.637,-95.215,-36.133,0.000
1713985214.250,-22.949,-78.125,-91.309,-30.273,0.000
1713985214.254,-18.066,-73.730,-94.238,-2.441,0.000
1713985214.258,-6.836,-71.777,-88.379,8.301,0.000
1713985214.262,-8.789,-72.266,-72.754,-17.090,0.000
1713985214.266,-17.578,-70.801,-91.309,-36.621,0.000
1713985214.270,-14.648,-77.637,-101.074,-7.324,0.000
1713985214.274,-3.418,-77.637,-84.961,13.672,0.000
1713985214.278,3.418,-66.406,-73.242,-2.930,0.000
1713985214.281,-4.395,-70.801,-83.984,-19.531,0.000
1713985214.285,-20.996,-75.684,-104.980,-9.766,0.000
1713985214.289,-21.484,-72.754,-90.820,-0.488,0.000
1713985214.293,-6.836,-76.172,-71.289,-9.277,0.000
1713985214.297,-15.625,-90.820,-80.566,-31.738,0.000
1713985214.301,-40.039,-91.309,-105.957,-38.086,0.000
1713985214.305,-34.668,-77.637,-104.492,-16.113,0.000
1713985214.309,-21.973,-72.754,-90.332,-7.812,0.000
1713985214.313,-22.949,-65.918,-89.355,-28.809,0.000
1713985214.317,-23.926,-60.547,-85.938,-32.715,0.000
1713985214.321,-31.250,-86.426,-101.074,-14.160,0.000
1713985214.325,-18.066,-94.727,-94.238,-1.465,0.000
1713985214.328,-19.043,-83.496,-89.844,-23.926,0.000
1713985214.332,-37.109,-94.238,-103.516,-40.527,0.000
1713985214.336,-34.668,-90.332,-110.352,-23.926,0.000
1713985214.340,-13.672,-70.801,-98.145,6.348,0.000
1713985214.344,-4.395,-72.266,-84.961,-9.766,0.000
1713985214.348,-14.648,-78.125,-86.914,-36.133,0.000
1713985214.352,-19.531,-67.871,-84.961,-17.578,0.000
1713985214.356,-16.113,-69.824,-88.867,4.395,0.000
1713985214.360,-18.066,-90.332,-93.750,-11.230,0.000
1713985214.364,-16.113,-88.379,-94.238,-33.691,0.000
1713985214.368,-22.949,-70.801,-90.820,-29.785,0.000
1713985214.371,-29.297,-68.359,-87.402,-13.184,0.000
1713985214.375,-18.066,-80.078,-95.215,-9.766,0.000
1713985214.379,-14.160,-73.242,-90.820,-29.297,0.000
1713985214.383,-17.090,-65.918,-86.914,-31.250,0.000
1713985214.387,-7.812,-72.266,-94.727,2.441,0.000
1713985214.391,6.348,-74.707,-90.332,23.926,0.000
1713985214.395,6.348,-65.918,-72.266,-3.418,0.000
1713985214.399,-2.441,-71.777,-75.195,-27.832,0.000
1713985214.403,-3.418,-87.402,-82.520,-2.441,0.000
1713985214.407,-3.418,-89.355,-89.355,12.695,0.000
1713985214.410,-6.348,-78.125,-91.309,-5.371,0.000
1713985214.414,-13.672,-67.871,-83.496,-23.438,0.000
1713985214.418,-16.113,-74.219,-81.543,-7.812,0.000
1713985214.422,-10.254,-75.195,-72.266,21.484,0.000
1713985214.426,-0.488,-57.617,-73.730,6.348,0.000
1713985214.430,-4.883,-78.613,-91.797,-23.438,0.000
1713985214.434,-22.461,-100.098,-99.121,-30.762,0.000
1713985214.438,-24.902,-92.285,-92.773,-9.277,0.000
1713985214.442,-12.207,-87.402,-84.473,-2.441,0.000
1713985214.446,0.488,-76.172,-70.801,-16.113,0.000
1713985214.450,-4.883,-73.242,-70.312,-15.625,0.000
1713985214.453,-15.625,-75.195,-83.496,-1.953,0.000
1713985214.457,-6.836,-75.195,-78.125,7.324,0.000
1713985214.461,-2.441,-75.195,-83.008,-13.184,0.000
1713985214.465,-16.602,-87.402,-100.098,-30.762,0.000
1713985214.469,-23.438,-79.102,-100.098,-14.648,0.000
1713985214.473,-13.672,-70.801,-88.867,1.953,0.000
1713985214.477,-7.812,-83.008,-80.078,-15.137,0.000
1713985214.481,-13.184,-83.008,-71.289,-41.016,0.000
1713985214.485,-19.531,-78.125,-84.473,-32.715,0.000
1713985214.488,-13.184,-78.613,-87.891,-2.441,0.000
1713985214.492,-8.789,-76.172,-77.148,0.000,0.000
1713985214.496,-12.695,-75.684,-86.914,-29.785,0.000
1713985214.500,-16.113,-81.055,-97.656,-26.367,0.000
1713985214.504,-10.742,-84.473,-100.586,7.324,0.000
1713985214.508,-1.953,-85.938,-93.750,4.883,0.000
1713985214.512,-6.348,-88.867,-93.750,-23.926,0.000
1713985214.516,-10.254,-74.219,-87.891,-33.691,0.000
1713985214.520,-2.441,-69.336,-78.613,-4.395,0.000
1713985214.524,1.465,-90.332,-83.984,17.578,0.000
1713985214.528,-0.977,-93.750,-94.727,-6.348,0.000
1713985214.531,-9.277,-77.637,-100.586,-34.668,0.000
1713985214.535,-16.113,-80.078,-97.656,-15.137,0.000
1713985214.539,-12.695,-81.055,-94.238,5.859,0.000
1713985214.543,-7.324,-85.449,-89.355,-7.324,0.000
1713985214.547,-8.789,-100.098,-77.148,-28.320,0.000
1713985214.551,-17.578,-89.355,-80.078,-23.926,0.000
1713985214.555,-14.160,-77.637,-86.914,10.254,0.000
1713985214.559,-11.230,-77.637,-83.496,3.418,0.000
1713985214.563,-12.207,-83.008,-83.496,-30.273,0.000
1713985214.566,-11.719,-83.984,-86.426,-29.297,0.000
1713985214.570,-10.742,-71.777,-85.938,-1.953,0.000
1713985214.574,-3.906,-70.312,-77.637,3.906,0.000
1713985214.578,-4.883,-77.637,-66.406,-17.578,0.000
1713985214.582,-20.508,-88.379,-80.566,-35.156,0.000
1713985214.586,-23.438,-85.449,-89.844,-17.578,0.000
1713985214.590,-9.277,-71.777,-73.242,5.859,0.000
1713985214.594,-7.812,-72.754,-74.219,-6.836,0.000
1713985214.598,-17.578,-87.891,-94.727,-25.391,0.000
1713985214.601,-20.996,-81.543,-98.633,-10.254,0.000
1713985214.605,-14.160,-64.453,-80.566,6.348,0.000
1713985214.609,-6.836,-58.105,-69.824,-10.742,0.000
1713985214.613,-17.090,-72.266,-80.566,-32.227,0.000
1713985214.617,-25.879,-82.031,-92.285,-28.809,0.000
1713985214.621,-17.090,-72.266,-84.961,-4.883,0.000
1713985214.625,-4.395,-76.660,-71.289,3.906,0.000
1713985214.629,-4.395,-78.125,-76.660,-15.137,0.000
1713985214.633,-20.020,-76.172,-91.797,-27.344,0.000
1713985214.637,-24.902,-75.684,-93.262,-10.254,0.000
1713985214.641,-14.160,-70.801,-86.914,-0.488,0.000
1713985214.645,-15.137,-85.449,-93.262,-32.227,0.000
1713985214.649,-22.949,-84.961,-97.168,-45.410,0.000
1713985214.652,-27.344,-77.148,-100.098,-21.484,0.000
1713985214.656,-10.254,-79.590,-86.914,9.277,0.000
1713985214.660,2.441,-73.242,-69.824,0.488,0.000
1713985214.664,-8.789,-69.336,-75.684,-29.297,0.000
1713985214.668,-10.742,-77.148,-87.891,-20.996,0.000
1713985214.672,-4.395,-83.984,-87.891,5.859,0.000
1713985214.676,2.441,-72.266,-81.055,0.977,0.000
1713985214.680,-0.488,-66.895,-90.820,-31.250,0.000
1713985214.684,-2.930,-89.844,-93.262,-29.785,0.000
1713985214.688,1.465,-86.914,-79.102,2.441,0.000
1713985214.692,9.277,-83.984,-77.637,3.418,0.000
1713985214.695,6.348,-96.680,-95.215,-31.738,0.000
1713985214.699,-7.812,-96.191,-99.121,-41.992,0.000
1713985214.703,-9.277,-93.262,-94.727,-11.719,0.000
1713985214.707,0.488,-86.914,-99.121,10.742,0.000
1713985214.711,0.488,-68.848,-91.309,-15.625,0.000
1713985214.715,-20.508,-75.195,-85.938,-44.922,0.000
1713985214.719,-27.344,-78.125,-84.961,-25.391,0.000
1713985214.723,-11.719,-68.848,-78.125,0.977,0.000
1713985214.727,-7.812,-72.266,-76.660,-15.625,0.000
1713985214.731,-18.555,-72.266,-84.961,-38.574,0.000
1713985214.735,-20.020,-80.566,-94.727,-24.414,0.000
1713985214.739,-8.301,-76.660,-88.379,-1.953,0.000
1713985214.742,-7.324,-64.453,-81.055,-10.742,0.000
1713985214.746,-14.648,-72.754,-85.938,-31.250,0.000
1713985214.750,-16.113,-80.566,-89.844,-19.531,0.000
1713985214.754,-14.160,-56.641,-77.637,4.883,0.000
1713985214.758,-13.672,-52.734,-70.801,2.441,0.000
1713985214.762,-11.230,-70.801,-72.754,-16.113,0.000
1713985214.766,-12.695,-74.707,-79.590,-27.344,0.000
1713985214.770,-12.695,-74.219,-77.148,-13.672,0.000
1713985214.774,-10.254,-75.684,-74.707,-1.953,0.000
1713985214.778,-4.395,-70.312,-86.914,-13.672,0.000
1713985214.781,-6.836,-72.754,-83.008,-33.203,0.000
1713985214.785,-12.695,-81.543,-85.938,-22.949,0.000
1713985214.789,-5.859,-70.312,-94.238,2.930,0.000
1713985214.793,1.953,-67.871,-91.309,-2.930,0.000
1713985214.797,-5.859,-87.891,-92.773,-33.691,0.000
1713985214.801,-14.648,-92.285,-85.938,-31.250,0.000
1713985214.805,-4.395,-85.449,-74.219,1.953,0.000
1713985214.809,-2.930,-83.008,-75.195,-1.953,0.000
1713985214.813,-11.719,-74.707,-80.566,-33.203,0.000
1713985214.817,-19.531,-78.125,-89.355,-41.016,0.000
1713985214.821,-20.020,-92.773,-98.633,-19.043,0.000
1713985214.824,-6.836,-89.355,-103.027,-9.766,0.000
1713985214.828,-7.324,-89.844,-104.004,-32.715,0.000
1713985214.832,-23.438,-93.750,-102.051,-49.316,0.000
1713985214.836,-19.043,-82.031,-82.520,-23.926,0.000
1713985214.840,-11.230,-83.008,-71.777,6.836,0.000
1713985214.844,-15.625,-83.984,-78.125,-21.484,0.000
1713985214.848,-19.043,-72.754,-90.332,-47.852,0.000
1713985214.852,-15.137,-69.824,-95.703,-19.531,0.000
1713985214.856,-6.836,-80.566,-93.262,6.836,0.000
1713985214.860,-6.836,-82.031,-91.309,-1.953,0.000
1713985214.863,-16.113,-81.543,-87.402,-26.367,0.000
1713985214.867,-22.949,-90.820,-89.355,-22.949,0.000
1713985214.871,-6.348,-81.543,-82.520,9.277,0.000
1713985214.875,-0.977,-78.125,-75.684,-0.977,0.000
1713985214.879,-14.160,-81.055,-87.891,-34.180,0.000
1713985214.883,-17.090,-78.125,-101.074,-34.668,0.000
1713985214.887,-14.648,-84.961,-99.121,-18.555,0.000
1713985214.891,-15.137,-84.473,-91.797,-12.695,0.000
1713985214.895,-16.113,-89.844,-99.121,-24.902,0.000
1713985214.899,-19.043,-93.750,-105.469,-37.109,0.000
1713985214.902,-26.367,-86.914,-104.004,-20.020,0.000
1713985214.906,-18.066,-84.473,-94.238,-0.977,0.000
1713985214.910,-11.719,-84.961,-93.750,-12.695,0.000
1713985214.914,-13.672,-88.379,-97.656,-32.715,0.000
1713985214.918,-17.090,-78.613,-106.934,-24.414,0.000
1713985214.922,-19.043,-75.684,-106.445,-0.977,0.000
1713985214.926,-9.277,-83.008,-94.238,-0.977,0.000
1713985214.930,-11.230,-87.402,-95.703,-23.926,0.000
1713985214.934,-22.461,-91.797,-94.238,-30.273,0.000
1713985214.938,-19.043,-89.844,-89.355,-5.371,0.000
1713985214.941,-12.207,-87.402,-89.844,-0.977,0.000
1713985214.945,-14.160,-93.750,-98.633,-29.785,0.000
1713985214.949,-8.301,-88.867,-99.609,-23.926,0.000
1713985214.953,-7.812,-80.078,-102.539,0.977,0.000
1713985214.957,-7.324,-77.637,-98.145,10.742,0.000
1713985214.961,-9.277,-79.590,-84.961,-11.230,0.000
1713985214.965,-18.555,-84.473,-87.402,-32.227,0.000
1713985214.969,-21.484,-86.914,-93.750,-15.137,0.000
1713985214.973,-14.648,-92.285,-94.238,5.371,0.000
1713985214.976,-8.301,-86.914,-92.285,-3.418,0.000
1713985214.980,-15.625,-83.496,-89.355,-26.855,0.000
1713985214.984,-22.461,-83.984,-100.586,-21.484,0.000
1713985214.988,-15.625,-80.078,-107.422,2.441,0.000
1713985214.992,-3.906,-76.660,-90.820,0.488,0.000
1713985214.996,-5.859,-74.219,-84.961,-23.926,0.000
1713985215.000,-17.578,-77.148,-91.797,-30.762,0.000
1713985215.004,-12.207,-79.102,-94.238,-9.766,0.000
1713985215.008,-6.836,-82.031,-90.332,0.488,0.000
1713985215.012,-13.184,-91.797,-86.914,-22.461,0.000
1713985215.016,-15.137,-91.309,-79.590,-30.273,0.000
1713985215.020,-13.672,-77.637,-87.402,-0.977,0.000
1713985215.023,-8.789,-67.871,-102.051,11.719,0.000
1713985215.027,-2.930,-66.895,-93.262,-10.742,0.000
1713985215.031,-8.301,-75.684,-84.961,-33.691,0.000
1713985215.035,-16.113,-87.402,-98.633,-18.066,0.000
1713985215.039,-5.859,-72.266,-96.191,12.207,0.000
1713985215.043,4.883,-60.059,-75.684,3.906,0.000
1713985215.047,-1.465,-67.871,-71.777,-23.438,0.000
1713985215.051,-11.719,-79.102,-87.891,-23.926,0.000
1713985215.055,-7.324,-76.172,-93.750,-3.418,0.000
1713985215.059,-0.488,-71.289,-88.867,-5.371,0.000
1713985215.063,-9.766,-81.055,-91.797,-36.621,0.000
1713985215.066,-21.484,-90.820,-96.191,-41.016,0.000
1713985215.070,-19.043,-85.449,-88.867,-8.301,0.000
1713985215.074,-12.207,-85.449,-79.102,-4.883,0.000
1713985215.078,-14.648,-96.680,-87.402,-27.832,0.000
1713985215.082,-19.043,-88.867,-92.285,-29.297,0.000
1713985215.086,-19.043,-80.078,-98.145,-13.184,0.000
1713985215.090,-11.719,-84.961,-101.074,4.395,0.000
1713985215.094,-4.883,-83.984,-86.914,-3.906,0.000
1713985215.098,-11.230,-84.961,-80.078,-25.879,0.000
1713985215.102,-19.043,-82.520,-81.055,-24.414,0.000
1713985215.106,-14.160,-74.707,-77.637,2.930,0.000
1713985215.110,-4.883,-79.590,-78.125,9.277,0.000
1713985215.113,-6.836,-78.613,-87.891,-17.090,0.000
1713985215.117,-19.531,-73.730,-99.121,-21.484,0.000
1713985215.121,-17.090,-74.219,-91.797,2.930,0.000
1713985215.125,-7.324,-80.078,-86.914,13.672,0.000
1713985215.129,-9.766,-73.730,-80.078,-6.348,0.000
1713985215.133,-19.531,-76.660,-76.660,-25.391,0.000
1713985215.137,-21.973,-93.262,-83.008,-8.789,0.000
1713985215.141,-16.602,-92.285,-91.309,3.418,0.000
1713985215.145,-8.789,-83.008,-92.285,-20.020,0.000
1713985215.149,-12.695,-82.520,-83.984,-31.250,0.000
1713985215.152,-22.949,-88.379,-77.637,-12.207,0.000
1713985215.156,-19.043,-86.914,-88.867,2.930,0.000
1713985215.160,-5.859,-81.055,-96.191,-6.348,0.000
1713985215.164,-14.648,-79.102,-95.703,-32.715,0.000
1713985215.168,-27.832,-83.496,-104.492,-31.250,0.000
1713985215.172,-15.137,-79.102,-96.191,2.441,0.000
1713985215.176,-15.625,-77.637,-87.891,-10.254,0.000
1713985215.180,-20.996,-83.008,-80.566,-39.551,0.000
1713985215.184,-20.020,-84.473,-86.914,-29.785,0.000
1713985215.188,-16.602,-82.031,-95.215,-9.277,0.000
1713985215.192,-12.207,-77.148,-100.586,-15.137,0.000
1713985215.195,-16.113,-82.031,-117.188,-40.527,0.000
1713985215.199,-20.996,-104.004,-112.793,-38.574,0.000
1713985215.203,-21.484,-101.074,-104.004,-19.043,0.000
1713985215.207,-8.301,-72.754,-104.980,3.906,0.000
1713985215.211,-7.324,-66.406,-93.750,-9.277,0.000
1713985215.215,-18.066,-84.961,-85.449,-31.250,0.000
1713985215.219,-23.438,-85.449,-91.797,-18.066,0.000
1713985215.223,-13.184,-80.566,-93.750,8.301,0.000
1713985215.227,-1.953,-84.961,-97.656,-4.883,0.000
1713985215.231,-10.254,-76.172,-98.145,-35.645,0.000
1713985215.234,-19.531,-75.684,-86.426,-27.832,0.000
1713985215.238,-12.695,-79.102,-88.867,-0.488,0.000
1713985215.242,-7.324,-79.590,-94.238,-6.836,0.000
1713985215.246,-8.301,-79.102,-89.355,-34.668,0.000
1713985215.250,-10.254,-69.824,-85.449,-33.691,0.000
1713985215.254,-8.789,-74.707,-84.473,-6.348,0.000
1713985215.258,-3.906,-86.914,-95.703,6.836,0.000
1713985215.262,-5.371,-90.332,-106.445,-17.578,0.000
1713985215.266,-18.066,-92.285,-96.680,-39.551,0.000
1713985215.270,-22.949,-83.984,-95.703,-16.602,0.000
1713985215.273,-9.766,-76.660,-97.656,4.395,0.000
1713985215.277,2.441,-79.590,-87.891,-8.301,0.000
1713985215.281,-7.812,-88.379,-86.426,-26.855,0.000
1713985215.285,-15.625,-90.332,-91.309,-14.160,0.000
1713985215.289,-2.441,-74.707,-92.773,12.207,0.000
1713985215.293,3.906,-64.453,-97.168,1.953,0.000
1713985215.297,-4.883,-67.871,-99.609,-28.809,0.000
1713985215.301,-16.113,-78.125,-100.586,-31.738,0.000
1713985215.305,-19.043,-85.938,-100.586,-2.930,0.000
1713985215.309,-9.277,-81.055,-89.844,2.441,0.000
1713985215.312,-4.395,-76.172,-83.008,-27.344,0.000
1713985215.316,-14.160,-75.195,-80.566,-27.832,0.000
1713985215.320,-15.625,-77.148,-87.891,-6.348,0.000
1713985215.324,-11.719,-75.684,-92.773,-9.766,0.000
1713985215.328,-12.695,-66.406,-70.312,-46.875,0.000
1713985215.332,-12.695,-73.242,-67.383,-60.059,0.000
1713985215.336,-27.832,-83.496,-85.938,-50.781,0.000
1713985215.340,-49.805,-80.566,-74.707,-65.430,0.000
1713985215.344,-51.758,-73.242,-70.312,-90.332,0.000
1713985215.347,-65.918,-73.242,-67.871,-118.164,0.000
1713985215.351,-101.562,-76.172,-49.805,-127.441,0.000
1713985215.355,-131.836,-67.871,-30.762,-137.695,0.000
1713985215.359,-153.320,-62.500,-23.438,-167.480,0.000
1713985215.363,-165.527,-58.105,-17.090,-195.801,0.000
1713985215.367,-183.594,-64.453,-10.254,-202.637,0.000
1713985215.371,-197.266,-68.848,-1.465,-190.918,0.000
1713985215.375,-191.895,-61.035,-0.488,-187.012,0.000
1713985215.379,-187.012,-62.988,-3.906,-202.148,0.000
1713985215.383,-190.918,-66.895,-7.812,-205.566,0.000
1713985215.387,-184.082,-74.707,-13.184,-170.410,0.000
1713985215.391,-167.969,-74.219,-14.648,-152.344,0.000
1713985215.394,-158.203,-65.430,-22.949,-169.922,0.000
1713985215.398,-151.855,-54.199,-20.020,-169.922,0.000
1713985215.402,-148.438,-48.340,-14.648,-150.879,0.000
1713985215.406,-132.324,-57.617,-20.508,-118.652,0.000
1713985215.410,-118.164,-72.266,-25.391,-117.188,0.000
1713985215.414,-117.188,-58.105,-29.785,-138.184,0.000
1713985215.418,-111.328,-49.805,-39.551,-125.488,0.000
1713985215.422,-101.562,-60.059,-54.199,-99.121,0.000
1713985215.426,-92.773,-65.430,-58.594,-100.586,0.000
1713985215.430,-87.402,-64.453,-49.805,-120.605,0.000
1713985215.434,-84.961,-59.082,-42.969,-113.770,0.000
1713985215.438,-76.172,-57.129,-47.852,-71.289,0.000
1713985215.441,-75.195,-71.777,-63.477,-66.895,0.000
1713985215.445,-79.590,-72.266,-66.406,-96.680,0.000
1713985215.449,-83.496,-72.754,-63.477,-99.609,0.000
1713985215.453,-104.980,-85.938,-64.453,-96.191,0.000
1713985215.457,-100.098,-70.801,-54.688,-86.914,0.000
1713985215.461,-97.656,-55.176,-44.922,-105.957,0.000
1713985215.465,-131.836,-66.406,-42.480,-150.391,0.000
1713985215.469,-144.043,-65.918,-51.270,-149.414,0.000
1713985215.473,-140.625,-56.641,-46.387,-133.301,0.000
1713985215.477,-144.043,-42.969,-47.363,-155.273,0.000
1713985215.481,-149.902,-39.062,-47.363,-175.293,0.000
1713985215.484,-150.879,-44.434,-39.062,-154.297,0.000
1713985215.488,-136.230,-37.598,-37.598,-129.395,0.000
1713985215.492,-129.883,-24.902,-31.250,-133.789,0.000
1713985215.496,-136.230,-33.203,-25.391,-154.297,0.000
1713985215.500,-130.859,-49.316,-36.621,-140.137,0.000
1713985215.504,-117.676,-52.734,-43.945,-106.934,0.000
1713985215.508,-110.352,-48.828,-31.738,-101.562,0.000
1713985215.512,-107.422,-52.734,-37.598,-119.141,0.000
1713985215.516,-99.609,-60.059,-45.898,-114.258,0.000
1713985215.520,-83.008,-57.617,-40.039,-75.684,0.000
1713985215.523,-59.082,-51.758,-45.410,-49.316,0.000
1713985215.527,-44.922,-51.270,-48.828,-58.594,0.000
1713985215.531,-55.176,-52.734,-53.711,-84.473,0.000
1713985215.535,-66.895,-68.359,-72.266,-70.801,0.000
1713985215.539,-46.387,-74.707,-79.590,-26.855,0.000
1713985215.543,-17.578,-74.219,-75.195,-15.137,0.000
1713985215.547,-32.715,-85.449,-74.707,-39.551,0.000
1713985215.551,-39.062,-87.402,-70.801,-35.645,0.000
1713985215.555,-11.719,-83.984,-58.594,12.695,0.000
1713985215.559,2.441,-83.008,-65.918,18.066,0.000
1713985215.563,-0.488,-82.031,-85.449,-18.066,0.000
1713985215.566,-5.371,-75.195,-88.379,-18.555,0.000
1713985215.570,-4.395,-81.055,-94.727,9.766,0.000
1713985215.574,15.137,-89.355,-99.609,34.180,0.000
1713985215.578,23.926,-80.078,-100.098,13.184,0.000
1713985215.582,5.371,-86.914,-109.375,-12.207,0.000
1713985215.586,0.977,-87.891,-92.773,3.906,0.000
1713985215.590,5.371,-88.379,-87.402,15.137,0.000
1713985215.594,6.348,-88.379,-89.844,-5.371,0.000
1713985215.598,-5.371,-83.008,-87.402,-29.297,0.000
1713985215.602,-12.207,-88.867,-101.562,-14.648,0.000
1713985215.605,-10.742,-89.844,-110.352,0.488,0.000
1713985215.609,-16.113,-80.078,-104.004,-17.090,0.000
1713985215.613,-18.555,-65.918,-92.773,-35.645,0.000
1713985215.617,-25.391,-52.246,-76.172,-30.762,0.000
1713985215.621,-34.668,-55.176,-73.730,-16.113,0.000
1713985215.625,-33.203,-70.801,-72.754,-16.113,0.000
1713985215.629,-36.133,-71.289,-71.289,-41.992,0.000
1713985215.633,-54.199,-77.148,-82.031,-62.500,0.000
1713985215.637,-58.105,-79.102,-83.984,-42.969,0.000
1713985215.641,-49.805,-60.059,-77.637,-33.691,0.000
1713985215.644,-51.270,-56.641,-75.195,-55.176,0.000
1713985215.648,-55.176,-58.594,-68.848,-75.195,0.000
1713985215.652,-60.059,-59.082,-78.125,-60.059,0.000
1713985215.656,-56.641,-58.594,-76.660,-39.062,0.000
1713985215.660,-53.711,-67.383,-77.148,-62.988,0.000
1713985215.664,-59.082,-69.824,-86.914,-87.891,0.000
1713985215.668,-75.195,-65.918,-94.727,-82.031,0.000
1713985215.672,-74.707,-67.871,-90.820,-56.641,0.000
1713985215.676,-57.129,-68.359,-74.707,-49.805,0.000
1713985215.680,-61.523,-60.547,-77.637,-70.312,0.000
1713985215.683,-85.449,-62.988,-89.355,-83.008,0.000
1713985215.687,-78.125,-72.266,-87.402,-62.500,0.000
1713985215.691,-67.871,-68.848,-83.984,-56.641,0.000
1713985215.695,-73.730,-53.711,-77.148,-82.520,0.000
1713985215.699,-76.660,-49.805,-76.172,-94.238,0.000
1713985215.703,-77.148,-52.246,-79.590,-78.125,0.000
1713985215.707,-71.289,-52.246,-72.754,-58.594,0.000
1713985215.711,-65.430,-54.199,-72.266,-76.660,0.000
1713985215.715,-71.777,-52.734,-69.824,-98.633,0.000
1713985215.718,-80.566,-55.664,-66.406,-75.684,0.000
1713985215.722,-65.430,-55.176,-67.871,-36.621,0.000
1713985215.726,-63.965,-50.781,-67.871,-55.176,0.000
1713985215.730,-73.730,-55.664,-69.336,-99.121,0.000
1713985215.734,-60.059,-60.059,-57.129,-84.961,0.000
1713985215.738,-55.176,-51.758,-62.500,-49.316,0.000
1713985215.742,-62.500,-49.805,-83.984,-57.129,0.000
1713985215.746,-64.941,-49.805,-68.848,-75.684,0.000
1713985215.750,-68.359,-50.293,-52.246,-69.824,0.000
1713985215.754,-62.500,-63.965,-70.801,-42.969,0.000
1713985215.758,-51.270,-66.895,-74.219,-30.273,0.000
1713985215.762,-51.758,-71.777,-70.801,-61.523,0.000
1713985215.765,-48.340,-75.195,-78.613,-73.730,0.000
1713985215.769,-41.016,-80.078,-77.637,-40.527,0.000
1713985215.773,-30.273,-81.543,-72.266,-20.996,0.000
1713985215.777,-35.645,-76.172,-69.824,-54.199,0.000
1713985215.781,-51.270,-82.031,-76.660,-82.031,0.000
1713985215.785,-50.781,-98.145,-85.938,-54.688,0.000
1713985215.789,-40.039,-92.285,-86.426,-22.461,0.000
1713985215.793,-28.320,-83.496,-90.332,-30.273,0.000
1713985215.797,-21.973,-82.031,-86.426,-48.828,0.000
1713985215.801,-21.973,-83.984,-86.426,-34.668,0.000
1713985215.805,-12.207,-90.332,-98.633,-6.836,0.000
1713985215.809,-7.324,-94.727,-106.445,-17.578,0.000
1713985215.812,-4.883,-92.285,-104.004,-35.156,0.000
1713985215.816,-0.977,-85.449,-99.121,-24.414,0.000
1713985215.820,-11.719,-91.309,-109.863,-4.883,0.000
1713985215.824,-6.348,-95.703,-118.652,3.418,0.000
1713985215.828,10.742,-89.355,-108.887,-5.859,0.000
1713985215.832,-2.441,-86.914,-111.816,-20.996,0.000
1713985215.836,-13.184,-79.590,-107.910,-16.113,0.000
1713985215.840,-8.789,-80.566,-99.609,1.465,0.000
1713985215.844,-4.883,-86.914,-101.074,-1.953,0.000
1713985215.848,-8.789,-80.566,-100.098,-22.949,0.000
1713985215.852,-27.344,-81.055,-102.539,-29.785,0.000
1713985215.855,-19.043,-82.031,-103.027,-2.441,0.000
1713985215.859,0.977,-74.219,-91.309,3.418,0.000
1713985215.863,-2.441,-81.543,-83.496,-20.508,0.000
1713985215.867,-9.277,-83.008,-85.449,-14.648,0.000
1713985215.871,-8.789,-80.566,-97.168,7.812,0.000
1713985215.875,5.371,-92.285,-106.445,20.020,0.000
1713985215.879,10.742,-86.426,-105.957,-0.488,0.000
1713985215.883,0.000,-92.285,-112.305,-16.602,0.000
1713985215.887,-0.977,-108.887,-114.746,6.836,0.000
1713985215.891,8.789,-100.586,-109.863,24.414,0.000
1713985215.895,19.531,-93.750,-94.238,6.836,0.000
1713985215.898,12.695,-102.539,-97.656,-12.695,0.000
1713985215.902,11.719,-111.328,-114.258,14.648,0.000
1713985215.906,29.297,-108.887,-114.746,49.805,0.000
1713985215.910,33.203,-111.816,-112.305,38.574,0.000
1713985215.914,30.273,-111.328,-111.816,19.043,0.000
1713985215.918,30.762,-114.258,-106.934,30.762,0.000
1713985215.922,42.480,-115.723,-113.770,63.965,0.000
1713985215.926,63.965,-100.586,-104.492,76.172,0.000
1713985215.930,65.918,-105.957,-97.168,50.293,0.000
1713985215.934,56.641,-115.234,-109.375,36.621,0.000
1713985215.937,53.711,-111.328,-117.188,57.129,0.000
1713985215.941,63.477,-106.934,-114.258,70.312,0.000
1713985215.945,60.059,-110.840,-118.164,40.527,0.000
1713985215.949,46.875,-120.117,-121.094,22.461,0.000
1713985215.953,49.805,-118.652,-117.676,49.805,0.000
1713985215.957,61.035,-119.629,-123.047,73.242,0.000
1713985215.961,77.148,-113.770,-121.094,66.895,0.000
1713985215.965,84.473,-114.258,-108.887,60.547,0.000
1713985215.969,66.895,-109.375,-120.605,62.500,0.000
1713985215.973,67.871,-98.633,-126.465,77.148,0.000
1713985215.977,76.660,-106.934,-127.441,75.195,0.000
1713985215.980,66.895,-126.953,-145.020,47.363,0.000
1713985215.984,63.477,-129.883,-142.578,50.293,0.000
1713985215.988,70.801,-111.816,-136.719,79.590,0.000
1713985215.992,81.055,-106.445,-131.836,83.496,0.000
1713985215.996,81.055,-108.398,-124.512,54.199,0.000
1713985216.000,68.848,-108.398,-129.395,41.504,0.000
1713985216.004,73.730,-111.816,-132.324,60.547,0.000
1713985216.008,85.938,-110.352,-140.625,80.078,0.000
1713985216.012,87.891,-105.469,-138.184,73.730,0.000
1713985216.016,78.613,-112.793,-137.207,56.641,0.000
1713985216.019,65.430,-129.395,-154.785,67.871,0.000
1713985216.023,69.824,-121.094,-150.391,82.031,0.000
1713985216.027,79.590,-108.887,-138.672,73.242,0.000
1713985216.031,76.172,-105.957,-124.023,66.406,0.000
1713985216.035,71.289,-101.074,-125.000,81.543,0.000
1713985216.039,68.848,-111.328,-141.113,94.727,0.000
1713985216.043,66.406,-110.352,-141.602,75.684,0.000
1713985216.047,64.453,-104.492,-148.926,55.664,0.000
1713985216.051,61.035,-109.863,-158.203,63.477,0.000
1713985216.054,70.801,-103.027,-155.273,92.773,0.000
1713985216.058,79.102,-100.098,-143.555,91.797,0.000
1713985216.062,75.195,-103.027,-131.836,57.129,0.000
1713985216.066,66.895,-113.281,-124.023,55.176,0.000
1713985216.070,55.664,-117.188,-134.277,81.543,0.000
1713985216.074,62.500,-101.074,-141.113,91.309,0.000
1713985216.078,66.895,-93.262,-141.113,66.406,0.000
1713985216.082,58.594,-92.285,-141.113,49.805,0.000
1713985216.086,54.688,-94.238,-143.066,62.988,0.000
1713985216.089,57.617,-91.797,-147.949,84.961,0.000
1713985216.093,58.594,-92.773,-150.391,71.289,0.000
1713985216.097,50.781,-99.609,-139.160,46.875,0.000
1713985216.101,42.969,-96.680,-127.441,60.547,0.000
1713985216.105,42.969,-93.262,-129.883,69.824,0.000
1713985216.109,56.152,-97.656,-134.277,60.059,0.000
1713985216.113,52.734,-98.633,-135.254,42.969,0.000
1713985216.117,37.598,-98.145,-136.719,39.551,0.000
1713985216.121,40.527,-92.773,-136.719,61.035,0.000
1713985216.125,56.152,-84.473,-128.906,73.242,0.000
1713985216.129,51.758,-86.914,-122.559,50.293,0.000
1713985216.133,41.992,-95.215,-118.652,32.227,0.000
1713985216.137,40.527,-103.027,-124.512,54.199,0.000
1713985216.140,41.016,-93.750,-130.371,69.824,0.000
1713985216.144,39.062,-96.680,-133.789,43.457,0.000
1713985216.148,35.156,-106.934,-131.836,18.066,0.000
1713985216.152,41.016,-100.098,-127.441,37.598,0.000
1713985216.156,43.945,-92.773,-118.652,62.500,0.000
1713985216.160,43.457,-89.844,-109.375,47.363,0.000
1713985216.164,44.922,-87.402,-104.980,23.438,0.000
1713985216.168,36.133,-89.844,-106.934,29.297,0.000
1713985216.172,31.250,-89.355,-114.746,51.270,0.000
1713985216.176,37.109,-78.613,-116.699,49.316,0.000
1713985216.180,31.738,-71.777,-116.699,20.996,0.000
1713985216.183,25.391,-82.520,-122.070,16.602,0.000
1713985216.187,26.855,-91.309,-122.559,40.527,0.000
1713985216.191,29.297,-87.891,-105.469,38.574,0.000
1713985216.195,28.809,-85.449,-93.750,15.625,0.000
1713985216.199,23.926,-83.984,-90.332,3.418,0.000
1713985216.203,17.578,-83.008,-103.516,22.949,0.000
1713985216.207,27.344,-91.309,-109.863,49.316,0.000
1713985216.211,38.086,-97.168,-105.469,33.691,0.000
1713985216.215,29.785,-87.891,-105.469,11.230,0.000
1713985216.219,20.020,-77.148,-102.051,20.508,0.000
1713985216.223,28.809,-74.707,-97.168,39.551,0.000
1713985216.227,27.832,-82.031,-99.121,21.484,0.000
1713985216.231,17.578,-91.797,-107.422,-4.883,0.000
1713985216.235,10.254,-97.168,-97.656,5.371,0.000
1713985216.239,8.301,-98.633,-85.938,24.902,0.000
1713985216.243,15.625,-95.703,-99.609,26.855,0.000
1713985216.246,18.555,-95.215,-104.004,-1.465,0.000
1713985216.250,6.836,-95.215,-100.586,-9.277,0.000
1713985216.254,1.953,-83.984,-96.680,13.672,0.000
1713985216.258,12.695,-79.590,-97.168,15.625,0.000
1713985216.262,12.207,-89.355,-104.980,-6.348,0.000
1713985216.266,7.324,-89.844,-99.121,-16.113,0.000
1713985216.270,1.465,-85.449,-82.520,5.371,0.000
1713985216.274,0.977,-97.168,-93.262,20.996,0.000
1713985216.278,7.812,-92.773,-96.680,6.836,0.000
1713985216.282,4.395,-84.961,-91.309,-14.160,0.000
1713985216.285,4.395,-88.867,-95.703,-0.488,0.000
1713985216.289,13.672,-82.520,-97.656,28.809,0.000
1713985216.293,8.301,-83.984,-104.492,13.184,0.000
1713985216.297,-11.230,-96.191,-111.328,-25.879,0.000
1713985216.301,-11.719,-87.891,-100.098,-15.137,0.000
1713985216.305,-10.254,-83.008,-97.168,13.672,0.000
1713985216.309,0.488,-90.332,-97.656,13.184,0.000
1713985216.313,10.742,-90.332,-85.938,-5.371,0.000
1713985216.317,3.418,-83.984,-86.914,-12.695,0.000
1713985216.321,-3.418,-91.309,-95.215,4.395,0.000
1713985216.325,0.488,-91.309,-96.191,13.184,0.000
1713985216.328,1.953,-81.055,-81.543,-4.883,0.000
1713985216.332,-3.906,-83.496,-77.148,-20.508,0.000
1713985216.336,-5.859,-98.145,-91.309,-11.719,0.000
1713985216.340,-3.906,-100.098,-99.121,5.859,0.000
1713985216.344,-2.441,-82.031,-95.703,-6.836,0.000
1713985216.348,-2.930,-84.961,-97.168,-35.645,0.000
1713985216.352,-10.254,-101.074,-94.238,-23.438,0.000
1713985216.356,-11.230,-97.168,-92.285,4.883,0.000
1713985216.360,7.812,-82.031,-85.449,11.719,0.000
1713985216.363,18.066,-76.660,-72.266,-6.836,0.000
1713985216.367,0.977,-82.520,-80.566,-11.230,0.000
1713985216.371,-2.930,-77.637,-95.703,14.160,0.000
1713985216.375,4.395,-68.848,-95.215,19.043,0.000
1713985216.379,-4.883,-77.637,-95.703,-12.207,0.000
1713985216.383,-13.672,-90.820,-98.633,-21.484,0.000
1713985216.387,-8.301,-83.984,-93.262,12.695,0.000
1713985216.391,-3.418,-71.289,-89.355,20.020,0.000
1713985216.395,-6.348,-75.195,-101.074,-8.789,0.000
1713985216.399,-7.324,-84.961,-105.469,-24.902,0.000
1713985216.403,-7.324,-84.961,-99.609,-13.184,0.000
1713985216.406,-1.465,-78.613,-92.285,3.418,0.000
1713985216.410,8.301,-76.172,-88.379,-1.953,0.000
1713985216.414,3.906,-83.008,-93.262,-23.926,0.000
1713985216.418,-5.371,-86.914,-93.750,-18.066,0.000
1713985216.422,-7.324,-93.262,-98.633,6.836,0.000
1713985216.426,4.395,-83.984,-88.867,4.883,0.000
1713985216.430,3.906,-79.590,-89.355,-12.695,0.000
1713985216.434,-9.766,-82.031,-101.562,-21.484,0.000
1713985216.438,-7.812,-80.566,-94.727,-0.977,0.000
1713985216.441,2.930,-83.008,-89.844,14.648,0.000
1713985216.445,3.906,-80.078,-94.727,-12.695,0.000
1713985216.449,3.418,-83.496,-94.727,-23.926,0.000
1713985216.453,0.000,-87.402,-93.750,2.441,0.000
1713985216.457,0.977,-86.914,-95.215,23.438,0.000
1713985216.461,3.418,-93.750,-94.727,6.836,0.000
1713985216.465,16.113,-89.355,-93.262,1.465,0.000
1713985216.469,24.902,-79.590,-97.656,23.438,0.000
1713985216.473,1.953,-82.031,-112.793,15.137,0.000
1713985216.476,-9.766,-88.379,-114.746,-2.441,0.000
1713985216.480,-0.977,-83.496,-107.910,-18.555,0.000
1713985216.484,5.859,-73.242,-99.609,-9.277,0.000
1713985216.488,11.719,-70.312,-97.656,22.949,0.000
1713985216.492,11.719,-71.289,-103.516,22.461,0.000
1713985216.496,13.672,-74.707,-101.562,-7.812,0.000
1713985216.500,7.324,-89.844,-102.539,-14.648,0.000
1713985216.504,3.906,-89.355,-101.074,15.137,0.000
1713985216.508,15.625,-73.242,-91.797,29.785,0.000
1713985216.512,20.020,-79.102,-90.820,5.371,0.000
1713985216.516,14.160,-80.078,-91.309,-17.090,0.000
1713985216.520,9.766,-79.590,-86.914,5.859,0.000
1713985216.523,0.488,-98.633,-94.238,17.578,0.000
1713985216.527,-2.930,-89.355,-106.445,-10.742,0.000
1713985216.531,0.000,-75.195,-108.398,-25.879,0.000
1713985216.535,-1.465,-83.496,-104.980,-2.930,0.000
1713985216.539,-4.395,-82.031,-98.633,8.301,0.000
1713985216.543,1.465,-76.172,-90.820,-5.859,0.000
1713985216.547,-0.488,-83.008,-85.449,-24.902,0.000
1713985216.551,-1.465,-85.449,-78.613,-17.090,0.000
1713985216.555,0.488,-89.844,-90.332,9.277,0.000
1713985216.559,8.301,-93.750,-96.191,14.648,0.000
1713985216.563,3.418,-89.844,-95.703,-10.742,0.000
1713985216.567,-17.090,-95.703,-107.422,-24.902,0.000
1713985216.570,-17.090,-100.586,-104.492,0.488,0.000
1713985216.574,-10.254,-115.723,-95.703,11.230,0.000
1713985216.578,-2.930,-112.305,-90.332,-1.465,0.000
1713985216.582,-11.230,-100.586,-92.285,-19.043,0.000
1713985216.586,-19.043,-104.004,-89.844,-11.719,0.000
1713985216.590,-3.418,-94.727,-91.797,12.695,0.000
1713985216.594,5.859,-96.680,-91.309,-5.371,0.000
1713985216.598,-1.953,-103.027,-91.309,-32.715,0.000
1713985216.602,-13.184,-102.539,-103.027,-28.320,0.000
1713985216.606,-12.695,-95.703,-103.516,-2.441,0.000
1713985216.610,1.465,-83.984,-91.797,2.930,0.000
1713985216.613,3.418,-78.613,-88.867,-17.578,0.000
1713985216.617,-9.277,-85.938,-86.426,-26.855,0.000
1713985216.621,-11.230,-96.680,-88.867,-11.230,0.000
1713985216.625,0.977,-103.027,-93.750,-1.465,0.000
1713985216.629,8.301,-94.238,-79.102,-19.531,0.000
1713985216.633,-1.953,-88.867,-79.590,-32.715,0.000
1713985216.637,-6.836,-90.332,-97.656,-11.230,0.000
1713985216.641,-2.441,-88.867,-99.121,3.418,0.000
1713985216.645,2.441,-83.984,-92.773,-13.184,0.000
1713985216.649,1.465,-78.125,-84.473,-30.273,0.000
1713985216.653,-7.324,-79.590,-84.961,-22.461,0.000
1713985216.656,-7.812,-88.867,-96.680,3.906,0.000
1713985216.660,-5.371,-103.516,-101.562,-0.977,0.000
1713985216.664,-7.324,-97.168,-96.191,-23.926,0.000
1713985216.668,-14.160,-86.914,-91.797,-18.066,0.000
1713985216.672,-16.602,-88.867,-88.379,11.230,0.000
1713985216.676,-7.324,-79.102,-96.191,7.812,0.000
1713985216.680,0.000,-85.449,-104.004,-14.160,0.000
1713985216.684,-3.906,-99.121,-95.703,-16.602,0.000
1713985216.688,-13.184,-92.285,-92.773,-6.348,0.000
1713985216.692,-10.742,-78.125,-92.285,-1.953,0.000
1713985216.695,-5.371,-75.684,-94.238,-22.949,0.000
1713985216.699,-14.648,-82.520,-95.703,-40.527,0.000
1713985216.703,-18.555,-87.891,-93.262,-20.020,0.000
1713985216.707,-6.836,-88.379,-88.379,8.301,0.000
1713985216.711,0.977,-77.148,-83.984,-8.301,0.000
1713985216.715,7.812,-72.266,-98.633,-27.832,0.000
1713985216.719,22.461,-76.660,-94.727,5.859,0.000
1713985216.723,14.160,-83.496,-77.637,16.602,0.000
1713985216.727,-6.348,-91.797,-75.195,-19.531,0.000
1713985216.731,-16.113,-101.074,-82.520,-49.316,0.000
1713985216.734,-7.812,-104.492,-81.055,-33.691,0.000
1713985216.738,0.977,-97.656,-79.590,2.441,0.000
1713985216.742,3.906,-92.285,-83.984,8.301,0.000
1713985216.746,2.441,-91.309,-82.520,-15.137,0.000
1713985216.750,-4.883,-80.078,-78.613,-18.066,0.000
1713985216.754,-11.230,-82.031,-83.008,4.883,0.000
1713985216.758,-9.277,-88.379,-92.285,9.766,0.000
1713985216.762,-9.766,-93.750,-101.562,-11.230,0.000
1713985216.766,-13.184,-91.309,-92.773,-28.809,0.000
1713985216.770,-20.508,-94.727,-88.867,-14.648,0.000
1713985216.774,-20.508,-98.145,-77.637,7.324,0.000
1713985216.777,-7.812,-91.797,-59.570,2.441,0.000
1713985216.781,-17.090,-86.426,-72.754,-21.484,0.000
1713985216.785,-28.320,-90.820,-84.473,-20.508,0.000
1713985216.789,-24.414,-95.215,-92.285,4.395,0.000
1713985216.793,-22.461,-95.215,-103.027,-2.441,0.000
1713985216.797,-25.879,-99.121,-108.887,-32.227,0.000
1713985216.801,-30.273,-96.191,-107.910,-30.273,0.000
1713985216.805,-25.879,-92.285,-87.402,2.441,0.000
1713985216.809,-17.090,-89.355,-68.359,13.672,0.000
1713985216.812,-21.484,-93.750,-78.613,-21.973,0.000
1713985216.816,-32.227,-107.910,-91.797,-35.156,0.000
1713985216.820,-32.227,-109.375,-82.031,-4.883,0.000
1713985216.824,-15.137,-92.285,-85.449,17.578,0.000
1713985216.828,-9.766,-90.332,-99.609,-6.348,0.000
1713985216.832,-17.090,-100.098,-91.309,-34.668,0.000
1713985216.836,-24.414,-96.191,-86.426,-22.949,0.000
1713985216.840,-23.926,-90.332,-93.262,2.441,0.000
1713985216.844,-16.113,-88.867,-85.449,-1.953,0.000
1713985216.847,-19.531,-96.680,-79.590,-30.273,0.000
1713985216.851,-26.855,-104.980,-82.031,-20.996,0.000
1713985216.855,-25.391,-104.492,-88.867,-3.418,0.000
1713985216.859,-11.719,-102.051,-82.520,-6.836,0.000
1713985216.863,-11.719,-87.402,-73.730,-32.227,0.000
1713985216.867,-29.297,-84.961,-74.707,-38.086,0.000
1713985216.871,-30.273,-82.520,-75.195,-10.742,0.000
1713985216.875,-17.090,-80.078,-82.031,-8.301,0.000
1713985216.879,-16.113,-87.402,-91.797,-33.203,0.000
1713985216.883,-24.902,-94.238,-87.891,-46.387,0.000
1713985216.887,-40.039,-94.238,-75.684,-34.668,0.000
1713985216.891,-33.691,-85.449,-75.195,-19.531,0.000
1713985216.894,-22.461,-87.402,-72.266,-29.785,0.000
1713985216.898,-30.762,-82.520,-69.824,-46.387,0.000
1713985216.902,-40.527,-69.336,-64.941,-41.504,0.000
1713985216.906,-30.762,-76.172,-69.824,-18.555,0.000
1713985216.910,-38.574,-89.844,-79.590,-35.156,0.000
1713985216.914,-71.777,-84.961,-67.383,-86.426,0.000
1713985216.918,-93.750,-82.520,-55.176,-104.980,0.000
1713985216.922,-104.492,-87.402,-41.504,-93.262,0.000
1713985216.926,-101.562,-74.219,-24.902,-98.633,0.000
1713985216.930,-110.840,-73.242,-30.273,-137.695,0.000
1713985216.934,-138.184,-90.820,-33.691,-165.039,0.000
1713985216.938,-153.320,-92.285,-26.855,-158.691,0.000
1713985216.941,-160.156,-88.379,-19.531,-164.551,0.000
1713985216.945,-169.922,-74.707,-16.602,-194.824,0.000
1713985216.949,-181.641,-71.289,-16.602,-214.355,0.000
1713985216.953,-188.477,-68.848,-16.113,-196.777,0.000
1713985216.957,-182.129,-61.035,3.418,-168.457,0.000
1713985216.961,-171.875,-63.477,18.066,-181.641,0.000
1713985216.965,-175.781,-79.102,-2.441,-201.660,0.000
1713985216.969,-169.922,-90.820,-21.484,-175.781,0.000
1713985216.973,-138.672,-91.797,-23.926,-137.207,0.000
1713985216.977,-110.352,-85.449,-38.574,-127.441,0.000
1713985216.981,-95.215,-86.914,-60.059,-128.906,0.000
1713985216.985,-79.590,-97.168,-65.430,-106.445,0.000
1713985216.988,-64.453,-98.633,-63.965,-64.453,0.000
1713985216.992,-45.898,-104.492,-70.312,-51.270,0.000
1713985216.996,-29.297,-113.770,-80.078,-65.430,0.000
1713985217.000,-24.902,-118.164,-85.449,-55.664,0.000
1713985217.004,-9.277,-115.723,-75.684,-14.648,0.000
1713985217.008,1.953,-111.816,-80.566,8.301,0.000
1713985217.012,8.789,-114.746,-90.820,2.441,0.000
1713985217.016,11.719,-110.352,-96.191,-3.906,0.000
1713985217.020,1.953,-114.746,-100.098,11.230,0.000
1713985217.024,16.602,-122.070,-104.980,40.527,0.000
1713985217.027,39.062,-111.816,-108.887,38.574,0.000
1713985217.031,35.645,-103.516,-111.328,11.719,0.000
1713985217.035,23.438,-109.375,-117.676,20.508,0.000
1713985217.039,31.738,-118.652,-124.512,53.711,0.000
1713985217.043,53.223,-120.117,-119.141,66.406,0.000
1713985217.047,51.758,-125.977,-107.422,52.246,0.000
1713985217.051,40.039,-127.930,-118.164,45.410,0.000
1713985217.055,35.645,-120.117,-133.789,59.570,0.000
1713985217.059,43.457,-107.910,-128.418,70.801,0.000
1713985217.063,52.734,-106.934,-121.094,45.410,0.000
1713985217.067,50.781,-108.398,-117.188,30.273,0.000
1713985217.070,50.293,-104.980,-114.746,58.105,0.000
1713985217.074,52.734,-103.516,-119.629,64.941,0.000
1713985217.078,52.246,-93.262,-124.023,39.062,0.000
1713985217.082,49.805,-99.121,-128.906,25.879,0.000
1713985217.086,48.828,-107.422,-121.094,43.457,0.000
1713985217.090,57.617,-104.980,-109.863,69.824,0.000
1713985217.094,63.965,-91.797,-117.188,59.570,0.000
1713985217.098,44.922,-89.844,-132.812,22.949,0.000
1713985217.102,34.180,-95.215,-131.836,30.273,0.000
1713985217.106,51.758,-92.773,-115.234,63.965,0.000
1713985217.109,51.270,-81.543,-110.352,59.082,0.000
1713985217.113,41.504,-80.566,-114.258,26.855,0.000
1713985217.117,35.156,-86.914,-116.699,18.066,0.000
1713985217.121,36.621,-83.984,-115.723,49.805,0.000
1713985217.125,37.598,-83.008,-111.816,56.641,0.000
1713985217.129,39.062,-94.238,-103.516,20.996,0.000
1713985217.133,36.133,-98.633,-111.328,7.812,0.000
1713985217.137,24.902,-104.492,-136.230,28.809,0.000
1713985217.141,32.227,-98.633,-130.371,43.457,0.000
1713985217.145,45.410,-81.055,-117.676,32.715,0.000
1713985217.148,28.809,-75.195,-119.629,7.324,0.000
1713985217.152,14.648,-83.496,-114.746,11.719,0.000
1713985217.156,31.738,-85.938,-112.793,42.480,0.000
1713985217.160,41.992,-79.102,-100.098,38.574,0.000
1713985217.164,31.250,-88.379,-98.633,6.348,0.000
1713985217.168,23.926,-99.609,-114.746,6.348,0.000
1713985217.172,22.461,-91.797,-113.770,29.785,0.000
1713985217.176,22.949,-91.309,-111.816,26.855,0.000
1713985217.180,19.531,-102.539,-115.234,0.488,0.000
1713985217.183,10.742,-94.238,-107.422,-2.441,0.000
1713985217.187,9.277,-78.613,-96.680,29.297,0.000
1713985217.191,12.207,-77.637,-98.633,39.551,0.000
1713985217.195,10.742,-80.078,-92.773,11.719,0.000
1713985217.199,6.836,-74.219,-97.656,-6.348,0.000
1713985217.203,3.418,-70.312,-115.723,5.371,0.000
1713985217.207,6.836,-73.730,-109.863,20.996,0.000
1713985217.211,10.742,-70.801,-100.098,4.883,0.000
1713985217.215,7.324,-69.336,-109.375,-15.137,0.000
1713985217.218,4.883,-60.547,-111.328,-0.488,0.000
1713985217.222,16.602,-64.941,-107.422,35.156,0.000
1713985217.226,26.855,-63.965,-108.398,37.109,0.000
1713985217.230,15.625,-57.129,-96.191,1.953,0.000
1713985217.234,1.465,-69.824,-90.820,-4.395,0.000
1713985217.238,2.441,-71.777,-104.492,19.043,0.000
1713985217.242,7.812,-62.988,-105.469,13.672,0.000
1713985217.246,9.277,-59.570,-95.215,-8.301,0.000
1713985217.250,1.465,-65.918,-98.145,-8.301,0.000
1713985217.254,-3.906,-71.289,-109.863,7.812,0.000
1713985217.258,-3.418,-71.289,-110.352,9.766,0.000
1713985217.262,-1.465,-61.523,-103.516,-11.230,0.000
1713985217.265,-5.371,-66.895,-98.145,-20.020,0.000
1713985217.269,-10.742,-77.637,-103.027,1.465,0.000
1713985217.273,-1.465,-69.824,-102.539,17.578,0.000
1713985217.277,0.000,-64.941,-100.586,2.930,0.000
1713985217.281,-8.789,-75.195,-114.746,-24.902,0.000
1713985217.285,-16.113,-87.891,-121.094,-16.113,0.000
1713985217.289,-18.555,-83.008,-111.328,2.930,0.000
1713985217.293,-8.789,-82.520,-105.957,0.000,0.000
1713985217.297,-6.348,-84.961,-106.445,-19.043,0.000
1713985217.301,-18.555,-80.566,-99.121,-20.508,0.000
1713985217.305,-22.461,-79.590,-94.727,4.395,0.000
1713985217.309,-6.836,-76.172,-101.562,13.672,0.000
1713985217.312,-2.441,-77.148,-99.121,-12.695,0.000
1713985217.316,-14.160,-80.078,-104.004,-30.273,0.000
1713985217.320,-13.184,-80.078,-107.422,-3.418,0.000
1713985217.324,-4.883,-81.055,-101.074,15.625,0.000
1713985217.328,-3.418,-76.660,-98.633,-0.977,0.000
1713985217.332,-3.418,-83.008,-103.027,-20.996,0.000
1713985217.336,-1.465,-80.566,-96.191,-3.906,0.000
1713985217.340,1.465,-74.707,-95.703,21.484,0.000
1713985217.344,6.836,-71.777,-84.961,10.254,0.000
1713985217.348,2.441,-68.359,-83.008,-10.254,0.000
1713985217.352,-7.812,-67.871,-100.098,-6.348,0.000
1713985217.356,-9.766,-75.195,-103.516,13.672,0.000
1713985217.359,-5.371,-83.984,-100.098,10.254,0.000
1713985217.363,-10.742,-90.332,-94.727,-17.090,0.000
1713985217.367,-15.625,-91.797,-92.773,-24.414,0.000
1713985217.371,-9.766,-87.891,-93.750,1.953,0.000
1713985217.375,1.953,-84.961,-91.309,20.020,0.000
1713985217.379,1.465,-74.707,-80.566,-4.395,0.000
1713985217.383,-14.160,-70.801,-87.891,-29.297,0.000
1713985217.387,-16.602,-77.148,-99.609,-7.324,0.000
1713985217.391,-8.789,-81.055,-91.309,11.230,0.000
1713985217.395,-2.930,-78.125,-86.914,-8.301,0.000
1713985217.399,-10.254,-83.984,-95.215,-32.715,0.000
1713985217.402,-9.766,-93.750,-101.562,-18.066,0.000
1713985217.406,-1.465,-96.680,-104.004,10.254,0.000
1713985217.410,2.930,-94.238,-96.191,0.488,0.000
1713985217.414,3.418,-96.191,-87.891,-22.461,0.000
1713985217.418,-9.766,-103.027,-98.633,-22.949,0.000
1713985217.422,-9.277,-94.238,-103.516,0.488,0.000
1713985217.426,-9.766,-83.984,-101.074,-2.930,0.000
1713985217.430,-17.578,-96.680,-108.398,-35.645,0.000
1713985217.434,-10.254,-96.191,-100.586,-32.227,0.000
1713985217.438,-4.883,-86.914,-93.750,-5.859,0.000
1713985217.441,2.930,-81.543,-96.680,7.324,0.000
1713985217.445,14.160,-79.102,-94.727,-4.395,0.000
1713985217.449,11.230,-80.566,-84.473,-12.207,0.000
1713985217.453,5.371,-79.590,-80.078,-1.465,0.000
1713985217.457,10.742,-95.703,-90.820,4.883,0.000
1713985217.461,11.719,-94.727,-93.750,-8.301,0.000
1713985217.465,0.000,-87.891,-100.098,-23.926,0.000
1713985217.469,-9.277,-83.984,-105.957,-14.648,0.000
1713985217.473,-0.977,-87.402,-96.191,7.812,0.000
1713985217.477,2.930,-91.309,-88.867,0.977,0.000
1713985217.481,0.000,-78.125,-93.262,-22.461,0.000
1713985217.484,-6.836,-76.172,-90.332,-20.996,0.000
1713985217.488,-7.812,-69.824,-83.984,6.836,0.000
1713985217.492,3.906,-73.242,-88.379,12.695,0.000
1713985217.496,6.348,-80.566,-89.355,-9.766,0.000
1713985217.500,-8.789,-81.543,-87.402,-18.066,0.000
1713985217.504,-17.090,-82.031,-95.215,-1.465,0.000
1713985217.508,-6.348,-86.426,-96.191,13.672,0.000
1713985217.512,-0.488,-87.891,-93.750,-4.395,0.000
1713985217.516,-11.230,-81.055,-94.727,-29.297,0.000
1713985217.520,-11.230,-89.844,-96.680,-7.812,0.000
1713985217.523,1.953,-84.961,-85.449,23.438,0.000
1713985217.527,4.883,-66.406,-76.172,6.348,0.000
1713985217.531,-2.441,-70.801,-86.426,-27.832,0.000
1713985217.535,-9.766,-84.473,-101.562,-23.926,0.000
1713985217.539,3.418,-88.867,-101.562,5.859,0.000
1713985217.543,19.043,-83.496,-97.168,9.766,0.000
1713985217.547,17.090,-78.613,-99.121,-17.090,0.000
1713985217.551,-2.930,-85.938,-107.910,-28.320,0.000
1713985217.555,-4.883,-88.379,-107.422,4.395,0.000
1713985217.558,8.789,-77.637,-97.168,23.438,0.000
1713985217.562,-2.930,-74.707,-83.008,-14.160,0.000
1713985217.566,-18.555,-89.355,-86.914,-30.762,0.000
1713985217.570,-23.926,-89.844,-96.680,-2.441,0.000
1713985217.574,-14.648,-77.148,-93.750,16.113,0.000
1713985217.578,-4.883,-87.402,-84.473,-5.371,0.000
1713985217.582,-24.414,-92.285,-88.867,-33.203,0.000
1713985217.586,-28.320,-84.473,-102.539,-18.555,0.000
1713985217.590,-13.672,-83.496,-105.469,1.953,0.000
1713985217.593,-13.672,-86.914,-99.609,-15.137,0.000
1713985217.597,-12.207,-95.703,-94.727,-28.320,0.000
1713985217.601,-10.254,-95.703,-81.055,-12.695,0.000
1713985217.605,-10.254,-82.520,-81.055,2.930,0.000
1713985217.609,-1.465,-76.172,-88.379,-0.977,0.000
1713985217.613,-1.953,-77.637,-89.844,-28.809,0.000
1713985217.617,-12.695,-80.078,-92.773,-31.250,0.000
1713985217.621,-9.277,-75.684,-82.520,1.465,0.000
1713985217.625,-6.836,-87.402,-84.473,7.324,0.000
1713985217.629,-9.766,-99.609,-101.074,-25.879,0.000
1713985217.633,-18.066,-93.262,-104.980,-42.480,0.000
1713985217.637,-18.555,-78.613,-93.750,-21.973,0.000
1713985217.640,-10.742,-75.684,-87.891,-6.836,0.000
1713985217.644,-6.836,-88.867,-106.934,-11.719,0.000
1713985217.648,-4.395,-93.262,-107.422,-23.926,0.000
1713985217.652,-11.719,-86.426,-93.262,-15.625,0.000
1713985217.656,-16.602,-85.449,-93.750,2.930,0.000
1713985217.660,-11.719,-99.121,-95.215,-5.371,0.000
1713985217.664,-13.184,-84.473,-78.613,-21.484,0.000
1713985217.668,-26.367,-75.195,-80.078,-26.367,0.000
1713985217.672,-19.531,-92.285,-92.285,2.930,0.000
1713985217.676,7.812,-86.426,-85.449,25.391,0.000
1713985217.680,-1.465,-79.590,-93.262,-18.066,0.000
1713985217.684,-17.578,-82.031,-98.633,-44.434,0.000
1713985217.687,-20.020,-82.520,-103.516,-20.508,0.000
1713985217.691,-9.766,-73.242,-107.422,-2.441,0.000
1713985217.695,-6.348,-73.242,-100.098,-23.438,0.000
1713985217.699,-18.066,-75.684,-104.004,-45.898,0.000
1713985217.703,-14.648,-73.242,-111.816,-16.602,0.000
1713985217.707,-14.648,-86.426,-101.074,4.395,0.000
1713985217.711,-10.254,-79.590,-83.984,-12.695,0.000
1713985217.715,-13.184,-81.543,-88.867,-33.691,0.000
1713985217.719,-24.414,-93.750,-101.562,-33.203,0.000
1713985217.723,-11.719,-76.172,-92.285,-4.883,0.000
1713985217.727,-3.906,-76.660,-82.520,-7.324,0.000
1713985217.731,-10.742,-96.191,-89.355,-31.738,0.000
1713985217.734,-13.672,-92.773,-94.727,-20.508,0.000
1713985217.738,-9.277,-93.262,-86.426,10.254,0.000
1713985217.742,-9.277,-105.469,-83.008,5.859,0.000
1713985217.746,-15.137,-100.586,-98.633,-23.926,0.000
1713985217.750,-15.625,-88.379,-104.004,-20.020,0.000
1713985217.754,-13.672,-82.520,-92.773,2.441,0.000
1713985217.758,-18.555,-83.496,-86.426,1.465,0.000
1713985217.762,-23.926,-94.727,-92.285,-23.438,0.000
1713985217.766,-23.438,-100.098,-92.285,-28.809,0.000
1713985217.770,-19.043,-98.145,-95.703,-7.324,0.000
1713985217.773,-10.742,-88.867,-99.609,6.348,0.000
1713985217.777,-5.859,-84.961,-89.355,-5.371,0.000
1713985217.781,-1.465,-87.402,-93.750,-21.973,0.000
1713985217.785,-13.184,-86.914,-104.492,-19.531,0.000
1713985217.789,-15.137,-84.961,-100.586,0.000,0.000
1713985217.793,1.465,-87.891,-98.633,0.488,0.000
1713985217.797,4.883,-88.379,-87.402,-13.184,0.000
1713985217.801,-11.230,-83.496,-90.820,-22.461,0.000
1713985217.805,-12.207,-93.262,-99.609,-7.324,0.000
1713985217.809,3.418,-94.238,-86.426,7.812,0.000
1713985217.813,5.371,-75.684,-84.961,-6.836,0.000
1713985217.816,-10.742,-79.590,-91.309,-24.902,0.000
1713985217.820,-17.578,-96.680,-87.402,-9.277,0.000
1713985217.824,-1.953,-92.285,-81.543,11.719,0.000
1713985217.828,-0.488,-88.379,-87.891,-12.695,0.000
1713985217.832,-13.672,-87.402,-93.750,-30.762,0.000
1713985217.836,-13.184,-95.703,-91.309,-5.371,0.000
1713985217.840,-6.348,-105.469,-95.215,15.137,0.000
1713985217.844,2.441,-84.961,-85.938,1.465,0.000
1713985217.848,-3.906,-81.055,-79.102,-26.367,0.000
1713985217.852,-23.438,-99.121,-94.238,-31.250,0.000
1713985217.855,-19.043,-95.703,-87.891,-3.906,0.000
1713985217.860,-7.812,-83.984,-83.984,-5.371,0.000
1713985217.864,-11.230,-95.215,-97.168,-34.668,0.000
1713985217.867,-17.578,-107.422,-92.285,-39.062,0.000
1713985217.871,-15.625,-97.656,-97.168,-18.555,0.000
1713985217.875,-5.371,-93.750,-106.934,-0.977,0.000
1713985217.879,-7.324,-96.191,-93.262,-16.602,0.000
1713985217.883,-13.184,-89.844,-85.938,-29.297,0.000
1713985217.887,-11.719,-91.797,-90.820,-2.930,0.000
1713985217.891,-8.789,-82.520,-82.031,13.672,0.000
1713985217.895,-8.789,-80.078,-85.449,-10.254,0.000
1713985217.899,-11.719,-87.402,-97.168,-39.551,0.000
1713985217.903,-6.348,-88.867,-84.961,-19.043,0.000
1713985217.903,-6.348,-88.867,-84.961,-19.043,0.000
1713985217.906,3.418,-87.891,-95.215,13.184,0.000
1713985217.910,23.926,-89.844,-96.191,16.602,0.000
1713985217.914,9.766,-98.633,-85.938,-20.508,0.000
1713985217.918,-25.391,-95.215,-98.145,-43.457,0.000
1713985217.922,-29.297,-93.750,-98.145,-14.160,0.000
1713985217.926,-20.020,-93.750,-91.309,-5.371,0.000
1713985217.930,-14.160,-89.355,-76.660,-18.555,0.000
1713985217.934,-19.043,-89.844,-70.801,-27.344,0.000
1713985217.938,-18.066,-94.238,-82.520,-4.395,0.000
1713985217.942,-10.254,-99.609,-82.031,9.277,0.000
1713985217.946,-6.836,-105.957,-81.055,-6.348,0.000
1713985217.949,-22.461,-107.422,-99.121,-30.273,0.000
1713985217.953,-34.180,-107.422,-100.098,-21.484,0.000
1713985217.957,-24.902,-112.793,-90.332,7.324,0.000
1713985217.961,-18.066,-107.422,-88.379,-3.418,0.000
1713985217.965,-22.949,-99.609,-91.309,-31.738,0.000
1713985217.969,-31.250,-98.145,-91.309,-32.715,0.000
1713985217.973,-27.832,-96.191,-86.426,-3.418,0.000
1713985217.977,-17.578,-104.492,-81.543,1.953,0.000
1713985217.980,-15.625,-95.703,-78.613,-34.180,0.000
1713985217.984,-16.602,-83.008,-82.031,-37.109,0.000
1713985217.988,-24.414,-99.121,-96.191,-16.602,0.000
1713985217.992,-26.367,-105.957,-100.098,-19.531,0.000
1713985217.996,-17.578,-83.984,-94.238,-41.016,0.000
1713985218.000,-12.695,-75.684,-90.820,-39.551,0.000
1713985218.004,-14.160,-82.520,-81.543,-7.324,0.000
1713985218.008,-13.184,-83.008,-79.590,7.324,0.000
1713985218.012,-11.230,-82.031,-87.891,-16.113,0.000
1713985218.016,-14.648,-92.285,-90.332,-34.180,0.000
1713985218.020,-27.832,-105.469,-99.121,-17.578,0.000
1713985218.024,-23.438,-93.750,-100.586,0.488,0.000
1713985218.028,-17.578,-83.984,-91.309,-13.184,0.000
1713985218.031,-24.414,-89.844,-92.285,-39.062,0.000
1713985218.035,-18.066,-90.332,-85.449,-22.461,0.000
1713985218.039,-14.648,-81.055,-71.289,6.836,0.000
1713985218.043,-17.090,-82.520,-80.566,-8.301,0.000
1713985218.047,-18.066,-92.773,-93.750,-41.016,0.000
1713985218.051,-20.020,-100.098,-97.656,-38.574,0.000
1713985218.055,-16.113,-95.703,-92.773,-6.836,0.000
1713985218.059,-11.719,-86.914,-94.727,-3.418,0.000
1713985218.063,-11.719,-83.008,-85.938,-26.367,0.000
1713985218.067,-17.578,-91.797,-69.824,-32.227,0.000
1713985218.071,-28.809,-104.492,-80.078,-21.484,0.000
1713985218.074,-29.297,-87.402,-93.262,-13.184,0.000
1713985218.078,-28.809,-71.289,-90.332,-31.250,0.000
1713985218.082,-39.062,-75.684,-79.102,-46.875,0.000
1713985218.086,-38.574,-71.289,-74.707,-34.180,0.000
1713985218.090,-35.156,-72.754,-79.590,-28.320,0.000
1713985218.094,-39.062,-82.031,-78.125,-43.945,0.000
1713985218.098,-49.316,-88.867,-69.336,-71.777,0.000
1713985218.102,-64.941,-83.496,-63.965,-80.078,0.000
1713985218.106,-73.242,-81.543,-82.520,-67.383,0.000
1713985218.110,-70.312,-86.914,-82.031,-73.242,0.000
1713985218.114,-76.660,-84.961,-70.801,-102.051,0.000
1713985218.117,-102.051,-83.008,-77.148,-133.301,0.000
1713985218.121,-114.258,-74.707,-59.082,-125.488,0.000
1713985218.125,-116.211,-72.754,-44.922,-113.770,0.000
1713985218.129,-133.789,-72.754,-43.457,-149.902,0.000
1713985218.133,-153.320,-77.148,-37.109,-183.105,0.000
1713985218.137,-153.809,-76.172,-24.414,-162.598,0.000
1713985218.141,-149.902,-67.871,-14.160,-145.020,0.000
1713985218.145,-160.156,-64.941,-8.301,-177.246,0.000
1713985218.149,-174.805,-61.035,-9.277,-208.008,0.000
1713985218.153,-178.711,-70.801,-11.719,-193.359,0.000
1713985218.157,-170.410,-76.660,-3.906,-166.504,0.000
1713985218.160,-158.203,-59.082,3.418,-163.574,0.000
1713985218.164,-153.809,-56.641,-0.488,-184.570,0.000
1713985218.168,-150.391,-69.336,-20.508,-177.246,0.000
1713985218.172,-138.184,-74.219,-35.645,-142.090,0.000
1713985218.176,-120.605,-71.289,-17.578,-127.441,0.000
1713985218.180,-107.910,-67.871,-4.883,-134.766,0.000
1713985218.184,-112.305,-69.336,-24.902,-139.160,0.000
1713985218.188,-104.980,-71.777,-38.086,-109.375,0.000
1713985218.192,-83.984,-77.148,-45.898,-72.754,0.000
1713985218.196,-68.848,-75.684,-62.988,-81.055,0.000
1713985218.199,-60.547,-76.660,-68.359,-94.238,0.000
1713985218.203,-50.781,-88.867,-73.242,-58.105,0.000
1713985218.207,-31.738,-88.867,-73.242,-23.438,0.000
1713985218.211,-23.926,-91.797,-77.148,-39.062,0.000
1713985218.215,-20.508,-102.539,-91.797,-49.316,0.000
1713985218.219,-15.625,-95.215,-84.473,-26.367,0.000
1713985218.223,-14.160,-99.121,-88.867,-1.953,0.000
1713985218.227,-0.977,-98.145,-106.445,0.977,0.000
1713985218.231,6.348,-90.332,-99.121,-18.066,0.000
1713985218.235,-1.465,-99.121,-102.051,-17.578,0.000
1713985218.238,-0.977,-97.168,-107.910,9.277,0.000
1713985218.242,24.902,-82.031,-99.609,32.227,0.000
1713985218.246,30.762,-75.684,-90.332,17.090,0.000
1713985218.250,17.578,-83.496,-81.055,0.000,0.000
1713985218.254,9.766,-96.191,-95.215,9.766,0.000
1713985218.258,14.648,-92.285,-106.934,25.879,0.000
1713985218.262,12.207,-91.797,-108.887,4.395,0.000
1713985218.266,-14.648,-86.914,-110.352,-42.969,0.000
1713985218.270,-32.715,-77.148,-104.980,-40.527,0.000
1713985218.274,-29.785,-67.871,-92.285,-24.414,0.000
1713985218.278,-37.109,-55.664,-85.449,-60.059,0.000
1713985218.281,-47.363,-49.805,-86.426,-95.703,0.000
1713985218.285,-52.734,-46.387,-87.891,-92.285,0.000
1713985218.289,-56.641,-42.480,-81.055,-72.754,0.000
1713985218.293,-58.105,-44.922,-65.430,-74.219,0.000
1713985218.297,-62.012,-61.035,-61.523,-96.680,0.000
1713985218.301,-68.359,-79.590,-66.406,-97.656,0.000
1713985218.305,-62.500,-71.289,-73.730,-61.035,0.000
1713985218.309,-68.848,-55.176,-76.172,-59.570,0.000
1713985218.313,-66.406,-60.547,-73.242,-86.914,0.000
1713985218.316,-58.105,-63.477,-67.383,-86.426,0.000
1713985218.320,-63.965,-62.988,-58.594,-66.406,0.000
1713985218.324,-53.711,-68.848,-71.777,-45.898,0.000
1713985218.328,-35.645,-75.684,-90.332,-53.223,0.000
1713985218.332,-27.832,-83.496,-104.004,-62.988,0.000
1713985218.336,-22.949,-96.680,-111.816,-36.133,0.000
1713985218.340,-3.906,-95.215,-107.910,6.348,0.000
1713985218.344,15.137,-91.797,-100.098,8.789,0.000
1713985218.348,13.672,-111.328,-107.422,-17.578,0.000
1713985218.351,4.395,-120.605,-121.094,-0.977,0.000
1713985218.355,13.184,-108.887,-121.094,33.691,0.000
1713985218.359,30.273,-102.051,-108.887,39.062,0.000
1713985218.363,31.738,-113.281,-116.211,12.695,0.000
1713985218.367,30.762,-111.328,-128.418,7.812,0.000
1713985218.371,39.551,-113.770,-129.395,41.016,0.000
1713985218.375,53.223,-123.047,-129.883,60.547,0.000
1713985218.379,51.758,-125.488,-129.883,36.621,0.000
1713985218.383,40.039,-119.629,-133.301,19.043,0.000
1713985218.387,40.039,-114.258,-140.625,39.062,0.000
1713985218.391,54.688,-112.305,-140.137,67.871,0.000
1713985218.395,61.035,-120.605,-128.418,53.223,0.000
1713985218.399,61.035,-126.953,-126.465,33.691,0.000
1713985218.402,54.199,-126.953,-130.859,48.828,0.000
1713985218.406,48.828,-120.605,-136.230,68.848,0.000
1713985218.410,59.570,-108.398,-130.859,69.336,0.000
1713985218.414,57.129,-99.609,-117.188,45.898,0.000
1713985218.418,40.527,-107.910,-124.512,43.457,0.000
1713985218.422,42.480,-110.840,-133.301,71.289,0.000
1713985218.426,53.711,-110.840,-133.301,72.266,0.000
1713985218.430,55.176,-113.281,-125.977,47.363,0.000
1713985218.434,43.457,-109.863,-127.441,33.691,0.000
1713985218.438,43.457,-102.539,-130.859,55.176,0.000
1713985218.442,59.082,-100.586,-125.488,72.266,0.000
1713985218.445,61.523,-96.680,-120.117,49.316,0.000
1713985218.449,49.316,-97.168,-123.047,25.879,0.000
1713985218.453,46.387,-102.539,-127.441,36.621,0.000
1713985218.457,56.152,-106.934,-121.094,62.988,0.000
1713985218.461,56.641,-95.703,-123.047,50.781,0.000
1713985218.465,50.293,-87.891,-126.465,21.973,0.000
1713985218.469,44.434,-104.492,-118.652,31.738,0.000
1713985218.473,41.504,-112.793,-117.188,55.176,0.000
1713985218.477,44.434,-92.773,-119.629,43.945,0.000
1713985218.481,43.457,-83.984,-121.582,17.090,0.000
1713985218.485,31.738,-95.703,-126.953,14.648,0.000
1713985218.489,33.203,-101.562,-127.441,43.457,0.000
1713985218.492,45.898,-99.609,-115.723,55.176,0.000
1713985218.496,51.758,-103.516,-104.004,28.320,0.000
1713985218.500,38.574,-116.699,-115.723,17.578,0.000
1713985218.504,20.020,-107.910,-123.535,36.133,0.000
1713985218.508,28.809,-95.215,-105.469,52.246,0.000
1713985218.512,41.504,-97.168,-101.562,41.504,0.000
1713985218.516,31.738,-96.680,-102.539,14.160,0.000
1713985218.520,20.020,-96.191,-106.934,17.578,0.000
1713985218.524,23.438,-106.934,-116.699,47.363,0.000
1713985218.528,34.180,-97.656,-111.328,42.480,0.000
1713985218.531,28.320,-94.727,-104.492,11.719,0.000
1713985218.535,23.438,-111.816,-106.445,18.066,0.000
1713985218.539,25.391,-112.793,-95.215,38.574,0.000
1713985218.543,32.227,-100.586,-93.262,38.086,0.000
1713985218.547,30.762,-95.215,-106.934,16.113,0.000
1713985218.551,8.301,-96.680,-104.980,1.465,0.000
1713985218.555,0.488,-107.422,-109.375,21.484,0.000
1713985218.559,10.742,-108.398,-117.676,27.344,0.000
1713985218.563,12.207,-104.980,-109.375,-3.906,0.000
1713985218.567,8.789,-100.098,-108.887,-17.578,0.000
1713985218.571,9.766,-99.609,-110.840,5.859,0.000
1713985218.575,16.602,-104.980,-105.469,28.809,0.000
1713985218.579,25.879,-100.586,-94.238,22.461,0.000
1713985218.583,19.531,-107.422,-89.844,5.371,0.000
1713985218.587,9.277,-108.398,-104.004,11.230,0.000
1713985218.590,13.672,-102.051,-113.770,30.762,0.000
1713985218.594,15.625,-86.426,-98.145,28.809,0.000
1713985218.598,5.371,-86.914,-94.238,-0.488,0.000
1713985218.602,0.977,-102.051,-103.516,-4.395,0.000
1713985218.606,13.184,-94.727,-97.168,25.879,0.000
1713985218.610,19.043,-85.449,-82.031,28.809,0.000
1713985218.614,10.742,-92.773,-80.078,-0.488,0.000
1713985218.618,6.836,-99.609,-91.797,-10.254,0.000
1713985218.622,7.324,-95.215,-97.656,14.160,0.000
1713985218.626,8.301,-86.914,-87.402,28.809,0.000
1713985218.629,6.836,-90.820,-84.473,8.301,0.000
1713985218.633,-4.883,-105.957,-87.402,-16.602,0.000
1713985218.637,-8.789,-101.562,-93.262,0.488,0.000
1713985218.641,1.465,-89.844,-87.402,24.414,0.000
1713985218.645,2.930,-89.355,-71.289,7.812,0.000
1713985218.649,-0.977,-92.285,-78.125,-9.766,0.000
1713985218.653,-10.254,-101.562,-97.168,5.371,0.000
1713985218.657,-9.766,-92.773,-89.844,23.926,0.000
1713985218.661,-4.395,-84.961,-81.055,10.254,0.000
1713985218.664,-13.184,-95.215,-87.402,-22.949,0.000
1713985218.668,-21.484,-101.074,-78.613,-13.184,0.000
1713985218.672,-9.766,-95.215,-70.801,18.555,0.000
1713985218.676,-0.488,-102.539,-80.078,18.066,0.000
1713985218.680,0.488,-103.516,-83.496,0.488,0.000
1713985218.684,-0.488,-91.309,-83.008,-13.672,0.000
1713985218.688,-1.953,-91.309,-90.820,-3.906,0.000
1713985218.692,1.953,-87.891,-99.121,18.555,0.000
1713985218.696,2.441,-85.938,-100.586,6.348,0.000
1713985218.700,-7.812,-90.820,-99.609,-15.625,0.000
1713985218.703,-9.766,-89.844,-96.191,-6.836,0.000
1713985218.707,2.441,-95.703,-88.379,19.043,0.000
1713985218.711,10.742,-96.191,-83.984,12.207,0.000
1713985218.715,7.812,-90.820,-89.844,-12.695,0.000
1713985218.719,-4.395,-95.703,-94.238,-9.766,0.000
1713985218.723,-7.812,-97.656,-98.633,9.277,0.000
1713985218.727,1.465,-92.285,-96.191,12.695,0.000
1713985218.731,-4.395,-86.426,-85.449,-17.578,0.000
1713985218.735,-13.672,-94.238,-95.215,-23.438,0.000
1713985218.738,-11.719,-102.051,-99.121,8.301,0.000
1713985218.742,-7.324,-98.145,-84.473,12.695,0.000
1713985218.746,1.465,-93.750,-73.730,-8.301,0.000
1713985218.750,5.371,-90.332,-74.219,-16.602,0.000
1713985218.754,2.930,-97.168,-82.520,0.000,0.000
1713985218.758,4.395,-95.215,-95.703,7.324,0.000
1713985218.762,3.906,-91.309,-109.863,-18.555,0.000
1713985218.766,-3.418,-93.262,-117.188,-38.086,0.000
1713985218.770,-2.441,-86.914,-105.957,-12.695,0.000
1713985218.774,2.930,-88.379,-94.238,9.277,0.000
1713985218.778,5.859,-85.449,-91.309,-2.441,0.000
1713985218.782,10.742,-81.055,-89.355,-22.949,0.000
1713985218.785,0.977,-89.355,-89.844,-20.508,0.000
1713985218.789,-8.789,-90.820,-87.891,-3.418,0.000
1713985218.793,0.977,-92.285,-92.285,-4.395,0.000
1713985218.797,3.906,-94.727,-104.980,-25.391,0.000
1713985218.801,-2.441,-91.309,-100.586,-28.809,0.000
1713985218.805,6.348,-92.285,-92.773,13.672,0.000
1713985218.809,17.090,-85.449,-90.820,34.180,0.000
1713985218.813,10.742,-87.402,-99.121,-2.930,0.000
1713985218.817,2.441,-91.309,-108.887,-22.949,0.000
1713985218.821,-1.953,-81.055,-96.191,0.488,0.000
1713985218.825,-1.465,-82.031,-84.473,13.184,0.000
1713985218.829,5.371,-89.355,-96.680,-5.859,0.000
1713985218.832,3.906,-91.797,-102.539,-26.855,0.000
1713985218.836,-3.418,-87.891,-92.285,-21.973,0.000
1713985218.840,-1.465,-95.215,-98.145,1.953,0.000
1713985218.844,4.883,-101.074,-107.422,1.953,0.000
1713985218.848,-2.441,-89.844,-108.398,-31.738,0.000
1713985218.852,-10.742,-90.820,-104.004,-33.203,0.000
1713985218.856,-5.859,-101.074,-94.238,0.977,0.000
1713985218.860,2.441,-91.309,-82.031,8.789,0.000
1713985218.864,0.488,-78.613,-87.891,-8.301,0.000
1713985218.868,-7.324,-81.543,-106.934,-18.555,0.000
1713985218.872,-5.859,-83.984,-99.609,-0.488,0.000
1713985218.875,-2.930,-99.121,-90.820,14.160,0.000
1713985218.879,0.000,-93.262,-93.262,-8.789,0.000
1713985218.883,-4.395,-75.684,-94.238,-27.344,0.000
1713985218.887,-10.742,-85.449,-99.121,-13.184,0.000
1713985218.891,-8.789,-98.145,-104.980,3.418,0.000
1713985218.895,-2.930,-94.238,-91.309,-5.859,0.000
1713985218.899,-7.812,-84.961,-78.613,-19.531,0.000
1713985218.903,-17.578,-88.867,-95.215,-14.160,0.000
1713985218.907,-9.766,-92.285,-107.422,4.883,0.000
1713985218.911,-0.977,-89.844,-105.469,5.371,0.000
1713985218.915,-0.977,-88.379,-110.352,-18.555,0.000
1713985218.918,-7.812,-97.168,-112.793,-23.438,0.000
1713985218.922,-14.160,-96.680,-106.934,2.930,0.000
1713985218.926,-9.766,-77.637,-98.633,1.953,0.000
1713985218.930,-8.789,-73.730,-94.238,-22.949,0.000
1713985218.934,-18.555,-78.613,-87.891,-33.203,0.000
1713985218.938,-17.578,-85.449,-79.102,-12.695,0.000
1713985218.942,-7.324,-87.891,-83.496,7.324,0.000
1713985218.946,-4.395,-79.102,-89.355,-8.301,0.000
1713985218.950,-15.625,-80.078,-100.098,-38.574,0.000
1713985218.954,-16.113,-85.938,-106.934,-32.227,0.000
1713985218.957,11.230,-79.590,-100.098,7.324,0.000
1713985218.961,27.832,-78.613,-92.773,5.859,0.000
1713985218.965,21.973,-94.238,-91.797,-21.484,0.000
1713985218.969,8.301,-101.074,-100.098,-21.973,0.000
1713985218.973,0.000,-96.191,-99.609,0.000,0.000
1713985218.977,7.324,-86.426,-88.379,4.395,0.000
1713985218.981,4.395,-83.984,-93.262,-19.043,0.000
1713985218.985,-10.254,-90.820,-95.703,-21.484,0.000
1713985218.989,-16.602,-95.215,-94.238,2.441,0.000
1713985218.993,-9.277,-97.168,-102.051,10.254,0.000
1713985218.996,-6.836,-90.332,-102.051,-8.789,0.000
1713985219.000,-20.020,-91.797,-105.957,-24.902,0.000
1713985219.004,-19.043,-98.145,-102.539,-3.906,0.000
1713985219.008,-10.254,-101.074,-86.914,20.508,0.000
1713985219.012,-2.930,-102.539,-92.773,13.672,0.000
1713985219.016,-4.395,-92.773,-97.168,-10.254,0.000
1713985219.020,-20.996,-87.402,-98.145,-22.461,0.000
1713985219.024,-19.043,-83.008,-101.562,-5.371,0.000
1713985219.028,-6.836,-72.754,-94.727,-10.742,0.000
1713985219.031,-12.695,-71.777,-94.727,-39.551,0.000
1713985219.035,-17.090,-74.707,-97.656,-39.062,0.000
1713985219.039,-15.137,-72.266,-99.121,-18.066,0.000
1713985219.043,-11.230,-70.801,-96.191,-11.719,0.000
1713985219.047,-14.648,-69.824,-94.238,-32.715,0.000
1713985219.051,-22.461,-75.195,-99.121,-34.668,0.000
1713985219.055,-20.020,-83.008,-103.516,-8.789,0.000
1713985219.059,-8.301,-82.031,-93.750,0.000,0.000
1713985219.063,-3.418,-77.637,-83.984,-21.484,0.000
1713985219.067,-7.324,-82.031,-90.820,-37.598,0.000
1713985219.071,-6.836,-78.613,-87.891,-12.207,0.000
1713985219.074,-4.395,-78.613,-84.473,8.301,0.000
1713985219.078,-2.441,-80.078,-96.680,-16.113,0.000
1713985219.082,-4.395,-78.613,-98.633,-37.109,0.000
1713985219.086,-16.113,-81.055,-96.191,-25.879,0.000
1713985219.090,-12.207,-85.938,-106.934,-1.953,0.000
1713985219.094,-3.906,-84.961,-112.793,-1.465,0.000
1713985219.098,-8.789,-89.355,-102.051,-15.137,0.000
1713985219.102,-16.113,-99.121,-100.586,-15.625,0.000
1713985219.105,-8.789,-96.680,-99.121,3.418,0.000
1713985219.109,9.766,-83.984,-81.055,13.672,0.000
1713985219.113,2.441,-85.938,-76.172,-16.113,0.000
1713985219.117,-11.230,-87.402,-103.027,-32.227,0.000
1713985219.121,-6.836,-75.684,-112.793,-3.906,0.000
1713985219.125,-3.906,-73.730,-104.980,11.719,0.000
1713985219.129,-5.859,-86.914,-106.445,-15.137,0.000
1713985219.133,-6.348,-91.309,-101.074,-35.156,0.000
1713985219.137,-10.254,-94.727,-94.727,-18.555,0.000
1713985219.141,-1.953,-97.656,-91.797,1.953,0.000
1713985219.145,8.789,-82.031,-89.844,2.441,0.000
1713985219.149,-0.488,-77.148,-82.520,-29.785,0.000
1713985219.153,-8.301,-85.449,-77.148,-32.715,0.000
1713985219.156,-2.441,-83.496,-84.473,-2.930,0.000
1713985219.160,4.395,-78.125,-94.727,2.930,0.000
1713985219.164,-2.441,-80.078,-101.562,-25.879,0.000
1713985219.168,-8.789,-85.449,-105.957,-34.668,0.000
1713985219.172,-4.883,-95.215,-101.562,-7.812,0.000
1713985219.176,3.418,-93.750,-98.633,5.371,0.000
1713985219.180,4.395,-91.309,-96.191,-13.672,0.000
1713985219.184,-6.348,-89.355,-83.496,-31.738,0.000
1713985219.188,-8.789,-89.355,-95.703,-13.672,0.000
1713985219.192,5.859,-94.727,-92.285,14.160,0.000
1713985219.196,7.812,-95.703,-82.520,-5.859,0.000
1713985219.200,-2.441,-85.449,-92.285,-30.273,0.000
1713985219.203,-11.230,-80.078,-105.469,-12.207,0.000
1713985219.207,-1.465,-84.473,-108.398,19.043,0.000
1713985219.211,9.766,-76.172,-96.680,9.277,0.000
1713985219.215,2.441,-78.125,-90.820,-23.438,0.000
1713985219.219,-4.395,-87.891,-86.426,-13.184,0.000
1713985219.223,-2.930,-86.426,-92.285,7.812,0.000
1713985219.227,5.859,-76.172,-92.285,8.789,0.000
1713985219.231,0.488,-83.984,-86.426,-17.578,0.000
1713985219.235,-14.160,-96.191,-100.586,-29.297,0.000
1713985219.239,-8.301,-97.168,-105.957,-1.465,0.000
1713985219.243,1.465,-92.773,-95.703,14.648,0.000
1713985219.246,-2.441,-92.285,-91.797,-12.207,0.000
1713985219.250,-9.766,-101.562,-96.680,-24.902,0.000
1713985219.254,-14.160,-94.727,-96.680,-9.766,0.000
1713985219.258,-7.324,-85.938,-88.379,0.488,0.000
1713985219.262,0.977,-81.543,-76.172,-6.348,0.000
1713985219.266,1.953,-78.613,-84.961,-15.625,0.000
1713985219.270,3.906,-77.637,-95.215,8.301,0.000
1713985219.274,-0.977,-88.867,-91.309,25.391,0.000
1713985219.278,-21.973,-96.680,-90.820,-6.348,0.000
1713985219.282,-25.879,-90.820,-88.379,-35.645,0.000
1713985219.286,-29.297,-95.215,-96.191,-38.086,0.000
1713985219.289,-46.875,-107.422,-95.703,-27.832,0.000
1713985219.293,-36.621,-110.352,-88.379,-18.066,0.000
1713985219.297,-26.855,-101.562,-78.613,-25.391,0.000
1713985219.301,-43.457,-100.586,-76.172,-46.387,0.000
1713985219.305,-38.574,-98.145,-79.102,-22.949,0.000
1713985219.309,-16.602,-100.098,-76.172,6.348,0.000
1713985219.313,-8.789,-98.633,-71.289,-12.695,0.000
1713985219.317,-16.113,-86.426,-69.824,-40.039,0.000
1713985219.321,-23.438,-83.984,-83.984,-31.250,0.000
1713985219.325,-22.949,-95.703,-94.238,-8.789,0.000
1713985219.328,-15.625,-100.098,-85.449,-19.531,0.000
1713985219.332,-16.113,-93.750,-75.195,-39.062,0.000
1713985219.336,-28.320,-94.238,-79.590,-30.762,0.000
1713985219.340,-22.461,-94.238,-95.703,-1.465,0.000
1713985219.344,-12.695,-99.609,-104.492,-5.859,0.000
1713985219.348,-20.020,-102.051,-100.098,-36.621,0.000
1713985219.352,-26.855,-95.215,-99.609,-38.086,0.000
1713985219.356,-21.973,-89.844,-101.562,-12.207,0.000
1713985219.360,-11.230,-83.008,-90.332,2.930,0.000
1713985219.364,-2.930,-87.402,-89.355,-12.207,0.000
1713985219.367,-8.301,-84.961,-82.031,-25.879,0.000
1713985219.371,-20.020,-84.961,-79.590,-18.066,0.000
1713985219.375,-17.578,-93.262,-95.703,-10.254,0.000
1713985219.379,-7.812,-87.891,-101.562,-23.438,0.000
1713985219.383,-8.789,-90.820,-95.703,-37.109,0.000
1713985219.387,-19.531,-108.398,-109.375,-23.438,0.000
1713985219.391,-3.418,-94.727,-100.586,7.812,0.000
1713985219.395,13.184,-77.637,-80.566,6.836,0.000
1713985219.399,3.418,-85.938,-86.914,-27.832,0.000
1713985219.403,-3.418,-81.543,-99.121,-20.020,0.000
1713985219.406,2.441,-71.289,-95.703,15.625,0.000
1713985219.410,6.836,-85.938,-85.449,11.230,0.000
1713985219.414,7.324,-87.402,-88.379,-20.020,0.000
1713985219.418,-2.441,-79.102,-91.309,-28.320,0.000
1713985219.422,-10.742,-95.215,-97.656,-6.836,0.000
1713985219.426,-3.906,-99.121,-104.004,-2.930,0.000
1713985219.430,-2.441,-96.680,-99.609,-21.973,0.000
1713985219.434,-13.672,-96.680,-95.215,-37.109,0.000
1713985219.438,-26.855,-100.586,-94.727,-36.133,0.000
1713985219.442,-18.555,-99.121,-96.680,-19.043,0.000
1713985219.445,-5.371,-94.238,-91.797,-16.602,0.000
1713985219.449,-16.602,-99.121,-96.191,-40.527,0.000
1713985219.453,-23.926,-100.586,-105.957,-32.715,0.000
1713985219.457,-14.160,-95.703,-105.957,0.000,0.000
1713985219.461,-12.695,-102.539,-102.051,-7.812,0.000
1713985219.465,-18.066,-107.422,-98.633,-34.668,0.000
1713985219.469,-16.602,-101.074,-92.773,-23.438,0.000
1713985219.473,-5.859,-92.773,-80.566,12.695,0.000
1713985219.476,-0.488,-88.379,-81.543,18.066,0.000
1713985219.480,-8.301,-100.098,-86.426,-21.484,0.000
1713985219.484,-12.695,-113.281,-82.031,-32.715,0.000
1713985219.488,-12.695,-103.516,-88.867,-7.324,0.000
1713985219.492,-8.789,-84.961,-101.074,0.977,0.000
1713985219.496,-2.441,-79.102,-98.633,-18.066,0.000
1713985219.500,-7.812,-81.055,-92.285,-32.715,0.000
1713985219.504,-18.066,-88.867,-91.797,-19.531,0.000
1713985219.508,-14.160,-89.355,-88.379,2.930,0.000
1713985219.511,-9.277,-85.449,-80.078,-9.277,0.000
1713985219.515,-8.789,-94.238,-86.914,-32.227,0.000
1713985219.519,-16.602,-106.445,-119.629,-22.461,0.000
1713985219.523,-15.137,-104.492,-114.258,-2.441,0.000
1713985219.527,-5.859,-88.867,-90.332,-1.465,0.000
1713985219.531,-8.301,-88.867,-94.238,-21.484,0.000
1713985219.535,-17.090,-98.145,-104.980,-21.484,0.000
1713985219.539,-18.555,-95.215,-109.375,-2.930,0.000
1713985219.543,-9.766,-92.285,-94.238,0.000,0.000
1713985219.547,-10.254,-90.820,-78.125,-20.508,0.000
1713985219.551,-24.902,-102.539,-84.473,-32.715,0.000
1713985219.555,-33.691,-110.352,-86.426,-13.672,0.000
1713985219.558,-22.949,-106.445,-88.379,-1.465,0.000
1713985219.562,-7.324,-96.191,-86.914,-3.906,0.000
1713985219.566,-18.555,-93.262,-91.309,-22.461,0.000
1713985219.570,-27.344,-96.680,-105.957,-22.461,0.000
1713985219.574,-14.648,-90.332,-102.539,-2.930,0.000
1713985219.578,-14.648,-89.355,-85.938,-8.789,0.000
1713985219.582,-25.391,-107.910,-86.426,-32.715,0.000
1713985219.586,-23.926,-98.633,-87.891,-29.785,0.000
1713985219.590,-18.066,-93.750,-80.566,-5.371,0.000
1713985219.594,-19.043,-112.793,-87.402,-8.301,0.000
1713985219.598,-27.344,-97.656,-88.867,-41.016,0.000
1713985219.601,-38.574,-89.355,-88.867,-45.898,0.000
1713985219.605,-33.203,-98.145,-94.238,-15.137,0.000
1713985219.609,-17.090,-92.773,-93.262,2.441,0.000
1713985219.613,-20.020,-87.891,-90.332,-22.461,0.000
1713985219.617,-24.902,-89.844,-97.656,-42.480,0.000
1713985219.621,-25.879,-92.773,-106.445,-25.391,0.000
1713985219.625,-18.555,-93.262,-103.027,0.977,0.000
1713985219.629,-13.184,-84.961,-91.309,-16.113,0.000
1713985219.633,-8.789,-84.473,-94.727,-42.969,0.000
1713985219.637,-7.812,-94.238,-95.703,-24.902,0.000
1713985219.641,-2.930,-86.914,-88.379,-0.488,0.000
1713985219.644,7.324,-76.172,-96.680,-12.207,0.000
1713985219.648,-0.488,-87.891,-108.887,-40.039,0.000
1713985219.652,-6.348,-94.727,-108.398,-31.250,0.000
1713985219.656,-5.371,-89.355,-93.750,1.953,0.000
1713985219.660,-4.395,-95.215,-88.379,0.000,0.000
1713985219.664,-6.348,-96.191,-97.168,-28.809,0.000
1713985219.668,-18.066,-86.914,-99.609,-27.344,0.000
1713985219.672,-14.160,-89.355,-92.285,4.395,0.000
1713985219.676,-3.906,-88.379,-88.867,8.789,0.000
1713985219.680,-11.230,-79.590,-95.703,-18.555,0.000
1713985219.683,-25.391,-92.773,-95.703,-38.086,0.000
1713985219.687,-32.715,-102.539,-96.191,-20.996,0.000
1713985219.691,-32.715,-97.168,-99.609,-2.930,0.000
1713985219.695,-30.762,-96.680,-94.238,-23.926,0.000
1713985219.699,-22.461,-97.168,-92.285,-33.691,0.000
1713985219.703,-19.043,-91.797,-85.938,-14.648,0.000
1713985219.707,-25.879,-96.680,-96.191,-6.836,0.000
1713985219.711,-17.090,-95.703,-103.516,-9.277,0.000
1713985219.715,-20.020,-97.656,-106.934,-29.297,0.000
1713985219.719,-31.738,-94.727,-104.492,-32.715,0.000
1713985219.723,-22.461,-89.844,-89.844,-4.395,0.000
1713985219.726,-13.184,-97.656,-84.961,5.371,0.000
1713985219.730,-17.578,-102.051,-98.633,-18.066,0.000
1713985219.734,-16.602,-96.191,-99.121,-26.855,0.000
1713985219.738,-10.254,-88.867,-76.660,2.930,0.000
1713985219.742,-11.719,-88.867,-72.266,16.113,0.000
1713985219.746,-17.090,-89.355,-97.168,-16.113,0.000
1713985219.750,-19.043,-92.285,-115.234,-34.180,0.000
1713985219.754,-16.113,-96.191,-105.469,-9.277,0.000
1713985219.758,-11.719,-97.656,-97.656,8.789,0.000
1713985219.761,-4.883,-93.750,-105.469,-3.418,0.000
1713985219.765,-7.812,-90.332,-96.191,-26.367,0.000
1713985219.769,-10.742,-93.262,-83.008,-13.672,0.000
1713985219.773,-7.324,-96.680,-98.145,5.859,0.000
1713985219.777,-5.859,-101.074,-99.121,-7.324,0.000
1713985219.781,-7.324,-101.562,-86.426,-25.879,0.000
1713985219.785,-20.996,-96.191,-95.215,-27.344,0.000
1713985219.789,-20.020,-98.145,-100.098,-0.488,0.000
1713985219.793,-13.672,-94.727,-100.098,-4.395,0.000
1713985219.797,-12.695,-89.844,-99.609,-27.832,0.000
1713985219.800,-9.277,-95.215,-98.633,-20.996,0.000
1713985219.804,-11.230,-94.727,-106.934,3.418,0.000
1713985219.808,-7.324,-87.891,-98.145,9.766,0.000
1713985219.812,0.977,-87.402,-91.309,-6.836,0.000
1713985219.816,-8.789,-104.980,-94.727,-31.738,0.000
1713985219.820,-20.020,-103.516,-92.773,-18.555,0.000
1713985219.824,-9.766,-90.820,-91.309,14.160,0.000
1713985219.828,-6.836,-103.516,-97.168,-4.883,0.000
1713985219.832,-12.207,-106.934,-99.609,-23.438,0.000
1713985219.835,5.371,-97.656,-93.262,13.184,0.000
1713985219.839,18.555,-92.285,-92.285,37.109,0.000
1713985219.843,5.371,-88.867,-90.332,11.719,0.000
1713985219.847,-1.465,-85.449,-98.633,-15.137,0.000
1713985219.851,0.488,-100.098,-117.188,-11.230,0.000
1713985219.855,7.324,-116.699,-110.352,7.812,0.000
1713985219.859,9.766,-107.422,-95.703,10.254,0.000
1713985219.863,9.766,-82.520,-95.215,-12.207,0.000
1713985219.867,10.742,-69.336,-84.961,-16.113,0.000
1713985219.871,6.348,-69.824,-84.473,2.441,0.000
1713985219.875,7.812,-76.660,-100.098,17.090,0.000
1713985219.879,10.254,-78.613,-102.539,3.418,0.000
1713985219.882,5.371,-78.613,-98.145,-16.602,0.000
1713985219.886,-4.883,-84.961,-92.285,-8.789,0.000
1713985219.890,-4.883,-93.750,-93.750,8.789,0.000
1713985219.894,1.465,-97.168,-98.633,3.906,0.000
1713985219.898,-4.883,-91.797,-100.586,-21.484,0.000
1713985219.902,-11.719,-92.773,-96.191,-19.043,0.000
1713985219.906,-3.418,-97.656,-94.238,4.395,0.000
1713985219.910,8.301,-93.262,-93.262,6.836,0.000
1713985219.914,6.836,-91.309,-89.844,-15.137,0.000
1713985219.918,-0.977,-89.844,-94.238,-21.973,0.000
1713985219.922,3.906,-87.891,-97.656,7.812,0.000
1713985219.926,10.254,-93.750,-93.750,30.762,0.000
1713985219.929,5.371,-93.262,-89.844,1.465,0.000
1713985219.933,0.488,-98.145,-102.539,-20.996,0.000
1713985219.937,2.441,-96.680,-97.656,1.465,0.000
1713985219.941,2.930,-98.145,-89.844,18.066,0.000
1713985219.945,7.324,-97.656,-91.797,2.930,0.000
1713985219.949,8.301,-87.891,-82.031,-14.160,0.000
1713985219.953,3.418,-90.820,-88.867,0.488,0.000
1713985219.957,4.395,-93.262,-99.121,30.273,0.000
1713985219.961,0.977,-87.402,-93.750,12.207,0.000
1713985219.965,-1.953,-90.332,-103.516,-20.020,0.000
1713985219.969,-3.418,-99.609,-109.375,-17.090,0.000
1713985219.972,-6.836,-98.633,-95.703,0.977,0.000
1713985219.976,-0.488,-95.215,-84.473,13.184,0.000
1713985219.980,3.906,-98.145,-85.449,-6.836,0.000
1713985219.984,-5.371,-104.492,-84.961,-20.996,0.000
1713985219.988,-0.977,-99.609,-73.730,6.348,0.000
1713985219.992,9.277,-92.285,-85.938,18.066,0.000
1713985219.996,10.742,-83.984,-103.027,-8.789,0.000
1713985220.000,4.395,-93.750,-104.980,-31.250,0.000
1713985220.004,-6.348,-99.609,-99.609,-15.137,0.000
1713985220.008,-0.977,-84.473,-91.309,0.977,0.000
1713985220.012,9.766,-95.215,-83.496,-12.207,0.000
1713985220.015,3.906,-106.934,-86.426,-30.762,0.000
1713985220.019,-10.742,-94.727,-92.285,-25.391,0.000
1713985220.023,-7.812,-88.379,-92.285,-5.859,0.000
1713985220.027,-4.883,-91.309,-89.844,-8.301,0.000
1713985220.031,-9.766,-90.332,-100.098,-32.715,0.000
1713985220.035,-14.648,-82.520,-111.816,-33.691,0.000
1713985220.039,-11.230,-87.402,-99.121,-11.230,0.000
1713985220.043,-3.418,-98.145,-94.727,-1.465,0.000
1713985220.047,-7.324,-104.492,-101.562,-20.508,0.000
1713985220.051,-15.625,-102.539,-97.168,-37.598,0.000
1713985220.055,-20.020,-100.098,-103.516,-25.391,0.000
1713985220.058,-12.207,-92.773,-106.934,-2.930,0.000
1713985220.062,-0.488,-88.867,-104.492,-17.578,0.000
1713985220.066,-2.441,-88.379,-91.797,-37.598,0.000
1713985220.070,-5.371,-84.473,-85.938,-18.555,0.000
1713985220.074,-2.441,-82.520,-100.098,3.906,0.000
1713985220.078,1.953,-84.961,-101.562,-6.836,0.000
1713985220.082,-3.418,-103.516,-105.957,-30.273,0.000
1713985220.086,-18.555,-108.398,-105.469,-30.762,0.000
1713985220.090,-26.367,-99.121,-99.609,-8.301,0.000
1713985220.094,-21.973,-84.473,-92.285,-5.371,0.000
1713985220.097,-21.484,-80.566,-87.891,-34.180,0.000
1713985220.101,-27.344,-86.426,-84.473,-37.109,0.000
1713985220.105,-27.832,-82.031,-69.824,-12.695,0.000
1713985220.109,-20.020,-64.941,-71.289,-3.418,0.000
1713985220.113,-31.250,-73.242,-95.703,-40.527,0.000
1713985220.117,-57.617,-91.309,-97.656,-75.195,0.000
1713985220.121,-64.453,-91.309,-91.309,-68.848,0.000
1713985220.125,-66.895,-88.379,-88.379,-62.500,0.000
1713985220.129,-78.613,-89.355,-73.730,-85.449,0.000
1713985220.133,-93.262,-90.820,-67.871,-118.164,0.000
1713985220.136,-109.375,-82.031,-71.289,-115.723,0.000
1713985220.140,-112.305,-70.312,-68.359,-98.633,0.000
1713985220.144,-107.910,-69.336,-56.152,-111.328,0.000
1713985220.148,-133.301,-64.453,-43.945,-152.832,0.000
1713985220.152,-154.297,-61.035,-48.828,-168.457,0.000
1713985220.156,-152.832,-60.059,-50.293,-142.578,0.000
1713985220.160,-145.508,-56.641,-47.852,-134.277,0.000
1713985220.164,-139.160,-60.547,-41.016,-156.738,0.000
1713985220.168,-138.184,-61.523,-18.066,-163.574,0.000
1713985220.171,-133.301,-60.547,-20.020,-137.695,0.000
1713985220.175,-124.023,-72.754,-39.062,-121.582,0.000
1713985220.179,-127.930,-84.961,-44.434,-134.766,0.000
1713985220.183,-136.719,-83.496,-44.434,-145.020,0.000
1713985220.187,-126.953,-79.102,-40.039,-122.070,0.000
1713985220.191,-107.910,-75.195,-41.504,-95.703,0.000
1713985220.195,-99.609,-73.242,-36.621,-96.680,0.000
1713985220.199,-96.191,-75.684,-39.551,-111.816,0.000
1713985220.203,-104.492,-82.031,-55.664,-109.863,0.000
1713985220.206,-109.375,-78.613,-46.387,-93.262,0.000
1713985220.210,-100.586,-75.195,-40.039,-97.168,0.000
1713985220.214,-108.887,-90.332,-42.480,-126.465,0.000
1713985220.218,-134.277,-91.309,-39.062,-140.137,0.000
1713985220.222,-125.000,-82.520,-28.809,-105.957,0.000
1713985220.226,-131.348,-92.773,-26.855,-111.816,0.000
1713985220.230,-145.996,-88.867,-26.855,-160.156,0.000
1713985220.234,-144.531,-79.590,-21.973,-167.969,0.000
1713985220.238,-151.855,-84.473,-18.066,-145.508,0.000
1713985220.242,-148.926,-90.820,-11.230,-130.859,0.000
1713985220.246,-136.230,-84.473,0.977,-136.719,0.000
1713985220.249,-137.695,-76.660,-5.859,-145.020,0.000
1713985220.253,-147.949,-88.379,-21.973,-139.648,0.000
1713985220.257,-129.883,-91.797,-23.438,-115.723,0.000
1713985220.261,-108.887,-95.703,-21.973,-111.328,0.000
1713985220.265,-103.027,-115.234,-35.156,-116.699,0.000
1713985220.269,-91.309,-124.023,-49.316,-91.309,0.000
1713985220.273,-71.777,-127.441,-53.711,-58.594,0.000
1713985220.277,-51.758,-117.676,-37.598,-48.340,0.000
1713985220.280,-46.875,-104.492,-33.203,-62.988,0.000
1713985220.284,-42.969,-111.816,-71.289,-57.617,0.000
1713985220.288,-29.785,-105.957,-89.844,-30.273,0.000
1713985220.292,-17.578,-102.539,-86.426,-17.578,0.000
1713985220.296,-3.906,-115.234,-85.449,-22.461,0.000
1713985220.300,-3.418,-120.117,-98.145,-34.180,0.000
1713985220.304,-5.371,-119.141,-114.746,-20.020,0.000
1713985220.308,12.207,-113.770,-114.746,11.230,0.000
1713985220.312,23.926,-116.211,-111.328,2.930,0.000
1713985220.316,13.672,-127.930,-117.676,-23.438,0.000
1713985220.320,11.719,-132.324,-127.930,-6.836,0.000
1713985220.324,27.344,-127.930,-125.488,29.297,0.000
1713985220.328,40.039,-130.859,-123.047,29.297,0.000
1713985220.331,41.992,-133.301,-129.883,6.836,0.000
1713985220.335,36.621,-131.836,-129.395,10.254,0.000
1713985220.339,48.340,-134.277,-130.859,51.758,0.000
1713985220.343,57.129,-131.348,-136.230,58.594,0.000
1713985220.347,54.199,-122.559,-140.137,32.227,0.000
1713985220.351,52.246,-131.836,-147.461,35.156,0.000
1713985220.355,51.270,-137.695,-147.461,64.453,0.000
1713985220.359,58.105,-131.348,-135.742,77.148,0.000
1713985220.363,59.082,-132.324,-138.184,50.781,0.000
1713985220.367,49.805,-128.418,-146.973,25.879,0.000
1713985220.371,49.805,-123.535,-133.301,49.805,0.000
1713985220.374,64.453,-132.324,-120.117,79.590,0.000
1713985220.378,63.477,-130.859,-134.277,63.965,0.000
1713985220.382,55.664,-119.629,-148.438,41.992,0.000
1713985220.386,52.246,-119.629,-149.414,55.176,0.000
1713985220.390,58.105,-122.559,-145.020,77.148,0.000
1713985220.394,75.684,-113.770,-135.742,78.125,0.000
1713985220.398,68.359,-114.746,-129.883,44.922,0.000
1713985220.402,53.223,-118.652,-138.672,38.574,0.000
1713985220.406,62.988,-116.699,-137.207,64.941,0.000
1713985220.410,76.660,-109.375,-124.023,71.289,0.000
1713985220.414,74.707,-101.074,-127.441,44.434,0.000
1713985220.417,63.477,-113.770,-133.789,34.668,0.000
1713985220.421,63.477,-119.141,-146.484,60.059,0.000
1713985220.425,72.266,-105.469,-143.555,64.941,0.000
1713985220.429,70.801,-107.422,-129.395,47.363,0.000
1713985220.433,61.035,-108.887,-129.883,33.691,0.000
1713985220.437,54.688,-104.004,-138.184,47.852,0.000
1713985220.441,49.805,-109.863,-132.324,66.895,0.000
1713985220.445,47.363,-110.352,-121.094,53.711,0.000
1713985220.449,41.016,-105.957,-125.977,29.297,0.000
1713985220.453,28.809,-98.633,-139.160,29.297,0.000
1713985220.457,30.273,-88.379,-133.789,53.223,0.000
1713985220.460,42.969,-84.961,-110.352,54.199,0.000
1713985220.464,41.504,-93.750,-115.234,34.668,0.000
1713985220.468,26.855,-97.656,-122.559,32.715,0.000
1713985220.472,25.879,-93.262,-112.793,56.152,0.000
1713985220.476,35.156,-94.238,-115.723,62.012,0.000
1713985220.480,35.645,-98.145,-119.141,32.227,0.000
1713985220.484,30.762,-89.355,-119.629,13.184,0.000
1713985220.488,28.320,-83.008,-123.047,30.762,0.000
1713985220.492,40.039,-100.586,-121.094,56.641,0.000
1713985220.496,49.316,-102.051,-114.746,41.504,0.000
1713985220.499,36.133,-82.520,-103.516,17.578,0.000
1713985220.503,24.902,-83.984,-105.957,25.391,0.000
1713985220.507,31.250,-90.820,-107.910,50.293,0.000
1713985220.511,36.133,-92.773,-110.352,41.504,0.000
1713985220.515,24.902,-93.262,-116.211,5.859,0.000
1713985220.519,21.484,-96.680,-113.770,16.602,0.000
1713985220.523,27.344,-82.520,-112.793,41.016,0.000
1713985220.527,30.762,-79.590,-109.863,29.785,0.000
1713985220.531,27.344,-97.168,-107.422,4.395,0.000
1713985220.534,24.902,-93.262,-104.004,3.906,0.000
1713985220.538,28.809,-78.613,-93.262,30.273,0.000
1713985220.542,27.832,-73.730,-102.051,35.645,0.000
1713985220.546,28.809,-82.031,-112.305,11.230,0.000
1713985220.550,28.809,-85.449,-105.957,-0.488,0.000
1713985220.554,26.367,-94.238,-106.445,19.531,0.000
1713985220.558,28.809,-95.703,-104.980,39.551,0.000
1713985220.562,26.367,-85.449,-100.098,18.555,0.000
1713985220.566,23.926,-88.379,-98.633,0.000,0.000
1713985220.570,22.949,-88.379,-100.098,19.531,0.000
1713985220.574,28.809,-79.102,-88.867,43.945,0.000
1713985220.577,37.109,-80.078,-83.008,32.227,0.000
1713985220.581,20.508,-93.750,-105.469,-8.789,0.000
1713985220.585,7.324,-95.703,-114.746,-10.254,0.000
1713985220.589,15.625,-88.379,-99.609,26.855,0.000
1713985220.593,24.902,-88.867,-102.539,25.391,0.000
1713985220.597,21.484,-96.680,-109.375,-3.906,0.000
1713985220.601,13.672,-111.328,-101.074,3.418,0.000
1713985220.605,8.301,-97.656,-89.844,23.438,0.000
1713985220.609,8.301,-72.754,-84.473,24.902,0.000
1713985220.612,17.578,-69.824,-83.984,1.953,0.000
1713985220.616,10.742,-83.496,-90.820,-11.230,0.000
1713985220.620,-3.418,-96.680,-101.074,6.836,0.000
1713985220.624,5.371,-96.191,-104.492,24.414,0.000
1713985220.628,17.090,-83.984,-96.191,19.531,0.000
1713985220.632,6.348,-81.055,-86.914,-3.418,0.000
1713985220.636,-3.906,-82.520,-91.309,-1.465,0.000
1713985220.640,0.977,-84.473,-103.027,23.438,0.000
1713985220.644,10.742,-84.473,-104.492,24.902,0.000
1713985220.647,13.672,-74.707,-82.520,-1.953,0.000
1713985220.651,5.371,-68.848,-82.031,-5.859,0.000
1713985220.655,2.441,-73.242,-97.656,22.949,0.000
1713985220.659,8.789,-82.031,-100.098,34.180,0.000
1713985220.663,3.906,-90.332,-99.121,3.418,0.000
1713985220.667,0.488,-83.496,-94.727,-11.719,0.000
1713985220.671,0.488,-84.473,-97.168,14.160,0.000
1713985220.675,-1.465,-93.262,-103.516,25.391,0.000
1713985220.679,2.930,-88.867,-93.750,5.371,0.000
1713985220.683,0.977,-85.938,-82.520,-9.766,0.000
1713985220.687,-5.371,-92.285,-91.309,3.906,0.000
1713985220.691,-2.930,-95.215,-97.168,22.461,0.000
1713985220.694,0.977,-87.891,-91.797,7.812,0.000
1713985220.698,-4.883,-84.473,-95.215,-22.949,0.000
1713985220.702,-9.766,-90.332,-95.215,-16.113,0.000
1713985220.706,-4.395,-97.168,-88.867,13.672,0.000
1713985220.710,5.859,-86.426,-81.055,6.348,0.000
1713985220.714,13.672,-77.148,-72.754,-16.602,0.000
1713985220.718,6.836,-80.566,-75.195,-17.090,0.000
1713985220.722,0.000,-90.820,-92.285,3.418,0.000
1713985220.726,-1.465,-95.215,-99.609,5.371,0.000
1713985220.730,2.441,-90.332,-93.262,-17.090,0.000
1713985220.734,0.488,-88.379,-95.703,-21.484,0.000
1713985220.737,-12.695,-91.797,-99.121,-6.836,0.000
1713985220.741,-11.230,-86.426,-91.797,2.441,0.000
1713985220.745,-2.930,-90.332,-98.633,-10.742,0.000
1713985220.749,-2.930,-103.516,-103.027,-22.949,0.000
1713985220.753,-4.395,-98.633,-87.891,-12.207,0.000
1713985220.757,-1.465,-89.844,-82.520,6.836,0.000
1713985220.761,-1.465,-100.586,-81.543,2.930,0.000
1713985220.765,-10.742,-104.004,-86.426,-27.832,0.000
1713985220.769,-15.625,-97.168,-93.750,-28.320,0.000
1713985220.773,-16.602,-101.562,-103.516,-4.395,0.000
1713985220.777,-9.277,-98.633,-107.422,-5.371,0.000
1713985220.780,-7.324,-101.562,-97.168,-23.438,0.000
1713985220.784,-10.254,-95.215,-88.867,-18.066,0.000
1713985220.788,-7.324,-83.496,-89.844,9.277,0.000
1713985220.792,5.371,-95.703,-92.285,19.043,0.000
1713985220.796,3.906,-99.121,-98.633,-3.906,0.000
1713985220.800,-14.160,-92.773,-96.680,-28.809,0.000
1713985220.804,-12.695,-89.355,-84.961,-7.812,0.000
1713985220.808,-6.836,-92.773,-88.867,11.719,0.000
1713985220.812,-11.230,-97.168,-99.121,-12.207,0.000
1713985220.816,-13.672,-92.285,-96.680,-28.320,0.000
1713985220.820,-16.602,-90.332,-97.656,-16.113,0.000
1713985220.823,-10.742,-97.168,-102.539,2.441,0.000
1713985220.827,0.000,-97.656,-100.098,-4.395,0.000
1713985220.831,0.977,-93.262,-105.469,-31.250,0.000
1713985220.835,-5.859,-91.797,-113.770,-28.809,0.000
1713985220.839,-3.418,-96.680,-108.887,2.930,0.000
1713985220.843,2.930,-97.168,-95.703,6.836,0.000
1713985220.847,-2.441,-95.703,-101.074,-32.715,0.000
1713985220.851,-13.184,-97.656,-109.863,-39.551,0.000
1713985220.855,-11.719,-99.609,-98.145,-5.371,0.000
1713985220.859,-7.324,-92.773,-90.820,6.836,0.000
1713985220.862,-0.488,-97.168,-96.191,-6.348,0.000
1713985220.866,-1.465,-117.676,-104.492,-21.484,0.000
1713985220.870,-9.277,-113.770,-104.492,-9.766,0.000
1713985220.874,-5.859,-96.191,-104.492,7.812,0.000
1713985220.878,1.465,-84.961,-102.539,-4.395,0.000
1713985220.882,-4.395,-89.844,-97.656,-31.250,0.000
1713985220.886,-8.789,-105.957,-95.215,-14.648,0.000
1713985220.890,-5.371,-100.586,-78.125,15.137,0.000
1713985220.894,-7.812,-96.680,-76.172,2.441,0.000
1713985220.898,-9.766,-107.910,-107.422,-27.344,0.000
1713985220.901,-12.695,-114.746,-111.816,-28.320,0.000
1713985220.905,-8.301,-107.910,-102.539,2.930,0.000
1713985220.909,-1.465,-92.285,-99.609,10.742,0.000
1713985220.913,-6.836,-94.727,-94.238,-18.066,0.000
1713985220.917,-12.695,-102.051,-90.820,-29.297,0.000
1713985220.921,-10.254,-96.191,-91.797,-11.230,0.000
1713985220.925,1.465,-89.355,-81.543,7.812,0.000
1713985220.929,3.906,-88.379,-70.801,-2.930,0.000
1713985220.933,-10.742,-88.867,-84.473,-21.484,0.000
1713985220.937,-21.484,-85.938,-99.121,-20.996,0.000
1713985220.940,-11.719,-92.285,-102.051,-4.395,0.000
1713985220.944,-3.906,-101.562,-105.469,-8.789,0.000
1713985220.948,-15.137,-100.586,-103.027,-31.738,0.000
1713985220.952,-25.879,-95.215,-101.074,-34.180,0.000
1713985220.956,-21.484,-98.145,-107.910,-15.625,0.000
1713985220.960,-9.766,-94.238,-99.609,-11.230,0.000
1713985220.964,-8.789,-91.797,-86.914,-33.203,0.000
1713985220.968,-13.672,-98.633,-83.984,-25.879,0.000
1713985220.972,-11.230,-94.727,-91.797,5.371,0.000
1713985220.975,-5.859,-90.332,-101.074,13.184,0.000
1713985220.979,-1.465,-95.703,-96.191,-11.230,0.000
1713985220.983,-11.230,-99.609,-88.867,-27.344,0.000
1713985220.987,-15.137,-91.309,-79.590,-5.859,0.000
1713985220.991,-4.883,-82.520,-77.148,15.625,0.000
1713985220.995,3.906,-82.520,-78.125,-0.488,0.000
1713985220.999,-1.953,-86.426,-80.078,-27.832,0.000
1713985221.003,-10.742,-94.238,-95.215,-15.625,0.000
1713985221.007,-1.465,-94.238,-91.797,7.324,0.000
1713985221.011,2.930,-87.891,-82.520,-4.395,0.000
1713985221.015,-6.348,-87.402,-83.496,-28.809,0.000
1713985221.019,-10.742,-88.379,-94.727,-23.926,0.000
1713985221.023,-8.789,-87.891,-98.633,0.000,0.000
1713985221.026,-4.395,-92.773,-96.191,-2.930,0.000
1713985221.030,-0.977,-93.750,-91.797,-22.949,0.000
1713985221.034,-5.859,-91.797,-85.449,-24.414,0.000
1713985221.038,-19.043,-100.098,-91.797,-5.371,0.000
1713985221.042,-9.277,-100.098,-96.191,3.906,0.000
1713985221.046,5.371,-90.820,-87.891,-9.277,0.000
1713985221.050,-0.977,-89.844,-82.520,-22.461,0.000
1713985221.054,-12.207,-92.285,-87.402,-12.695,0.000
1713985221.058,-9.766,-98.145,-100.586,0.488,0.000
1713985221.062,-4.395,-104.492,-107.910,-11.719,0.000
1713985221.066,-13.184,-104.004,-104.492,-29.785,0.000
1713985221.070,-19.043,-104.004,-102.539,-16.113,0.000
1713985221.073,-17.090,-113.281,-102.051,8.301,0.000
1713985221.077,-16.113,-118.164,-103.516,0.977,0.000
1713985221.081,-19.043,-113.281,-106.445,-19.043,0.000
1713985221.085,-20.508,-98.633,-95.215,-23.438,0.000
1713985221.089,-14.160,-91.309,-87.402,-8.301,0.000
1713985221.093,-6.836,-88.379,-86.426,0.977,0.000
1713985221.097,-3.418,-88.379,-86.914,-20.020,0.000
1713985221.101,-10.254,-94.238,-88.867,-33.691,0.000
1713985221.105,-17.090,-95.215,-98.633,-11.719,0.000
1713985221.109,-13.184,-95.703,-104.492,0.977,0.000
1713985221.113,-11.719,-108.887,-102.051,-18.555,0.000
1713985221.117,-11.719,-104.980,-94.238,-36.621,0.000
1713985221.120,-12.207,-91.797,-90.820,-22.461,0.000
1713985221.124,-9.766,-99.121,-88.379,3.906,0.000
1713985221.128,-3.418,-92.773,-74.707,-11.719,0.000
1713985221.132,-1.953,-86.914,-83.496,-40.527,0.000
1713985221.136,-8.789,-89.355,-93.750,-28.809,0.000
1713985221.140,-12.207,-87.891,-95.215,0.977,0.000
1713985221.144,-5.859,-91.797,-99.609,0.488,0.000
1713985221.148,-9.766,-102.539,-104.492,-27.344,0.000
1713985221.152,-20.020,-107.910,-103.516,-28.809,0.000
1713985221.156,-15.625,-101.562,-97.168,-5.859,0.000
1713985221.160,-12.207,-104.004,-86.914,-2.441,0.000
1713985221.163,-19.043,-102.051,-77.637,-25.879,0.000
1713985221.167,-20.508,-94.238,-86.426,-32.227,0.000
1713985221.171,-16.602,-89.844,-90.820,-1.465,0.000
1713985221.175,-20.996,-85.449,-89.355,-0.977,0.000
1713985221.179,-18.066,-94.238,-100.586,-26.367,0.000
1713985221.183,-16.602,-95.703,-105.469,-33.691,0.000
1713985221.187,-22.461,-83.984,-99.609,-18.555,0.000
1713985221.191,-13.672,-85.938,-95.703,4.883,0.000
1713985221.195,-8.301,-95.703,-98.145,-2.930,0.000
1713985221.199,-16.113,-94.238,-94.238,-32.227,0.000
1713985221.203,-14.160,-87.402,-84.473,-29.297,0.000
1713985221.206,-15.137,-91.797,-86.914,2.441,0.000
1713985221.210,-19.043,-104.004,-101.074,0.000,0.000
1713985221.214,-23.438,-106.445,-105.469,-29.785,0.000
1713985221.218,-27.344,-101.074,-103.027,-30.762,0.000
1713985221.222,-26.367,-93.262,-101.074,-7.324,0.000
1713985221.226,-13.184,-87.402,-95.703,3.418,0.000
1713985221.230,-5.371,-89.844,-83.008,-12.207,0.000
1713985221.234,-13.184,-94.238,-81.543,-22.461,0.000
1713985221.238,-12.207,-100.098,-84.961,-5.371,0.000
1713985221.242,-4.395,-102.539,-83.984,7.324,0.000
1713985221.245,-1.953,-89.355,-91.797,-7.812,0.000
1713985221.249,-18.066,-88.867,-100.586,-39.062,0.000
1713985221.253,-29.785,-101.074,-103.516,-34.180,0.000
1713985221.257,-13.184,-103.027,-99.121,5.859,0.000
1713985221.261,-4.883,-102.539,-94.238,4.883,0.000
1713985221.265,-15.625,-95.703,-88.379,-27.832,0.000
1713985221.269,-17.090,-93.750,-87.402,-26.855,0.000
1713985221.273,-4.395,-94.727,-85.938,0.977,0.000
1713985221.277,7.324,-93.262,-86.426,-2.441,0.000
1713985221.280,12.207,-86.914,-94.238,-24.902,0.000
1713985221.284,0.488,-89.844,-101.074,-26.855,0.000
1713985221.288,-3.906,-97.656,-105.957,-7.812,0.000
1713985221.292,3.418,-98.145,-100.098,1.465,0.000
1713985221.296,5.371,-98.145,-89.844,-13.672,0.000
1713985221.300,5.859,-108.398,-89.844,-17.090,0.000
1713985221.304,-11.230,-110.840,-102.051,-4.883,0.000
1713985221.308,-20.020,-90.820,-90.332,1.465,0.000
1713985221.312,-13.184,-79.590,-78.613,-7.812,0.000
1713985221.316,-16.113,-89.844,-103.516,-25.879,0.000
1713985221.320,-17.578,-90.332,-114.258,-17.578,0.000
1713985221.323,-3.906,-83.984,-94.238,10.742,0.000
1713985221.327,2.930,-87.402,-90.332,6.348,0.000
1713985221.331,-7.812,-97.656,-106.445,-23.926,0.000
1713985221.335,-11.719,-100.098,-108.398,-21.973,0.000
1713985221.339,-8.301,-93.262,-100.586,11.230,0.000
1713985221.343,-2.441,-96.191,-99.121,9.766,0.000
1713985221.347,-5.859,-104.004,-104.980,-18.066,0.000
1713985221.351,-17.090,-100.098,-106.445,-20.508,0.000
1713985221.355,-20.020,-87.891,-100.098,-7.812,0.000
1713985221.358,-14.160,-89.355,-100.586,-3.906,0.000
1713985221.362,-0.977,-95.703,-96.680,-17.578,0.000
1713985221.366,-11.230,-99.609,-103.027,-30.273,0.000
1713985221.370,-22.461,-95.703,-112.305,-17.090,0.000
1713985221.374,-11.230,-92.773,-106.445,3.906,0.000
1713985221.378,2.930,-96.191,-98.633,0.977,0.000
1713985221.382,-7.324,-104.980,-102.051,-22.949,0.000
1713985221.386,-14.648,-104.492,-107.910,-14.160,0.000
1713985221.389,0.488,-87.891,-99.609,17.578,0.000
1713985221.393,8.789,-87.402,-96.680,10.254,0.000
1713985221.397,3.418,-91.797,-100.098,-15.625,0.000
1713985221.401,-4.395,-82.031,-89.844,-16.113,0.000
1713985221.405,-7.812,-91.797,-90.332,3.418,0.000
1713985221.409,-0.977,-111.816,-102.051,9.766,0.000
1713985221.413,1.953,-98.145,-100.098,-10.742,0.000
1713985221.417,-7.812,-85.449,-107.422,-22.949,0.000
1713985221.421,-9.766,-89.844,-119.629,-2.930,0.000
1713985221.425,-0.977,-90.820,-108.398,13.184,0.000
1713985221.429,11.719,-87.891,-86.426,0.977,0.000
1713985221.433,8.301,-86.914,-80.566,-15.137,0.000
1713985221.437,-6.348,-97.656,-92.285,-8.789,0.000
1713985221.440,-4.395,-99.609,-94.238,9.766,0.000
1713985221.444,1.465,-100.586,-98.145,-0.977,0.000
1713985221.448,-1.953,-102.539,-106.445,-22.461,0.000
1713985221.452,-7.812,-89.844,-111.816,-20.508,0.000
1713985221.456,-6.836,-80.078,-98.145,9.277,0.000
1713985221.460,0.000,-78.125,-74.707,16.602,0.000
1713985221.464,-1.465,-80.566,-88.867,-11.719,0.000
1713985221.468,-12.695,-95.215,-103.516,-22.461,0.000
1713985221.472,-18.066,-102.051,-98.633,-10.742,0.000
1713985221.476,-10.742,-95.703,-103.516,-7.324,0.000
1713985221.480,-3.418,-97.656,-109.375,-21.484,0.000
1713985221.484,-8.789,-98.145,-101.074,-29.297,0.000
1713985221.487,-14.160,-98.633,-91.309,-7.812,0.000
1713985221.491,-9.277,-96.680,-90.332,11.719,0.000
1713985221.495,0.488,-96.680,-83.496,-6.348,0.000
1713985221.499,-4.395,-115.234,-90.332,-25.391,0.000
1713985221.503,-15.625,-101.562,-90.820,-17.090,0.000
1713985221.507,-13.672,-81.543,-92.285,0.000,0.000
1713985221.511,-2.441,-87.402,-94.727,-2.930,0.000
1713985221.515,-7.812,-96.191,-92.773,-28.809,0.000
1713985221.519,-22.461,-96.680,-96.191,-26.367,0.000
1713985221.523,-15.137,-93.262,-92.285,4.883,0.000
1713985221.527,-8.789,-97.168,-97.656,8.301,0.000
1713985221.530,-13.672,-94.238,-99.121,-18.555,0.000
1713985221.534,-18.555,-89.355,-91.309,-27.832,0.000
1713985221.538,-13.672,-93.262,-90.332,-5.371,0.000
1713985221.542,-6.348,-97.168,-93.262,10.254,0.000
1713985221.546,-3.418,-98.633,-96.191,-7.812,0.000
1713985221.550,-12.695,-99.609,-97.168,-29.297,0.000
1713985221.554,-17.090,-101.562,-89.844,-20.996,0.000
1713985221.558,-15.137,-105.957,-88.379,0.488,0.000
1713985221.562,-7.812,-98.145,-91.309,-10.254,0.000
1713985221.566,-4.883,-83.984,-82.520,-30.762,0.000
1713985221.569,-19.043,-96.680,-81.055,-20.996,0.000
1713985221.573,-18.555,-103.516,-86.426,2.441,0.000
1713985221.577,-3.906,-93.262,-82.520,7.812,0.000
1713985221.581,-10.742,-96.680,-91.797,-19.531,0.000
1713985221.585,-22.949,-98.145,-108.398,-28.320,0.000
1713985221.589,-18.066,-108.887,-101.562,2.930,0.000
1713985221.593,-3.418,-117.188,-93.750,15.137,0.000
1713985221.597,-1.953,-98.145,-91.309,-16.602,0.000
1713985221.601,-14.648,-98.633,-91.309,-34.180,0.000
1713985221.605,-20.508,-107.910,-100.586,-17.578,0.000
1713985221.609,-11.719,-95.703,-97.656,-3.418,0.000
1713985221.612,-15.137,-93.750,-96.680,-23.438,0.000
1713985221.616,-27.832,-103.027,-103.516,-41.504,0.000
1713985221.620,-25.391,-101.074,-98.145,-8.301,0.000
1713985221.624,-19.043,-97.168,-92.773,12.207,0.000
1713985221.628,-16.602,-107.910,-93.262,-13.672,0.000
1713985221.632,-18.555,-107.422,-102.539,-33.691,0.000
1713985221.636,-15.137,-98.633,-103.516,-11.230,0.000
1713985221.640,-9.766,-91.309,-85.938,7.324,0.000
1713985221.644,-8.301,-88.867,-80.078,-3.418,0.000
1713985221.648,-13.672,-97.656,-93.750,-29.785,0.000
