timestamps,TP9,AF7,AF8,TP10,Right AUX
1714026512.954,-49.316,-17.090,-26.367,-43.945,0.000
1714026512.958,-46.875,-22.949,-35.645,-51.270,0.000
1714026512.962,-50.293,-28.809,-43.945,-44.922,0.000
1714026512.966,-51.270,-32.715,-50.293,-34.668,0.000
1714026512.970,-43.945,-34.180,-58.105,-31.738,0.000
1714026512.974,-37.598,-29.297,-57.617,-33.203,0.000
1714026512.978,-33.691,-24.902,-50.293,-32.227,0.000
1714026512.982,-34.668,-28.809,-49.805,-22.949,0.000
1714026512.986,-27.832,-31.738,-44.434,-8.301,0.000
1714026512.990,-18.555,-27.832,-37.109,-6.836,0.000
1714026512.993,-21.484,-24.414,-45.898,-18.066,0.000
1714026512.997,-22.461,-28.320,-54.688,-16.113,0.000
1714026513.000,-18.066,-29.297,-48.828,-13.184,0.000
1714026513.004,-20.508,-32.227,-48.340,-15.625,0.000
1714026513.008,-15.625,-33.203,-44.434,-11.719,0.000
1714026513.012,-10.742,-30.762,-43.457,-3.906,0.000
1714026513.016,-6.836,-31.738,-49.316,-2.930,0.000
1714026513.020,-3.418,-28.809,-37.598,-4.395,0.000
1714026513.024,-3.418,-24.414,-34.180,1.465,0.000
1714026513.028,-3.418,-22.949,-42.969,5.859,0.000
1714026513.031,-4.883,-22.461,-39.551,10.742,0.000
1714026513.035,-9.766,-22.461,-36.133,4.395,0.000
1714026513.039,-18.555,-21.973,-41.992,-5.859,0.000
1714026513.043,-16.113,-21.973,-41.016,-4.395,0.000
1714026513.046,-11.719,-21.973,-33.691,2.930,0.000
1714026513.050,-5.371,-20.020,-25.391,4.883,0.000
1714026513.053,1.953,-18.066,-28.809,0.488,0.000
1714026513.057,-1.465,-16.113,-33.691,-1.465,0.000
1714026513.061,-4.395,-16.113,-35.645,-2.930,0.000
1714026513.065,-1.953,-14.648,-42.969,-1.465,0.000
1714026513.069,-6.348,-17.090,-41.504,-2.441,0.000
1714026513.073,-7.324,-20.020,-37.109,-0.977,0.000
1714026513.077,-8.789,-19.043,-35.645,0.977,0.000
1714026513.081,-9.766,-20.020,-27.344,-5.371,0.000
1714026513.085,-0.977,-17.090,-20.996,0.977,0.000
1714026513.089,-0.488,-15.137,-32.715,0.000,0.000
1714026513.091,-6.348,-20.508,-44.434,-7.324,0.000
1714026513.095,-6.836,-27.832,-40.039,-7.324,0.000
1714026513.099,-6.348,-23.438,-32.715,-8.301,0.000
1714026513.103,-10.254,-20.508,-33.203,-14.648,0.000
1714026513.106,-20.996,-20.508,-38.086,-20.020,0.000
1714026513.110,-22.949,-18.066,-32.227,-20.020,0.000
1714026513.114,-24.902,-20.996,-23.926,-23.438,0.000
1714026513.118,-26.855,-24.414,-28.320,-15.137,0.000
1714026513.122,-29.297,-25.391,-33.691,-17.578,0.000
1714026513.126,-30.762,-33.691,-30.762,-21.484,0.000
1714026513.130,-27.832,-34.180,-33.691,-14.648,0.000
1714026513.134,-24.902,-32.715,-35.156,-12.695,0.000
1714026513.136,-22.949,-28.809,-35.645,-14.648,0.000
1714026513.140,-23.438,-18.555,-35.156,-16.113,0.000
1714026513.144,-20.996,-15.625,-31.738,-11.719,0.000
1714026513.148,-19.043,-18.066,-25.879,-9.277,0.000
1714026513.152,-21.973,-22.461,-26.855,-14.648,0.000
1714026513.155,-22.949,-23.438,-24.902,-18.555,0.000
1714026513.159,-19.043,-27.832,-27.832,-13.672,0.000
1714026513.163,-17.090,-28.320,-33.691,-9.766,0.000
1714026513.167,-20.020,-22.461,-32.227,-16.113,0.000
1714026513.171,-24.414,-24.902,-28.320,-18.555,0.000
1714026513.175,-24.414,-21.973,-25.879,-14.648,0.000
1714026513.179,-28.809,-20.996,-22.949,-19.531,0.000
1714026513.181,-30.273,-22.461,-20.508,-19.531,0.000
1714026513.185,-27.344,-19.043,-30.273,-20.020,0.000
1714026513.189,-28.809,-23.438,-29.785,-20.508,0.000
1714026513.193,-27.832,-21.973,-30.762,-17.090,0.000
1714026513.197,-22.949,-21.973,-41.504,-19.531,0.000
1714026513.201,-18.066,-26.367,-38.086,-14.648,0.000
1714026513.205,-19.043,-26.367,-33.691,-0.488,0.000
1714026513.208,-19.043,-20.020,-29.785,-5.859,0.000
1714026513.212,-15.625,-20.020,-22.461,-19.043,0.000
1714026513.216,-23.438,-30.273,-22.461,-27.344,0.000
1714026513.220,-25.879,-31.250,-25.879,-28.320,0.000
1714026513.224,-20.508,-28.320,-28.320,-18.066,0.000
1714026513.234,-28.809,-34.668,-35.645,-20.508,0.000
1714026513.238,-32.715,-31.250,-39.551,-22.461,0.000
1714026513.242,-30.762,-26.367,-33.691,-26.855,0.000
1714026513.245,-31.738,-33.203,-30.273,-32.715,0.000
1714026513.249,-26.855,-34.668,-26.367,-27.832,0.000
1714026513.253,-20.996,-23.926,-22.949,-23.438,0.000
1714026513.257,-20.508,-23.438,-24.414,-21.973,0.000
1714026513.261,-22.461,-29.785,-31.738,-24.414,0.000
1714026513.265,-24.414,-33.691,-29.785,-23.438,0.000
1714026513.269,-23.438,-33.203,-17.578,-16.113,0.000
1714026513.273,-24.414,-31.250,-24.902,-26.855,0.000
1714026513.277,-27.832,-27.344,-41.016,-40.527,0.000
1714026513.282,-24.902,-26.367,-41.992,-33.691,0.000
1714026513.286,-23.438,-28.809,-37.109,-28.809,0.000
1714026513.290,-31.250,-31.738,-47.363,-33.203,0.000
1714026513.294,-31.250,-30.273,-51.270,-33.691,0.000
1714026513.298,-26.855,-27.344,-40.527,-19.531,0.000
1714026513.302,-30.762,-26.855,-32.227,-19.531,0.000
1714026513.306,-29.297,-27.344,-24.414,-22.949,0.000
1714026513.310,-26.855,-33.203,-19.043,-21.973,0.000
1714026513.314,-27.832,-38.086,-33.691,-20.020,0.000
1714026513.318,-22.461,-32.715,-39.062,-6.836,0.000
1714026513.322,-20.996,-26.855,-28.809,-8.301,0.000
1714026513.325,-21.484,-25.879,-27.344,-17.578,0.000
1714026513.329,-25.879,-24.414,-37.598,-19.043,0.000
1714026513.333,-27.344,-25.391,-41.992,-20.996,0.000
1714026513.337,-21.973,-20.020,-34.180,-20.020,0.000
1714026513.341,-18.555,-21.484,-26.367,-23.438,0.000
1714026513.345,-22.949,-24.902,-24.414,-31.250,0.000
1714026513.349,-27.344,-26.367,-25.879,-26.855,0.000
1714026513.353,-31.738,-31.738,-25.879,-21.484,0.000
1714026513.357,-31.738,-25.879,-35.645,-23.926,0.000
1714026513.360,-29.297,-28.320,-42.969,-19.531,0.000
1714026513.364,-32.227,-31.250,-35.156,-15.625,0.000
1714026513.368,-31.250,-28.809,-27.832,-20.508,0.000
1714026513.372,-23.926,-26.367,-21.484,-18.066,0.000
1714026513.375,-22.949,-27.832,-23.438,-18.555,0.000
1714026513.379,-23.438,-28.809,-29.785,-16.602,0.000
1714026513.383,-23.438,-27.344,-32.715,-17.090,0.000
1714026513.387,-25.391,-33.203,-37.598,-25.391,0.000
1714026513.391,-25.879,-33.203,-38.574,-27.832,0.000
1714026513.395,-27.832,-25.879,-33.691,-31.738,0.000
1714026513.399,-24.902,-17.578,-31.738,-37.109,0.000
1714026513.403,-28.809,-20.508,-29.297,-35.645,0.000
1714026513.406,-30.762,-27.344,-24.414,-26.855,0.000
1714026513.410,-18.555,-17.090,-21.484,-20.996,0.000
1714026513.414,-17.578,-16.113,-26.855,-19.531,0.000
1714026513.418,-24.414,-31.738,-29.785,-21.973,0.000
1714026513.421,-20.508,-32.715,-19.531,-22.949,0.000
1714026513.425,-20.508,-24.902,-20.508,-19.043,0.000
1714026513.428,-19.043,-21.973,-28.320,-19.531,0.000
1714026513.432,-18.066,-24.902,-21.973,-17.578,0.000
1714026513.436,-22.949,-23.926,-10.742,-19.531,0.000
1714026513.440,-26.855,-19.531,-12.207,-26.367,0.000
1714026513.444,-35.156,-16.602,-22.949,-32.227,0.000
1714026513.448,-42.969,-23.926,-24.902,-32.227,0.000
1714026513.452,-36.621,-21.484,-16.113,-30.273,0.000
1714026513.456,-40.527,-21.973,-7.324,-42.480,0.000
1714026513.460,-67.383,-36.133,-11.230,-66.406,0.000
1714026513.464,-78.125,-29.785,-6.348,-71.289,0.000
1714026513.466,-83.496,-21.484,3.906,-71.777,0.000
1714026513.470,-96.191,-27.832,5.371,-87.891,0.000
1714026513.474,-96.680,-27.832,7.324,-86.426,0.000
1714026513.478,-98.145,-24.414,9.766,-88.379,0.000
1714026513.481,-104.004,-25.391,7.812,-92.773,0.000
1714026513.485,-101.074,-26.367,12.207,-96.191,0.000
1714026513.489,-103.516,-20.996,14.648,-102.539,0.000
1714026513.493,-117.676,-21.484,14.160,-106.445,0.000
1714026513.497,-128.418,-26.367,19.531,-113.770,0.000
1714026513.501,-121.094,-21.484,31.738,-110.352,0.000
1714026513.505,-112.793,-23.926,27.832,-107.422,0.000
1714026513.509,-118.652,-27.344,15.625,-106.934,0.000
1714026513.511,-125.488,-35.156,13.672,-113.281,0.000
1714026513.515,-115.234,-34.668,14.648,-112.793,0.000
1714026513.519,-104.980,-31.738,19.043,-100.586,0.000
1714026513.523,-107.910,-32.227,29.297,-95.703,0.000
1714026513.527,-104.004,-33.691,29.297,-91.797,0.000
1714026513.531,-101.562,-33.691,24.414,-92.773,0.000
1714026513.534,-104.980,-37.109,23.438,-90.332,0.000
1714026513.538,-94.727,-42.480,10.742,-80.078,0.000
1714026513.542,-84.473,-37.109,4.395,-81.543,0.000
1714026513.546,-85.449,-28.320,3.906,-87.891,0.000
1714026513.550,-77.637,-27.832,-1.465,-85.938,0.000
1714026513.554,-70.801,-27.832,-0.488,-81.055,0.000
1714026513.556,-66.895,-21.973,9.277,-73.730,0.000
1714026513.560,-62.988,-21.973,4.883,-62.012,0.000
1714026513.564,-59.082,-22.461,-9.277,-56.152,0.000
1714026513.568,-63.477,-19.043,-16.602,-60.547,0.000
1714026513.572,-63.477,-17.578,-18.555,-61.523,0.000
1714026513.575,-55.664,-22.461,-9.766,-51.758,0.000
1714026513.579,-52.734,-27.344,1.953,-45.898,0.000
1714026513.583,-57.129,-19.043,-14.160,-61.035,0.000
1714026513.587,-68.359,-20.996,-24.902,-72.754,0.000
1714026513.591,-79.590,-24.414,-21.973,-81.543,0.000
1714026513.595,-71.289,-20.996,-23.438,-80.566,0.000
1714026513.599,-70.312,-23.926,-24.414,-79.102,0.000
1714026513.609,-79.590,-23.438,-25.391,-88.867,0.000
1714026513.613,-80.566,-22.949,-14.160,-85.449,0.000
1714026513.617,-73.242,-20.020,2.441,-71.289,0.000
1714026513.621,-67.871,-18.066,0.488,-66.406,0.000
1714026513.625,-74.219,-23.926,-13.184,-77.148,0.000
1714026513.629,-76.172,-27.344,-21.484,-78.125,0.000
1714026513.632,-74.707,-22.949,-22.461,-74.707,0.000
1714026513.636,-71.777,-18.066,-26.367,-79.590,0.000
1714026513.640,-68.359,-15.625,-29.297,-76.660,0.000
1714026513.644,-68.848,-22.949,-27.832,-72.754,0.000
1714026513.648,-65.430,-26.855,-24.902,-67.871,0.000
1714026513.652,-53.223,-13.184,-13.672,-60.059,0.000
1714026513.658,-54.199,-10.742,-16.602,-59.570,0.000
1714026513.662,-59.082,-20.508,-28.320,-65.918,0.000
1714026513.666,-47.852,-23.926,-38.086,-52.246,0.000
1714026513.669,-40.039,-20.508,-39.551,-35.156,0.000
1714026513.673,-36.621,-22.461,-31.250,-34.180,0.000
1714026513.677,-27.832,-22.949,-30.273,-20.996,0.000
1714026513.681,-23.438,-19.531,-35.645,-14.648,0.000
1714026513.685,-17.578,-19.043,-42.480,-15.625,0.000
1714026513.689,-1.465,-23.926,-38.086,-5.859,0.000
1714026513.693,4.395,-23.926,-35.645,3.418,0.000
1714026513.697,-1.953,-20.020,-39.551,-4.883,0.000
1714026513.701,3.906,-25.391,-34.668,4.395,0.000
1714026513.704,15.625,-29.297,-36.133,18.066,0.000
1714026513.708,18.066,-33.203,-48.340,12.207,0.000
1714026513.712,25.391,-37.598,-48.828,10.254,0.000
1714026513.716,31.738,-37.598,-48.828,11.719,0.000
1714026513.720,36.621,-34.668,-52.734,17.090,0.000
1714026513.724,40.039,-32.715,-50.293,17.578,0.000
1714026513.728,38.574,-36.133,-45.898,19.043,0.000
1714026513.732,37.598,-37.598,-43.945,28.809,0.000
1714026513.736,38.574,-31.738,-48.828,36.621,0.000
1714026513.739,34.668,-35.156,-47.363,40.527,0.000
1714026513.743,27.832,-41.992,-47.852,35.156,0.000
1714026513.747,23.926,-36.133,-50.781,30.273,0.000
1714026513.750,22.949,-32.227,-51.270,30.273,0.000
1714026513.754,20.508,-33.203,-46.875,33.691,0.000
1714026513.758,19.043,-37.109,-47.363,35.645,0.000
1714026513.762,13.672,-38.574,-53.223,31.738,0.000
1714026513.766,11.230,-36.621,-56.152,29.785,0.000
1714026513.770,16.602,-37.109,-51.758,34.180,0.000
1714026513.774,10.254,-31.738,-47.852,28.320,0.000
1714026513.778,5.859,-28.809,-60.059,22.461,0.000
1714026513.781,4.883,-31.738,-66.406,35.645,0.000
1714026513.785,7.324,-28.320,-51.270,33.691,0.000
1714026513.789,12.207,-28.320,-45.898,28.809,0.000
1714026513.793,12.207,-28.320,-46.875,32.715,0.000
1714026513.796,11.230,-27.832,-47.363,32.227,0.000
1714026513.800,12.207,-27.832,-41.992,32.227,0.000
1714026513.804,10.254,-26.855,-41.504,26.367,0.000
1714026513.808,7.324,-22.461,-41.504,23.926,0.000
1714026513.812,8.789,-17.578,-43.457,29.785,0.000
1714026513.816,13.184,-22.461,-48.828,36.621,0.000
1714026513.819,11.230,-26.855,-46.387,36.133,0.000
1714026513.823,4.395,-21.484,-54.199,28.809,0.000
1714026513.827,2.930,-19.531,-46.387,26.855,0.000
1714026513.831,5.859,-18.555,-33.203,27.832,0.000
1714026513.835,7.324,-20.020,-39.062,19.043,0.000
1714026513.839,9.277,-24.902,-39.062,12.695,0.000
1714026513.841,3.418,-24.414,-38.574,10.742,0.000
1714026513.845,-2.441,-25.391,-41.992,14.160,0.000
1714026513.849,-0.977,-21.973,-34.180,16.602,0.000
1714026513.853,1.465,-18.555,-34.668,13.184,0.000
1714026513.857,-2.930,-20.508,-43.945,9.277,0.000
1714026513.861,-4.395,-25.879,-41.016,7.324,0.000
1714026513.864,-3.906,-28.809,-45.410,4.395,0.000
1714026513.868,-1.953,-28.320,-49.316,7.812,0.000
1714026513.872,-2.930,-26.367,-47.363,0.977,0.000
1714026513.876,-6.836,-25.391,-42.480,-8.301,0.000
1714026513.880,-6.348,-25.879,-38.574,0.488,0.000
1714026513.884,0.000,-20.996,-32.227,11.719,0.000
1714026513.886,-0.488,-16.113,-33.203,7.324,0.000
1714026513.890,0.000,-15.137,-30.762,3.906,0.000
1714026513.894,-2.930,-20.020,-33.203,5.859,0.000
1714026513.898,-7.812,-22.461,-47.852,-4.883,0.000
1714026513.902,-10.254,-20.508,-44.434,-12.207,0.000
1714026513.906,-12.695,-26.855,-41.016,-4.395,0.000
1714026513.910,-14.648,-28.809,-39.551,5.371,0.000
1714026513.913,-10.742,-16.113,-23.438,13.184,0.000
1714026513.917,-7.812,-14.160,-22.461,4.883,0.000
1714026513.921,-16.113,-24.414,-31.250,-8.789,0.000
1714026513.925,-18.555,-32.227,-32.715,-4.395,0.000
1714026513.929,-14.648,-26.855,-38.086,-1.465,0.000
1714026513.931,-14.160,-22.949,-35.645,-5.859,0.000
1714026513.935,-17.578,-25.391,-25.391,-7.324,0.000
1714026513.939,-21.484,-24.902,-34.668,-10.254,0.000
1714026513.943,-17.090,-22.461,-36.621,-6.836,0.000
1714026513.947,-13.184,-24.414,-34.180,-2.441,0.000
1714026513.951,-20.508,-33.691,-49.805,-9.766,0.000
1714026513.954,-20.996,-29.785,-54.199,-8.789,0.000
1714026513.958,-19.531,-19.043,-34.668,-8.789,0.000
1714026513.962,-24.414,-30.273,-27.832,-13.184,0.000
1714026513.966,-25.391,-30.762,-28.809,-15.625,0.000
1714026513.970,-20.508,-20.996,-16.113,-12.207,0.000
1714026513.974,-20.996,-24.414,-19.043,-12.695,0.000
1714026513.976,-23.438,-27.344,-37.109,-15.625,0.000
1714026513.980,-24.902,-27.832,-40.527,-15.137,0.000
1714026513.984,-28.809,-26.855,-35.156,-22.461,0.000
1714026513.988,-31.738,-24.902,-27.344,-27.344,0.000
1714026513.992,-36.621,-31.738,-29.297,-26.855,0.000
1714026513.996,-39.551,-38.086,-33.691,-24.902,0.000
1714026514.000,-37.109,-35.156,-29.297,-20.508,0.000
1714026514.004,-36.133,-32.715,-25.879,-25.879,0.000
1714026514.007,-35.645,-28.809,-26.855,-30.273,0.000
1714026514.011,-32.715,-26.855,-38.574,-23.438,0.000
1714026514.015,-33.203,-22.949,-47.852,-30.762,0.000
1714026514.019,-33.203,-18.555,-41.504,-41.016,0.000
1714026514.029,-31.250,-31.250,-36.133,-36.133,0.000
1714026514.033,-31.250,-38.574,-34.668,-29.785,0.000
1714026514.037,-32.227,-30.273,-22.949,-29.297,0.000
1714026514.041,-35.645,-27.832,-28.809,-29.297,0.000
1714026514.045,-36.133,-33.691,-29.297,-24.414,0.000
1714026514.048,-35.645,-38.574,-23.926,-26.855,0.000
1714026514.052,-32.227,-34.180,-31.738,-36.621,0.000
1714026514.056,-30.762,-28.320,-37.109,-39.062,0.000
1714026514.060,-28.320,-26.367,-37.109,-26.855,0.000
1714026514.064,-28.320,-30.273,-32.715,-20.020,0.000
1714026514.068,-33.691,-27.344,-33.203,-29.785,0.000
1714026514.072,-34.180,-26.855,-40.527,-34.668,0.000
1714026514.077,-28.320,-32.715,-27.832,-32.227,0.000
1714026514.081,-29.297,-26.855,-16.602,-32.227,0.000
1714026514.085,-35.156,-25.879,-23.926,-34.668,0.000
1714026514.089,-33.691,-29.785,-26.367,-29.785,0.000
1714026514.093,-30.762,-19.043,-24.902,-21.973,0.000
1714026514.097,-30.762,-14.160,-35.156,-25.879,0.000
1714026514.101,-30.273,-22.461,-40.039,-31.738,0.000
1714026514.105,-27.832,-27.344,-34.180,-33.203,0.000
1714026514.109,-23.926,-29.785,-29.785,-27.832,0.000
1714026514.113,-27.832,-28.809,-21.484,-27.344,0.000
1714026514.117,-26.855,-26.367,-14.160,-28.320,0.000
1714026514.120,-22.949,-29.297,-14.648,-25.879,0.000
1714026514.124,-25.879,-33.203,-30.273,-32.227,0.000
1714026514.128,-28.320,-31.250,-34.668,-34.180,0.000
1714026514.132,-27.832,-33.691,-29.297,-24.414,0.000
1714026514.136,-22.461,-36.621,-32.227,-15.137,0.000
1714026514.140,-22.949,-40.527,-29.785,-12.695,0.000
1714026514.144,-28.809,-40.527,-34.180,-16.113,0.000
1714026514.148,-29.297,-35.156,-32.715,-17.578,0.000
1714026514.152,-27.344,-32.715,-18.066,-11.719,0.000
1714026514.155,-32.227,-33.691,-34.180,-15.137,0.000
1714026514.159,-34.668,-30.762,-41.504,-25.391,0.000
1714026514.163,-27.344,-32.227,-34.668,-25.391,0.000
1714026514.167,-21.973,-31.250,-34.180,-17.090,0.000
1714026514.171,-23.926,-25.391,-38.574,-22.461,0.000
1714026514.175,-26.855,-25.879,-39.551,-30.273,0.000
1714026514.178,-27.344,-22.949,-30.273,-21.484,0.000
1714026514.182,-17.578,-21.484,-21.484,-10.742,0.000
1714026514.186,-14.160,-27.832,-24.414,-14.160,0.000
1714026514.190,-21.484,-28.320,-44.434,-23.438,0.000
1714026514.194,-25.879,-32.227,-47.363,-21.973,0.000
1714026514.198,-26.855,-38.574,-34.668,-12.207,0.000
1714026514.202,-24.902,-29.785,-24.414,-14.160,0.000
1714026514.206,-22.461,-20.996,-21.973,-26.367,0.000
1714026514.210,-17.578,-20.508,-20.996,-25.391,0.000
1714026514.214,-20.020,-22.461,-25.391,-16.602,0.000
1714026514.216,-24.414,-27.832,-29.297,-21.484,0.000
1714026514.220,-27.344,-26.855,-14.648,-27.832,0.000
1714026514.224,-30.762,-21.973,-17.090,-27.344,0.000
1714026514.227,-30.273,-23.926,-22.949,-25.391,0.000
1714026514.231,-32.227,-29.297,-24.902,-23.438,0.000
1714026514.235,-29.297,-32.715,-31.738,-25.879,0.000
1714026514.239,-28.320,-32.715,-24.414,-29.785,0.000
1714026514.243,-34.180,-34.180,-21.484,-26.855,0.000
1714026514.247,-32.715,-34.668,-18.555,-25.391,0.000
1714026514.251,-31.250,-26.855,-15.137,-26.855,0.000
1714026514.255,-32.715,-22.461,-25.391,-31.250,0.000
1714026514.259,-33.691,-23.926,-25.879,-35.156,0.000
1714026514.261,-41.504,-25.879,-19.043,-33.691,0.000
1714026514.265,-36.133,-27.832,-20.996,-33.203,0.000
1714026514.269,-31.738,-33.691,-34.668,-40.039,0.000
1714026514.273,-37.109,-32.715,-47.363,-45.410,0.000
1714026514.277,-32.715,-25.391,-37.109,-42.480,0.000
1714026514.280,-25.391,-23.438,-31.738,-38.574,0.000
1714026514.284,-25.391,-20.508,-28.320,-31.738,0.000
1714026514.288,-29.297,-18.066,-28.809,-32.227,0.000
1714026514.292,-29.785,-23.438,-30.762,-35.645,0.000
1714026514.296,-30.273,-27.832,-30.273,-34.668,0.000
1714026514.300,-28.320,-27.344,-34.180,-31.738,0.000
1714026514.304,-28.320,-28.320,-28.809,-23.926,0.000
1714026514.306,-34.180,-28.320,-26.855,-25.879,0.000
1714026514.310,-32.227,-32.715,-26.367,-29.297,0.000
1714026514.314,-26.367,-26.855,-20.508,-26.855,0.000
1714026514.318,-26.367,-18.555,-29.297,-24.414,0.000
1714026514.322,-28.320,-16.602,-29.785,-19.043,0.000
1714026514.325,-29.297,-20.020,-23.926,-15.625,0.000
1714026514.329,-33.691,-35.156,-28.809,-19.531,0.000
1714026514.333,-27.832,-29.785,-20.508,-23.438,0.000
1714026514.337,-22.461,-26.367,-19.043,-19.043,0.000
1714026514.341,-24.902,-36.133,-27.344,-16.113,0.000
1714026514.345,-17.578,-25.391,-21.973,-11.719,0.000
1714026514.349,-17.578,-18.555,-20.996,-16.113,0.000
1714026514.359,-26.367,-22.461,-35.156,-25.879,0.000
1714026514.363,-29.785,-21.973,-37.598,-30.273,0.000
1714026514.367,-32.715,-26.855,-30.273,-34.668,0.000
1714026514.371,-31.738,-35.156,-29.297,-35.645,0.000
1714026514.375,-34.668,-37.598,-28.320,-38.574,0.000
1714026514.379,-38.086,-36.133,-23.926,-29.297,0.000
1714026514.383,-38.086,-40.039,-20.020,-20.996,0.000
1714026514.386,-41.992,-41.504,-30.762,-30.762,0.000
1714026514.390,-34.668,-33.203,-25.391,-29.785,0.000
1714026514.394,-27.832,-28.320,-22.949,-29.297,0.000
1714026514.398,-34.180,-29.297,-37.109,-39.062,0.000
1714026514.402,-36.621,-30.273,-42.480,-36.621,0.000
1714026514.408,-29.297,-23.926,-34.668,-28.809,0.000
1714026514.412,-23.926,-16.113,-23.438,-28.320,0.000
1714026514.416,-26.367,-20.020,-25.391,-25.879,0.000
1714026514.419,-29.297,-27.344,-23.438,-18.066,0.000
1714026514.423,-25.879,-22.461,-22.461,-15.137,0.000
1714026514.427,-29.785,-21.973,-31.738,-21.973,0.000
1714026514.431,-29.785,-25.879,-36.621,-25.879,0.000
1714026514.435,-25.391,-22.461,-38.086,-25.879,0.000
1714026514.439,-26.367,-22.461,-35.645,-26.855,0.000
1714026514.443,-25.391,-25.391,-35.156,-23.438,0.000
1714026514.447,-25.879,-22.461,-34.180,-22.461,0.000
1714026514.451,-22.949,-18.555,-26.367,-19.043,0.000
1714026514.454,-26.367,-15.137,-20.508,-19.043,0.000
1714026514.458,-25.391,-18.066,-23.926,-23.438,0.000
1714026514.462,-15.625,-22.949,-18.555,-15.137,0.000
1714026514.466,-14.648,-18.555,-12.207,-7.324,0.000
1714026514.470,-15.137,-22.461,-19.043,-14.648,0.000
1714026514.474,-19.531,-26.367,-31.250,-20.996,0.000
1714026514.478,-27.344,-36.133,-35.645,-17.578,0.000
1714026514.482,-25.391,-37.109,-31.250,-12.695,0.000
1714026514.486,-21.973,-27.344,-30.273,-10.742,0.000
1714026514.490,-25.391,-27.344,-28.320,-19.531,0.000
1714026514.494,-23.926,-31.738,-29.297,-23.926,0.000
1714026514.497,-24.414,-29.785,-29.785,-24.902,0.000
1714026514.508,-28.320,-26.855,-25.391,-25.391,0.000
1714026514.512,-34.668,-30.273,-27.832,-31.250,0.000
1714026514.516,-28.320,-23.438,-28.809,-32.715,0.000
1714026514.520,-17.578,-20.508,-27.344,-22.949,0.000
1714026514.523,-16.113,-25.391,-33.691,-20.020,0.000
1714026514.527,-15.625,-30.762,-35.156,-24.414,0.000
1714026514.531,-11.230,-33.203,-31.738,-29.785,0.000
1714026514.535,-17.090,-34.668,-27.344,-32.227,0.000
1714026514.539,-26.855,-33.691,-35.156,-24.902,0.000
1714026514.543,-24.414,-23.926,-28.320,-14.160,0.000
1714026514.547,-21.484,-21.973,-21.484,-16.602,0.000
1714026514.551,-34.668,-31.738,-33.691,-32.227,0.000
1714026514.549,-38.086,-34.180,-27.344,-21.973,0.000
1714026514.553,-27.832,-26.367,-19.043,-9.766,0.000
1714026514.557,-25.879,-17.578,-19.043,-21.484,0.000
1714026514.561,-32.715,-25.879,-28.809,-30.273,0.000
1714026514.565,-30.762,-27.832,-31.738,-22.461,0.000
1714026514.569,-23.926,-17.090,-19.043,-15.137,0.000
1714026514.573,-24.414,-16.602,-21.973,-16.602,0.000
1714026514.577,-26.855,-20.020,-29.297,-20.020,0.000
1714026514.581,-37.598,-24.902,-26.367,-26.367,0.000
1714026514.584,-40.527,-27.832,-20.020,-22.949,0.000
1714026514.588,-33.203,-30.273,-16.113,-21.484,0.000
1714026514.592,-32.227,-33.203,-21.973,-23.926,0.000
1714026514.593,-34.180,-27.344,-28.809,-20.020,0.000
1714026514.597,-36.133,-34.180,-31.250,-25.391,0.000
1714026514.600,-35.645,-46.387,-27.344,-25.879,0.000
1714026514.604,-32.227,-33.203,-36.133,-20.996,0.000
1714026514.608,-31.738,-18.066,-37.109,-21.484,0.000
1714026514.612,-38.086,-17.578,-32.227,-27.344,0.000
1714026514.616,-36.133,-20.020,-26.367,-25.879,0.000
1714026514.620,-31.250,-20.996,-23.438,-22.461,0.000
1714026514.624,-32.715,-20.508,-26.367,-33.203,0.000
1714026514.628,-32.227,-27.344,-31.250,-37.598,0.000
1714026514.632,-33.691,-29.297,-34.668,-38.086,0.000
1714026514.636,-35.645,-23.438,-31.250,-34.180,0.000
1714026514.637,-29.785,-24.414,-35.645,-23.926,0.000
1714026514.641,-30.273,-22.461,-43.457,-31.738,0.000
1714026514.645,-30.273,-19.043,-34.668,-28.320,0.000
1714026514.649,-28.320,-22.461,-17.578,-18.555,0.000
1714026514.652,-27.832,-19.043,-22.461,-19.043,0.000
1714026514.656,-27.344,-13.672,-28.320,-22.461,0.000
1714026514.660,-24.902,-14.160,-28.320,-12.695,0.000
1714026514.664,-18.555,-13.184,-28.809,-5.371,0.000
1714026514.668,-24.902,-14.160,-26.367,-24.902,0.000
1714026514.672,-36.133,-23.926,-30.762,-37.598,0.000
1714026514.676,-33.691,-26.855,-32.715,-34.180,0.000
1714026514.680,-26.367,-27.344,-30.273,-26.367,0.000
1714026514.681,-31.250,-26.367,-34.180,-34.668,0.000
1714026514.685,-34.180,-22.461,-28.809,-37.598,0.000
1714026514.689,-29.297,-23.438,-29.297,-26.367,0.000
1714026514.693,-20.508,-18.555,-20.020,-21.484,0.000
1714026514.697,-20.020,-17.578,-13.672,-23.926,0.000
1714026514.701,-23.926,-20.020,-28.809,-22.461,0.000
1714026514.705,-23.438,-27.832,-34.180,-10.742,0.000
1714026514.709,-25.879,-31.250,-21.973,-16.602,0.000
1714026514.713,-26.855,-28.320,-14.648,-24.414,0.000
1714026514.717,-23.926,-27.344,-22.949,-21.484,0.000
1714026514.721,-23.926,-32.715,-28.809,-22.949,0.000
1714026514.724,-21.973,-26.855,-20.508,-14.648,0.000
1714026514.726,-21.973,-15.137,-18.555,-12.207,0.000
1714026514.730,-24.902,-20.020,-18.555,-17.578,0.000
1714026514.734,-27.832,-23.438,-21.973,-14.648,0.000
1714026514.738,-29.297,-26.855,-23.438,-14.648,0.000
1714026514.742,-22.949,-31.738,-19.531,-7.812,0.000
1714026514.746,-21.973,-27.344,-19.531,-3.906,0.000
1714026514.750,-21.484,-21.484,-11.719,-14.160,0.000
1714026514.754,-20.996,-25.879,-8.301,-15.625,0.000
1714026514.758,-22.949,-41.504,-23.926,-17.578,0.000
1714026514.762,-25.879,-39.551,-36.621,-21.484,0.000
1714026514.766,-22.461,-27.832,-26.855,-18.555,0.000
1714026514.769,-18.066,-25.879,-22.949,-19.043,0.000
1714026514.779,-19.043,-23.926,-25.391,-17.090,0.000
1714026514.783,-20.020,-22.949,-19.043,-16.602,0.000
1714026514.787,-20.996,-21.484,-21.484,-17.578,0.000
1714026514.791,-23.926,-26.367,-26.367,-17.090,0.000
1714026514.795,-21.973,-27.344,-24.414,-13.672,0.000
1714026514.799,-22.949,-27.832,-31.738,-15.137,0.000
1714026514.802,-32.715,-30.762,-34.180,-21.484,0.000
1714026514.806,-37.598,-25.879,-45.898,-26.367,0.000
1714026514.810,-33.691,-18.066,-39.062,-22.949,0.000
1714026514.814,-35.645,-15.625,-26.855,-19.043,0.000
1714026514.818,-30.273,-12.207,-25.391,-22.461,0.000
1714026514.822,-22.949,-14.648,-18.066,-21.484,0.000
1714026514.828,-27.832,-23.438,-17.090,-20.508,0.000
1714026514.831,-30.762,-22.461,-17.090,-20.508,0.000
1714026514.835,-29.785,-24.902,-19.043,-22.461,0.000
1714026514.839,-34.668,-30.273,-31.738,-25.391,0.000
1714026514.843,-37.598,-28.809,-39.551,-25.879,0.000
1714026514.847,-41.504,-30.273,-32.227,-26.367,0.000
1714026514.851,-43.945,-32.715,-26.367,-23.438,0.000
1714026514.855,-36.621,-31.250,-18.555,-17.578,0.000
1714026514.859,-35.156,-28.809,-14.648,-15.625,0.000
1714026514.863,-42.969,-28.320,-20.508,-17.578,0.000
1714026514.867,-40.039,-21.973,-22.949,-14.160,0.000
1714026514.870,-38.574,-25.391,-33.691,-25.391,0.000
1714026514.874,-41.504,-30.762,-42.969,-38.574,0.000
1714026514.878,-34.668,-27.344,-36.621,-34.180,0.000
1714026514.882,-28.809,-25.391,-29.785,-24.902,0.000
1714026514.886,-26.367,-21.973,-21.484,-19.043,0.000
1714026514.890,-29.297,-26.367,-8.789,-20.508,0.000
1714026514.894,-30.273,-25.879,-11.230,-19.531,0.000
1714026514.898,-26.855,-16.113,-32.227,-17.090,0.000
1714026514.902,-21.484,-13.672,-37.109,-13.672,0.000
1714026514.906,-18.066,-17.090,-32.715,-9.766,0.000
1714026514.910,-18.555,-13.184,-20.508,-12.695,0.000
1714026514.913,-15.625,-16.113,-15.625,-12.695,0.000
1714026514.917,-14.648,-21.973,-17.090,-12.695,0.000
1714026514.920,-17.090,-20.020,-19.531,-18.555,0.000
1714026514.924,-15.625,-16.602,-20.508,-23.438,0.000
1714026514.928,-15.625,-22.949,-17.090,-22.461,0.000
1714026514.932,-19.531,-27.832,-21.484,-19.531,0.000
1714026514.936,-21.484,-20.020,-25.391,-21.484,0.000
1714026514.940,-19.531,-15.625,-18.555,-24.414,0.000
1714026514.944,-23.926,-17.578,-19.531,-23.438,0.000
1714026514.948,-27.832,-19.043,-23.438,-16.113,0.000
1714026514.951,-23.438,-20.508,-17.090,-15.625,0.000
1714026514.955,-24.414,-18.555,-17.090,-20.996,0.000
1714026514.959,-29.297,-21.973,-20.996,-20.996,0.000
1714026514.963,-28.320,-38.086,-20.508,-20.020,0.000
1714026514.966,-23.926,-36.621,-18.555,-20.996,0.000
1714026514.969,-20.020,-32.715,-18.555,-20.996,0.000
1714026514.973,-18.555,-40.527,-23.438,-19.531,0.000
1714026514.977,-27.832,-42.969,-33.203,-25.391,0.000
1714026514.981,-27.832,-33.203,-31.250,-27.832,0.000
1714026514.985,-26.855,-23.926,-29.297,-26.367,0.000
1714026514.989,-31.738,-20.996,-26.855,-31.250,0.000
1714026514.993,-30.762,-24.902,-28.320,-27.832,0.000
1714026514.997,-27.832,-29.297,-18.555,-29.297,0.000
1714026515.001,-28.809,-29.297,-20.996,-32.227,0.000
1714026515.005,-32.227,-26.855,-34.180,-32.715,0.000
1714026515.008,-37.598,-25.391,-35.645,-31.738,0.000
1714026515.011,-37.598,-25.391,-34.668,-33.203,0.000
1714026515.015,-35.645,-27.344,-20.020,-33.203,0.000
1714026515.019,-33.691,-28.320,-15.137,-26.367,0.000
1714026515.023,-32.715,-26.855,-19.531,-23.438,0.000
1714026515.026,-35.156,-25.391,-16.113,-21.484,0.000
1714026515.030,-33.691,-28.320,-26.367,-22.461,0.000
1714026515.034,-26.855,-36.133,-34.180,-18.066,0.000
1714026515.038,-26.367,-26.367,-35.645,-22.949,0.000
1714026515.042,-30.762,-13.184,-34.180,-33.203,0.000
1714026515.046,-26.855,-15.137,-20.508,-28.809,0.000
1714026515.050,-26.855,-19.043,-9.766,-33.691,0.000
1714026515.054,-30.762,-19.043,-23.926,-40.527,0.000
1714026515.056,-25.391,-20.996,-30.762,-30.273,0.000
1714026515.060,-19.531,-31.250,-24.902,-23.438,0.000
1714026515.064,-16.602,-32.227,-25.879,-18.555,0.000
1714026515.068,-23.438,-30.762,-29.785,-21.973,0.000
1714026515.072,-28.320,-32.715,-37.109,-24.902,0.000
1714026515.076,-29.785,-36.133,-35.156,-20.996,0.000
1714026515.080,-30.273,-36.133,-28.320,-18.066,0.000
1714026515.084,-24.902,-24.902,-28.809,-18.555,0.000
1714026515.088,-25.879,-14.160,-31.250,-20.020,0.000
1714026515.092,-27.832,-16.113,-42.969,-21.973,0.000
1714026515.095,-23.926,-25.879,-46.875,-24.414,0.000
1714026515.099,-28.320,-30.273,-36.133,-29.297,0.000
1714026515.109,-33.691,-32.715,-20.996,-27.832,0.000
1714026515.113,-33.691,-34.668,-8.789,-22.949,0.000
1714026515.117,-32.227,-28.320,-9.766,-22.949,0.000
1714026515.121,-25.879,-23.438,-16.113,-23.438,0.000
1714026515.125,-30.273,-22.461,-26.855,-30.273,0.000
1714026515.129,-39.551,-20.020,-39.551,-32.227,0.000
1714026515.133,-29.785,-17.090,-34.180,-23.438,0.000
1714026515.137,-21.973,-18.555,-31.250,-24.902,0.000
1714026515.141,-28.320,-26.367,-38.574,-36.621,0.000
1714026515.144,-32.715,-30.762,-29.785,-34.668,0.000
1714026515.148,-29.785,-33.203,-22.949,-32.227,0.000
1714026515.152,-19.531,-25.391,-26.367,-20.996,0.000
1714026515.158,-13.184,-21.484,-36.621,-12.207,0.000
1714026515.162,-27.832,-27.832,-38.574,-23.926,0.000
1714026515.166,-36.133,-28.809,-32.227,-30.273,0.000
1714026515.170,-30.273,-31.250,-29.785,-30.762,0.000
1714026515.173,-28.320,-34.668,-21.484,-30.762,0.000
1714026515.177,-32.715,-35.645,-18.555,-31.250,0.000
1714026515.181,-35.645,-37.598,-20.508,-28.320,0.000
1714026515.185,-31.738,-35.645,-17.578,-23.926,0.000
1714026515.189,-23.926,-35.156,-22.949,-20.508,0.000
1714026515.193,-19.531,-33.691,-30.273,-18.066,0.000
1714026515.197,-18.555,-33.203,-30.762,-20.996,0.000
1714026515.201,-17.090,-28.809,-22.949,-15.625,0.000
1714026515.205,-23.926,-25.879,-10.254,-15.625,0.000
1714026515.208,-32.227,-26.855,-17.578,-25.391,0.000
1714026515.212,-30.762,-25.391,-30.762,-32.715,0.000
1714026515.216,-28.320,-25.879,-20.020,-27.344,0.000
1714026515.220,-27.832,-21.484,-20.020,-21.973,0.000
1714026515.224,-23.438,-22.949,-23.926,-23.926,0.000
1714026515.228,-25.391,-31.738,-22.461,-29.785,0.000
1714026515.232,-30.273,-22.461,-25.879,-34.180,0.000
1714026515.236,-32.715,-19.043,-25.391,-29.297,0.000
1714026515.240,-31.250,-21.484,-10.742,-21.973,0.000
1714026515.244,-31.738,-20.020,-0.488,-31.250,0.000
1714026515.248,-37.109,-27.832,-14.648,-36.621,0.000
1714026515.250,-34.668,-28.320,-20.020,-29.297,0.000
1714026515.254,-37.109,-22.461,-14.648,-31.738,0.000
1714026515.258,-40.527,-24.414,-17.578,-36.621,0.000
1714026515.262,-34.180,-27.832,-19.531,-31.738,0.000
1714026515.266,-35.645,-28.320,-14.648,-27.832,0.000
1714026515.270,-41.016,-29.785,-18.066,-30.762,0.000
1714026515.274,-39.551,-34.668,-29.785,-35.645,0.000
1714026515.278,-39.551,-35.645,-20.020,-35.645,0.000
1714026515.281,-39.062,-37.109,-19.531,-28.809,0.000
1714026515.285,-36.133,-32.227,-24.902,-36.621,0.000
1714026515.289,-26.367,-20.996,-32.715,-42.480,0.000
1714026515.293,-21.973,-16.602,-31.250,-41.016,0.000
1714026515.296,-31.250,-20.508,-20.508,-41.504,0.000
1714026515.300,-29.297,-20.508,-26.367,-40.527,0.000
1714026515.303,-19.531,-23.926,-29.785,-35.645,0.000
1714026515.307,-21.484,-39.062,-28.809,-32.715,0.000
1714026515.311,-19.531,-36.621,-43.457,-33.203,0.000
1714026515.315,-11.719,-31.250,-41.016,-29.785,0.000
1714026515.319,-12.695,-30.762,-26.855,-24.902,0.000
1714026515.323,-18.555,-27.344,-22.949,-19.531,0.000
1714026515.327,-23.926,-19.531,-25.391,-18.555,0.000
1714026515.331,-22.949,-13.672,-27.344,-23.926,0.000
1714026515.335,-20.508,-10.742,-19.531,-17.090,0.000
1714026515.339,-26.367,-15.137,-18.555,-16.602,0.000
1714026515.349,-28.320,-18.066,-33.691,-22.461,0.000
1714026515.353,-23.926,-19.531,-31.738,-22.949,0.000
1714026515.357,-18.555,-20.508,-30.273,-17.578,0.000
1714026515.360,-22.461,-18.066,-39.062,-20.508,0.000
1714026515.364,-27.832,-25.879,-37.598,-28.809,0.000
1714026515.368,-30.273,-34.668,-39.062,-27.344,0.000
1714026515.372,-33.691,-31.250,-28.809,-26.367,0.000
1714026515.376,-38.086,-28.809,-26.855,-27.344,0.000
1714026515.380,-37.598,-30.762,-35.645,-33.203,0.000
1714026515.384,-33.203,-27.344,-31.250,-34.180,0.000
1714026515.388,-35.156,-28.320,-40.039,-32.227,0.000
1714026515.392,-36.621,-36.133,-40.039,-33.203,0.000
1714026515.390,-30.762,-32.227,-34.180,-26.367,0.000
1714026515.394,-21.484,-20.996,-33.203,-17.090,0.000
1714026515.398,-25.879,-20.020,-23.926,-22.949,0.000
1714026515.401,-33.691,-25.879,-30.762,-35.645,0.000
1714026515.405,-31.250,-28.809,-36.133,-40.527,0.000
1714026515.409,-28.809,-27.344,-38.574,-40.039,0.000
1714026515.413,-28.809,-23.438,-41.504,-35.156,0.000
1714026515.417,-30.273,-21.973,-36.621,-31.250,0.000
1714026515.421,-30.762,-27.344,-37.109,-38.574,0.000
1714026515.425,-34.180,-32.227,-41.016,-39.551,0.000
1714026515.429,-33.203,-39.062,-38.086,-30.273,0.000
1714026515.433,-34.180,-41.016,-37.109,-36.133,0.000
1714026515.433,-33.691,-38.574,-44.922,-43.945,0.000
1714026515.437,-28.809,-42.969,-46.387,-36.621,0.000
1714026515.441,-29.297,-30.273,-42.480,-33.203,0.000
1714026515.444,-30.762,-22.949,-37.598,-31.738,0.000
1714026515.448,-26.367,-31.738,-32.715,-33.691,0.000
1714026515.452,-24.414,-29.785,-29.297,-35.156,0.000
1714026515.456,-25.391,-27.344,-26.367,-25.879,0.000
1714026515.460,-29.785,-29.785,-26.855,-29.785,0.000
1714026515.464,-27.832,-28.809,-29.297,-30.273,0.000
1714026515.468,-20.020,-26.855,-30.273,-25.391,0.000
1714026515.472,-19.043,-29.297,-31.738,-23.926,0.000
1714026515.476,-15.137,-24.902,-30.762,-15.625,0.000
1714026515.477,-13.184,-21.484,-25.879,-15.625,0.000
1714026515.481,-14.648,-29.785,-28.320,-20.508,0.000
1714026515.485,-14.160,-34.668,-38.086,-20.996,0.000
1714026515.489,-18.066,-30.273,-36.133,-19.043,0.000
1714026515.493,-18.555,-30.273,-25.391,-12.207,0.000
1714026515.497,-19.531,-30.273,-30.762,-9.766,0.000
1714026515.501,-23.438,-29.297,-24.902,-12.695,0.000
1714026515.505,-31.250,-31.738,-25.391,-18.066,0.000
1714026515.508,-29.297,-23.926,-26.855,-19.043,0.000
1714026515.512,-25.879,-21.484,-33.203,-18.066,0.000
1714026515.516,-25.879,-30.273,-41.016,-20.996,0.000
1714026515.520,-23.926,-29.785,-28.809,-20.020,0.000
1714026515.529,-27.832,-28.320,-23.438,-25.879,0.000
1714026515.533,-26.855,-32.227,-28.809,-25.879,0.000
1714026515.537,-25.391,-30.273,-26.367,-21.484,0.000
1714026515.541,-28.320,-23.926,-24.902,-28.320,0.000
1714026515.545,-21.973,-18.066,-28.320,-21.484,0.000
1714026515.549,-19.531,-20.020,-31.250,-20.020,0.000
1714026515.553,-22.949,-27.832,-31.250,-30.273,0.000
1714026515.557,-23.438,-31.738,-24.414,-24.414,0.000
1714026515.561,-24.902,-30.762,-27.344,-18.555,0.000
1714026515.565,-26.367,-29.297,-32.227,-23.926,0.000
1714026515.568,-26.367,-20.508,-29.785,-31.250,0.000
1714026515.572,-27.832,-20.508,-31.738,-38.086,0.000
1714026515.578,-28.320,-19.531,-30.273,-36.133,0.000
1714026515.582,-21.973,-20.020,-21.973,-26.367,0.000
1714026515.586,-18.555,-28.320,-19.043,-29.297,0.000
1714026515.590,-20.508,-30.273,-25.879,-26.367,0.000
1714026515.594,-22.949,-30.273,-33.203,-18.555,0.000
1714026515.597,-26.855,-25.391,-28.809,-19.043,0.000
1714026515.601,-31.738,-20.508,-27.344,-28.320,0.000
1714026515.605,-32.227,-20.996,-32.715,-32.227,0.000
1714026515.609,-26.367,-18.066,-27.344,-20.996,0.000
1714026515.613,-26.367,-20.508,-16.113,-15.625,0.000
1714026515.617,-22.949,-20.508,-12.695,-14.648,0.000
1714026515.621,-16.113,-21.484,-10.254,-10.254,0.000
1714026515.624,-21.484,-26.367,-10.742,-19.531,0.000
1714026515.628,-27.344,-24.414,-19.043,-26.367,0.000
1714026515.632,-29.297,-25.391,-28.320,-23.438,0.000
1714026515.636,-24.414,-21.973,-23.926,-21.973,0.000
1714026515.640,-25.879,-17.578,-20.020,-25.879,0.000
1714026515.644,-30.762,-14.160,-30.273,-27.344,0.000
1714026515.648,-27.832,-6.836,-26.367,-23.438,0.000
1714026515.652,-29.297,-12.695,-20.020,-17.578,0.000
1714026515.656,-33.203,-21.973,-27.832,-19.043,0.000
1714026515.659,-35.645,-20.508,-20.020,-24.414,0.000
1714026515.663,-38.086,-22.461,-23.926,-26.367,0.000
1714026515.667,-41.992,-26.367,-31.250,-32.227,0.000
1714026515.671,-38.086,-20.020,-23.926,-32.715,0.000
1714026515.675,-42.969,-21.973,-30.762,-42.480,0.000
1714026515.679,-47.363,-24.414,-33.203,-49.805,0.000
1714026515.683,-50.293,-16.113,-24.902,-48.828,0.000
1714026515.686,-57.129,-21.973,-23.438,-57.129,0.000
1714026515.690,-63.477,-30.273,-29.297,-68.848,0.000
1714026515.694,-73.730,-30.762,-32.715,-77.637,0.000
1714026515.698,-83.496,-26.855,-36.133,-82.520,0.000
1714026515.702,-82.031,-22.949,-25.879,-86.426,0.000
1714026515.706,-80.566,-22.949,-11.719,-98.633,0.000
1714026515.710,-83.496,-21.973,-10.742,-102.539,0.000
1714026515.714,-86.426,-20.996,-3.418,-98.145,0.000
1714026515.716,-89.844,-11.719,-13.184,-100.586,0.000
1714026515.720,-93.262,-14.648,-29.785,-106.445,0.000
1714026515.724,-102.051,-21.973,-22.461,-113.770,0.000
1714026515.728,-108.887,-20.020,-20.508,-115.234,0.000
1714026515.732,-106.445,-19.043,-15.625,-109.863,0.000
1714026515.736,-98.145,-23.926,-15.137,-109.863,0.000
1714026515.739,-97.168,-25.879,-18.066,-110.840,0.000
1714026515.743,-97.168,-24.414,-20.996,-97.656,0.000
1714026515.747,-95.703,-22.949,-27.832,-93.750,0.000
1714026515.751,-90.820,-23.438,-26.855,-98.633,0.000
1714026515.755,-87.402,-26.367,-20.020,-92.285,0.000
1714026515.759,-82.520,-28.809,-23.438,-83.984,0.000
1714026515.761,-79.102,-31.738,-28.320,-80.078,0.000
1714026515.765,-70.801,-19.531,-13.672,-69.824,0.000
1714026515.769,-59.082,-8.301,-7.324,-61.035,0.000
1714026515.773,-55.176,-14.160,-21.484,-54.688,0.000
1714026515.777,-54.199,-22.461,-26.367,-55.664,0.000
1714026515.781,-44.434,-13.672,-19.043,-51.758,0.000
1714026515.785,-32.227,-5.859,-8.789,-36.621,0.000
1714026515.788,-40.527,-17.090,-9.766,-38.086,0.000
1714026515.792,-53.223,-30.273,-19.043,-44.922,0.000
1714026515.796,-60.059,-26.855,-20.508,-44.434,0.000
1714026515.800,-51.270,-21.484,-15.625,-42.480,0.000
1714026515.804,-57.129,-26.367,-13.184,-59.570,0.000
1714026515.806,-66.406,-26.367,-18.066,-69.336,0.000
1714026515.810,-62.500,-29.785,-21.973,-74.707,0.000
1714026515.814,-67.383,-28.320,-8.789,-81.055,0.000
1714026515.818,-82.031,-29.785,-7.812,-83.496,0.000
1714026515.822,-93.262,-35.156,-13.672,-93.750,0.000
1714026515.825,-101.562,-33.203,-1.953,-92.773,0.000
1714026515.829,-108.887,-28.809,4.883,-91.797,0.000
1714026515.833,-106.445,-26.367,5.859,-104.004,0.000
1714026515.837,-106.934,-24.414,5.371,-106.934,0.000
1714026515.841,-103.516,-22.949,5.371,-101.562,0.000
1714026515.845,-92.773,-20.508,15.137,-100.098,0.000
1714026515.849,-93.262,-21.973,15.137,-103.027,0.000
1714026515.851,-96.680,-20.508,2.441,-107.422,0.000
1714026515.855,-89.355,-7.812,-4.395,-100.098,0.000
1714026515.859,-76.172,-10.742,-4.395,-84.961,0.000
1714026515.863,-67.871,-19.531,4.395,-83.496,0.000
1714026515.867,-57.617,-18.555,3.418,-72.266,0.000
1714026515.870,-45.410,-24.414,-4.883,-52.734,0.000
1714026515.874,-38.574,-29.297,-4.883,-48.828,0.000
1714026515.878,-35.156,-30.762,-4.395,-42.480,0.000
1714026515.882,-21.973,-28.809,-5.371,-26.367,0.000
1714026515.886,-22.949,-26.367,-20.508,-23.926,0.000
1714026515.890,-23.926,-29.297,-29.785,-19.043,0.000
1714026515.894,-7.324,-27.344,-20.508,-10.254,0.000
1714026515.904,-5.859,-36.621,-25.391,-12.695,0.000
1714026515.908,-12.207,-43.457,-39.551,-13.672,0.000
1714026515.912,-4.883,-41.016,-44.922,-7.812,0.000
1714026515.916,0.488,-41.016,-43.945,-6.348,0.000
1714026515.920,-0.488,-40.527,-46.875,-2.930,0.000
1714026515.924,-2.930,-45.898,-54.199,-1.953,0.000
1714026515.928,-6.348,-44.922,-49.805,-5.859,0.000
1714026515.932,-1.953,-41.504,-41.992,-6.348,0.000
1714026515.935,7.324,-40.527,-47.363,-4.395,0.000
1714026515.939,6.348,-47.363,-59.082,1.465,0.000
1714026515.943,6.348,-48.828,-55.664,0.000,0.000
1714026515.947,5.859,-47.852,-45.898,1.953,0.000
1714026515.953,6.836,-47.363,-46.387,5.371,0.000
1714026515.957,16.113,-38.574,-43.945,6.836,0.000
1714026515.961,18.555,-31.738,-42.969,15.137,0.000
1714026515.965,18.066,-32.227,-50.293,19.043,0.000
1714026515.968,19.531,-28.809,-59.082,16.113,0.000
1714026515.972,20.996,-31.250,-52.734,15.625,0.000
1714026515.976,19.531,-34.180,-38.574,10.742,0.000
1714026515.980,19.531,-32.715,-42.480,6.836,0.000
1714026515.984,21.973,-37.109,-48.828,16.602,0.000
1714026515.988,25.879,-32.715,-39.551,20.508,0.000
1714026515.992,25.391,-34.180,-32.715,12.695,0.000
1714026515.996,21.484,-36.621,-38.086,16.602,0.000
1714026516.000,20.508,-28.809,-54.199,18.555,0.000
1714026516.003,13.672,-28.320,-63.965,11.719,0.000
1714026516.007,9.277,-37.109,-58.594,1.953,0.000
1714026516.011,13.672,-35.645,-48.340,7.324,0.000
1714026516.015,16.113,-33.203,-39.062,17.578,0.000
1714026516.019,22.949,-32.715,-39.551,18.555,0.000
1714026516.023,24.902,-24.414,-39.062,12.207,0.000
1714026516.027,19.043,-21.973,-51.270,12.207,0.000
1714026516.031,20.020,-27.832,-62.012,22.461,0.000
1714026516.035,16.113,-24.902,-50.293,16.113,0.000
1714026516.039,17.090,-26.367,-43.457,10.254,0.000
1714026516.043,19.531,-24.902,-54.199,10.742,0.000
1714026516.046,19.531,-19.043,-45.898,9.766,0.000
1714026516.050,24.902,-17.578,-20.020,11.719,0.000
1714026516.053,21.973,-19.043,-33.691,8.301,0.000
1714026516.057,19.043,-25.391,-51.758,5.371,0.000
1714026516.061,23.926,-27.344,-47.363,4.883,0.000
1714026516.065,23.438,-15.625,-44.922,7.812,0.000
1714026516.069,14.160,-10.254,-44.922,4.395,0.000
1714026516.073,11.719,-19.043,-41.504,2.441,0.000
1714026516.077,10.742,-23.926,-35.156,9.766,0.000
1714026516.081,3.906,-18.066,-22.461,14.648,0.000
1714026516.085,-1.465,-18.555,-28.809,10.254,0.000
1714026516.089,0.000,-22.461,-43.945,3.906,0.000
1714026516.091,-2.441,-20.508,-42.480,3.906,0.000
1714026516.095,-2.930,-18.555,-35.645,10.742,0.000
1714026516.099,-1.465,-27.832,-20.020,11.230,0.000
1714026516.102,-5.859,-32.227,-20.996,4.395,0.000
1714026516.106,-14.648,-30.762,-34.668,1.953,0.000
1714026516.110,-19.531,-29.785,-38.086,6.348,0.000
1714026516.114,-23.926,-25.391,-41.504,-1.465,0.000
1714026516.118,-21.973,-11.719,-40.527,-4.395,0.000
1714026516.122,-19.043,0.000,-30.273,-5.859,0.000
1714026516.126,-22.949,-7.324,-32.227,-15.625,0.000
1714026516.130,-21.973,-18.555,-34.180,-8.301,0.000
1714026516.134,-18.555,-21.973,-27.344,-1.953,0.000
1714026516.136,-17.578,-24.414,-35.156,-10.254,0.000
1714026516.140,-25.391,-27.344,-53.223,-20.996,0.000
1714026516.144,-27.832,-28.809,-53.711,-20.508,0.000
1714026516.147,-22.461,-33.691,-45.410,-20.996,0.000
1714026516.151,-22.949,-28.320,-34.180,-23.438,0.000
1714026516.155,-22.949,-18.066,-22.461,-14.160,0.000
1714026516.159,-23.438,-18.066,-21.484,-8.789,0.000
1714026516.163,-20.020,-22.461,-22.949,-12.695,0.000
1714026516.167,-16.113,-21.973,-31.738,-23.926,0.000
1714026516.171,-12.207,-26.367,-31.250,-28.809,0.000
1714026516.175,-19.531,-32.715,-29.785,-28.809,0.000
1714026516.179,-28.809,-27.344,-38.574,-32.715,0.000
1714026516.181,-32.715,-32.715,-35.156,-35.645,0.000
1714026516.185,-34.180,-34.668,-29.297,-32.227,0.000
1714026516.189,-30.273,-30.273,-29.297,-30.762,0.000
1714026516.193,-30.273,-28.809,-24.902,-31.250,0.000
1714026516.197,-31.738,-28.809,-23.438,-31.738,0.000
1714026516.200,-28.320,-25.879,-21.973,-29.785,0.000
1714026516.204,-28.320,-25.391,-28.320,-28.809,0.000
1714026516.208,-29.297,-30.273,-30.273,-26.367,0.000
1714026516.212,-20.996,-19.531,-30.273,-20.020,0.000
1714026516.216,-20.020,-10.742,-26.367,-20.020,0.000
1714026516.220,-14.648,-17.090,-20.020,-18.555,0.000
1714026516.224,4.395,-22.949,-23.438,-8.301,0.000
1714026516.226,-0.977,-28.809,-22.949,-5.859,0.000
1714026516.230,-26.367,-30.762,-27.832,-21.484,0.000
1714026516.234,-31.738,-26.367,-23.438,-28.809,0.000
1714026516.238,-28.320,-26.855,-11.719,-20.996,0.000
1714026516.242,-23.438,-31.738,-15.625,-15.137,0.000
1714026516.246,-17.090,-27.344,-12.695,-14.160,0.000
1714026516.249,-12.207,-22.461,-14.648,-10.742,0.000
1714026516.253,-11.230,-27.344,-17.578,-8.789,0.000
1714026516.257,-9.766,-39.551,-14.160,-2.930,0.000
1714026516.261,-9.277,-41.016,-19.531,2.930,0.000
1714026516.265,-12.695,-26.855,-27.344,-3.906,0.000
1714026516.269,-19.043,-20.996,-24.414,-11.719,0.000
1714026516.279,-15.137,-20.508,-15.137,-7.812,0.000
1714026516.283,-10.254,-20.020,-14.160,-4.883,0.000
1714026516.287,-15.137,-24.414,-20.020,-11.719,0.000
1714026516.291,-21.973,-29.297,-14.160,-16.602,0.000
1714026516.295,-24.414,-30.762,-16.113,-15.625,0.000
1714026516.298,-18.555,-29.785,-35.645,-9.766,0.000
1714026516.302,-13.672,-23.926,-34.180,-12.207,0.000
1714026516.306,-19.531,-21.484,-20.996,-19.531,0.000
1714026516.310,-19.531,-21.973,-16.113,-12.695,0.000
1714026516.314,-16.113,-19.043,-20.020,-10.254,0.000
1714026516.318,-15.625,-19.043,-25.879,-20.508,0.000
1714026516.322,-20.996,-29.297,-32.227,-33.203,0.000
1714026516.328,-27.344,-38.574,-24.902,-31.250,0.000
1714026516.332,-26.855,-35.156,-19.043,-27.344,0.000
1714026516.335,-26.855,-26.855,-27.344,-24.414,0.000
1714026516.339,-31.250,-27.344,-31.738,-21.484,0.000
1714026516.343,-28.809,-25.391,-27.832,-20.996,0.000
1714026516.347,-30.762,-28.809,-36.621,-24.414,0.000
1714026516.351,-31.738,-25.391,-35.645,-27.832,0.000
1714026516.355,-24.414,-15.137,-20.020,-23.926,0.000
1714026516.359,-24.902,-19.043,-20.508,-21.484,0.000
1714026516.363,-21.973,-25.879,-24.902,-18.066,0.000
1714026516.367,-20.020,-24.414,-22.461,-20.996,0.000
1714026516.371,-21.484,-22.461,-25.391,-25.879,0.000
1714026516.374,-21.484,-20.996,-37.598,-22.461,0.000
1714026516.378,-25.391,-22.949,-34.668,-20.020,0.000
1714026516.382,-20.020,-22.949,-22.461,-12.695,0.000
1714026516.386,-14.648,-24.902,-20.020,-10.742,0.000
1714026516.390,-18.555,-24.414,-17.578,-18.555,0.000
1714026516.394,-24.414,-27.832,-23.926,-22.949,0.000
1714026516.398,-27.832,-35.156,-33.691,-25.879,0.000
1714026516.402,-25.879,-31.738,-28.809,-25.391,0.000
1714026516.406,-27.832,-33.691,-30.762,-27.832,0.000
1714026516.410,-31.250,-28.320,-37.109,-34.668,0.000
1714026516.414,-29.785,-25.391,-32.715,-29.297,0.000
1714026516.417,-30.273,-30.273,-35.156,-21.973,0.000
1714026516.421,-29.785,-26.855,-28.320,-26.855,0.000
1714026516.424,-29.297,-26.367,-18.555,-27.344,0.000
1714026516.428,-31.250,-32.227,-19.043,-23.926,0.000
1714026516.432,-29.785,-33.691,-25.391,-25.879,0.000
1714026516.436,-27.344,-30.273,-40.527,-27.832,0.000
1714026516.440,-25.879,-21.973,-36.621,-28.320,0.000
1714026516.444,-26.367,-22.461,-23.438,-23.926,0.000
1714026516.448,-26.855,-26.367,-33.203,-20.996,0.000
1714026516.452,-29.297,-18.066,-26.855,-24.414,0.000
1714026516.456,-26.855,-14.648,-10.254,-28.809,0.000
1714026516.460,-23.438,-18.555,-10.742,-24.902,0.000
1714026516.463,-23.438,-19.043,-18.066,-17.578,0.000
1714026516.466,-21.973,-18.555,-26.855,-17.578,0.000
1714026516.470,-23.926,-22.461,-34.668,-26.367,0.000
1714026516.474,-25.879,-28.809,-36.133,-32.715,0.000
1714026516.478,-20.996,-27.344,-32.227,-26.367,0.000
1714026516.481,-15.137,-25.879,-12.695,-17.090,0.000
1714026516.485,-22.949,-28.320,-5.371,-30.762,0.000
1714026516.489,-29.785,-28.320,-17.090,-36.621,0.000
1714026516.493,-27.344,-36.133,-26.855,-21.484,0.000
1714026516.497,-27.344,-30.762,-31.738,-23.438,0.000
1714026516.501,-28.809,-26.855,-28.320,-33.203,0.000
1714026516.505,-24.414,-32.227,-25.879,-34.668,0.000
1714026516.509,-20.508,-27.344,-32.715,-29.785,0.000
1714026516.511,-20.996,-26.855,-41.504,-29.785,0.000
1714026516.515,-22.461,-27.344,-26.855,-27.832,0.000
1714026516.519,-25.879,-31.250,-20.996,-32.227,0.000
1714026516.523,-27.344,-32.715,-32.715,-38.086,0.000
1714026516.527,-28.809,-31.738,-28.809,-33.691,0.000
1714026516.531,-29.785,-33.203,-27.832,-35.156,0.000
1714026516.534,-25.391,-33.203,-24.902,-37.598,0.000
1714026516.538,-22.461,-25.879,-21.484,-35.645,0.000
1714026516.542,-25.391,-27.344,-31.738,-36.621,0.000
1714026516.546,-23.926,-36.133,-33.203,-31.250,0.000
1714026516.550,-21.484,-36.621,-39.551,-28.320,0.000
1714026516.554,-22.949,-36.133,-47.363,-33.691,0.000
1714026516.556,-26.367,-37.109,-33.691,-30.273,0.000
1714026516.560,-19.531,-32.715,-23.926,-17.578,0.000
1714026516.564,-18.066,-29.785,-26.367,-19.531,0.000
1714026516.568,-26.855,-36.621,-25.879,-27.832,0.000
1714026516.572,-21.973,-31.738,-17.578,-21.973,0.000
1714026516.576,-14.160,-23.926,-17.578,-13.672,0.000
1714026516.579,-18.066,-28.809,-16.113,-13.184,0.000
1714026516.583,-25.879,-27.832,-18.066,-27.832,0.000
1714026516.587,-27.344,-34.180,-30.273,-35.156,0.000
1714026516.591,-22.461,-34.668,-31.250,-27.344,0.000
1714026516.595,-23.926,-26.855,-19.531,-26.855,0.000
1714026516.599,-24.902,-28.809,-19.531,-33.203,0.000
1714026516.601,-22.461,-29.297,-26.855,-34.180,0.000
1714026516.605,-28.320,-29.297,-25.391,-32.227,0.000
1714026516.609,-28.809,-31.738,-23.438,-30.273,0.000
1714026516.613,-25.391,-32.227,-13.184,-30.273,0.000
1714026516.617,-25.879,-28.320,-7.812,-33.203,0.000
1714026516.621,-28.809,-31.738,-29.297,-34.180,0.000
1714026516.624,-23.438,-30.273,-24.902,-22.949,0.000
1714026516.628,-24.414,-27.832,-19.531,-17.578,0.000
1714026516.632,-26.855,-28.320,-27.832,-25.879,0.000
1714026516.636,-21.973,-24.902,-28.809,-22.949,0.000
1714026516.640,-23.438,-28.320,-23.438,-19.531,0.000
1714026516.644,-24.414,-27.832,-20.020,-20.996,0.000
1714026516.654,-21.484,-18.066,-19.043,-16.602,0.000
1714026516.658,-25.391,-16.113,-18.066,-18.066,0.000
1714026516.662,-27.832,-16.602,-24.902,-16.602,0.000
1714026516.666,-20.996,-17.090,-35.156,-16.113,0.000
1714026516.670,-18.555,-17.578,-36.621,-29.297,0.000
1714026516.673,-23.926,-18.066,-20.508,-35.156,0.000
1714026516.677,-23.438,-22.461,-11.719,-21.973,0.000
1714026516.681,-16.113,-27.832,-15.625,-15.137,0.000
1714026516.685,-22.461,-29.785,-21.973,-21.484,0.000
1714026516.689,-28.809,-29.297,-30.762,-22.949,0.000
1714026516.693,-22.949,-23.438,-30.273,-28.809,0.000
1714026516.697,-23.926,-28.809,-36.133,-34.180,0.000
1714026516.703,-21.973,-32.227,-38.574,-29.785,0.000
1714026516.707,-18.066,-22.949,-30.762,-26.855,0.000
1714026516.710,-21.484,-22.461,-31.250,-27.832,0.000
1714026516.714,-18.555,-29.785,-27.344,-24.902,0.000
1714026516.718,-19.043,-44.434,-31.738,-24.902,0.000
1714026516.722,-23.438,-44.434,-42.480,-27.832,0.000
1714026516.726,-22.461,-27.832,-33.203,-27.832,0.000
1714026516.730,-22.461,-22.461,-26.855,-31.250,0.000
1714026516.734,-21.484,-22.949,-30.273,-25.879,0.000
1714026516.738,-25.879,-21.973,-31.250,-30.762,0.000
1714026516.742,-27.344,-21.973,-20.020,-35.156,0.000
1714026516.746,-22.949,-31.250,-16.602,-29.297,0.000
1714026516.750,-27.344,-34.668,-33.691,-37.598,0.000
1714026516.753,-34.180,-32.715,-39.551,-42.969,0.000
1714026516.757,-35.156,-32.227,-40.039,-46.387,0.000
1714026516.761,-32.227,-27.344,-44.922,-43.457,0.000
1714026516.765,-27.832,-24.902,-43.945,-41.016,0.000
1714026516.769,-18.555,-21.973,-30.273,-39.062,0.000
1714026516.773,-19.043,-23.926,-20.508,-34.668,0.000
1714026516.777,-21.973,-26.855,-27.832,-33.203,0.000
1714026516.781,-25.879,-30.273,-34.180,-30.762,0.000
1714026516.785,-33.203,-26.855,-27.344,-38.086,0.000
1714026516.789,-38.086,-23.438,-25.391,-44.922,0.000
1714026516.792,-38.574,-24.902,-28.809,-44.434,0.000
1714026516.796,-40.039,-36.133,-32.227,-44.434,0.000
1714026516.800,-36.133,-42.969,-28.320,-49.805,0.000
1714026516.804,-29.785,-27.344,-29.297,-49.316,0.000
1714026516.808,-30.762,-21.973,-38.574,-42.480,0.000
1714026516.811,-27.344,-25.391,-32.715,-36.133,0.000
1714026516.815,-31.250,-35.156,-26.367,-32.715,0.000
1714026516.819,-32.715,-37.598,-29.297,-36.133,0.000
1714026516.823,-26.367,-27.832,-40.039,-33.691,0.000
1714026516.827,-24.902,-34.668,-33.691,-25.391,0.000
1714026516.831,-15.137,-34.180,-15.137,-27.344,0.000
1714026516.835,-4.883,-21.973,-18.555,-27.344,0.000
1714026516.839,-6.348,-19.043,-31.250,-29.297,0.000
1714026516.841,-10.742,-19.043,-30.762,-36.621,0.000
1714026516.845,-16.602,-22.461,-26.855,-30.762,0.000
1714026516.849,-18.555,-30.273,-25.879,-20.508,0.000
1714026516.853,-20.996,-32.227,-28.320,-21.484,0.000
1714026516.856,-24.414,-26.855,-27.832,-21.973,0.000
1714026516.860,-26.855,-26.367,-21.973,-23.438,0.000
1714026516.864,-32.715,-35.645,-22.461,-28.809,0.000
1714026516.868,-32.715,-34.180,-34.668,-27.344,0.000
1714026516.872,-29.785,-28.809,-37.109,-29.297,0.000
1714026516.876,-32.227,-26.855,-26.855,-35.645,0.000
1714026516.880,-35.156,-26.855,-20.020,-32.227,0.000
1714026516.884,-29.297,-23.926,-25.879,-27.832,0.000
1714026516.886,-23.926,-21.973,-26.855,-26.367,0.000
1714026516.890,-24.902,-25.391,-20.508,-26.367,0.000
1714026516.894,-23.438,-27.344,-24.414,-26.367,0.000
1714026516.898,-24.902,-33.691,-32.715,-28.320,0.000
1714026516.902,-29.297,-39.551,-33.203,-36.133,0.000
1714026516.906,-27.832,-28.320,-34.180,-34.180,0.000
1714026516.910,-22.461,-17.578,-32.227,-20.996,0.000
1714026516.914,-16.113,-13.672,-17.090,-14.160,0.000
1714026516.918,-20.996,-12.207,-13.184,-22.461,0.000
1714026516.921,-24.414,-19.043,-16.602,-26.367,0.000
1714026516.925,-24.414,-26.367,-20.508,-27.832,0.000
1714026516.929,-28.320,-32.227,-28.320,-30.762,0.000
1714026516.931,-30.762,-34.180,-34.180,-31.250,0.000
1714026516.935,-29.297,-25.391,-26.855,-28.320,0.000
1714026516.939,-33.203,-20.996,-19.043,-25.391,0.000
1714026516.943,-32.227,-25.879,-20.020,-23.438,0.000
1714026516.947,-26.855,-28.320,-21.484,-29.785,0.000
1714026516.951,-28.320,-28.320,-18.066,-33.203,0.000
1714026516.954,-27.832,-36.621,-25.391,-22.461,0.000
1714026516.958,-26.855,-33.203,-31.250,-22.461,0.000
1714026516.962,-23.438,-25.391,-25.391,-26.367,0.000
1714026516.966,-26.855,-25.391,-28.320,-30.762,0.000
1714026516.970,-28.320,-26.855,-33.203,-33.203,0.000
1714026516.974,-25.879,-24.414,-28.809,-26.367,0.000
1714026516.976,-24.902,-24.414,-20.996,-20.508,0.000
1714026516.980,-23.438,-31.738,-19.043,-25.879,0.000
1714026516.984,-27.344,-29.785,-22.949,-32.227,0.000
1714026516.988,-26.855,-24.414,-26.855,-31.738,0.000
1714026516.992,-22.949,-27.344,-40.039,-31.738,0.000
1714026516.996,-23.926,-36.621,-44.922,-38.574,0.000
1714026517.000,-19.531,-30.273,-37.598,-38.086,0.000
1714026517.004,-16.113,-17.578,-27.344,-33.691,0.000
1714026517.008,-15.625,-19.043,-21.973,-35.156,0.000
1714026517.012,-15.137,-26.367,-22.949,-33.691,0.000
1714026517.015,-18.066,-23.926,-24.414,-29.785,0.000
1714026517.019,-19.043,-25.879,-28.320,-31.250,0.000
1714026517.029,-18.555,-36.621,-38.574,-33.203,0.000
1714026517.033,-20.996,-33.203,-37.109,-31.250,0.000
1714026517.037,-22.949,-22.461,-27.344,-31.250,0.000
1714026517.041,-24.902,-17.578,-30.273,-35.156,0.000
1714026517.045,-27.344,-19.531,-37.598,-38.086,0.000
1714026517.048,-26.367,-24.414,-34.668,-34.180,0.000
1714026517.052,-26.855,-26.367,-33.203,-35.645,0.000
1714026517.056,-28.320,-26.855,-24.902,-41.016,0.000
1714026517.060,-28.809,-28.320,-28.320,-35.645,0.000
1714026517.064,-31.250,-24.902,-39.062,-34.668,0.000
1714026517.068,-29.297,-19.043,-34.668,-37.598,0.000
1714026517.072,-25.879,-16.602,-28.809,-34.180,0.000
1714026517.078,-28.320,-21.484,-27.832,-32.227,0.000
1714026517.082,-28.320,-26.855,-28.320,-26.855,0.000
1714026517.085,-22.461,-22.461,-24.414,-22.461,0.000
1714026517.089,-17.578,-19.043,-22.949,-20.996,0.000
1714026517.093,-15.625,-21.973,-16.602,-23.926,0.000
1714026517.097,-17.090,-22.461,-22.461,-27.344,0.000
1714026517.101,-21.973,-25.879,-29.785,-32.227,0.000
1714026517.105,-25.879,-20.020,-25.879,-35.156,0.000
1714026517.109,-22.461,-20.020,-26.855,-29.297,0.000
1714026517.113,-18.555,-22.461,-18.066,-21.973,0.000
1714026517.117,-25.879,-23.438,-18.555,-23.438,0.000
1714026517.121,-28.320,-28.809,-22.949,-20.508,0.000
1714026517.124,-21.973,-22.461,-19.531,-15.625,0.000
1714026517.128,-26.367,-25.879,-29.785,-21.484,0.000
1714026517.132,-30.762,-33.203,-23.926,-23.926,0.000
1714026517.136,-28.809,-29.785,-22.949,-21.484,0.000
1714026517.140,-29.297,-33.691,-27.832,-21.973,0.000
1714026517.144,-28.320,-40.039,-27.832,-21.484,0.000
1714026517.148,-22.461,-34.668,-23.926,-20.996,0.000
1714026517.152,-22.461,-33.203,-20.508,-20.996,0.000
1714026517.155,-22.949,-33.203,-25.391,-12.695,0.000
1714026517.159,-20.996,-24.414,-20.508,-13.672,0.000
1714026517.163,-21.484,-20.508,-20.508,-23.926,0.000
1714026517.167,-20.020,-32.227,-32.227,-20.508,0.000
1714026517.171,-16.602,-31.738,-29.785,-12.695,0.000
1714026517.174,-17.578,-19.531,-24.414,-21.484,0.000
1714026517.178,-22.461,-14.648,-21.973,-23.926,0.000
1714026517.182,-19.531,-9.766,-24.414,-21.973,0.000
1714026517.186,-15.625,-18.066,-20.508,-24.902,0.000
1714026517.190,-22.949,-21.973,-19.043,-26.855,0.000
1714026517.194,-25.391,-16.602,-25.879,-31.738,0.000
1714026517.198,-28.809,-23.926,-31.250,-27.832,0.000
1714026517.202,-25.879,-32.227,-35.156,-21.973,0.000
1714026517.206,-21.484,-26.855,-37.109,-28.809,0.000
1714026517.210,-27.344,-32.227,-33.203,-30.762,0.000
1714026517.214,-26.855,-34.668,-22.949,-26.367,0.000
1714026517.216,-28.320,-34.180,-18.066,-23.438,0.000
1714026517.220,-32.227,-24.902,-22.949,-26.367,0.000
1714026517.224,-34.180,-21.484,-22.949,-30.273,0.000
1714026517.227,-38.574,-21.484,-25.879,-30.273,0.000
1714026517.231,-38.574,-18.555,-29.297,-32.715,0.000
1714026517.235,-32.715,-28.320,-27.344,-33.203,0.000
1714026517.239,-31.250,-34.180,-26.367,-29.297,0.000
1714026517.243,-34.668,-31.250,-20.020,-22.949,0.000
1714026517.247,-31.738,-25.391,-9.766,-24.414,0.000
1714026517.251,-34.180,-29.297,-12.695,-34.180,0.000
1714026517.255,-40.039,-29.785,-26.855,-40.527,0.000
1714026517.259,-41.016,-25.391,-25.391,-41.504,0.000
1714026517.261,-39.062,-28.320,-27.344,-37.109,0.000
1714026517.265,-39.551,-25.879,-35.645,-33.203,0.000
1714026517.269,-39.062,-24.902,-28.809,-29.297,0.000
1714026517.273,-34.668,-29.785,-17.090,-27.344,0.000
1714026517.277,-28.809,-32.715,-12.695,-22.949,0.000
1714026517.280,-24.414,-38.086,-10.742,-25.391,0.000
1714026517.284,-19.531,-29.297,-16.113,-24.414,0.000
1714026517.288,-14.160,-14.648,-13.184,-15.625,0.000
1714026517.292,-19.043,-19.043,-16.113,-17.578,0.000
1714026517.296,-18.066,-23.438,-24.902,-19.043,0.000
1714026517.300,-9.277,-22.461,-21.484,-19.531,0.000
1714026517.304,-14.648,-25.879,-21.973,-22.461,0.000
1714026517.306,-25.391,-29.297,-27.832,-25.879,0.000
1714026517.310,-25.879,-28.320,-20.996,-24.902,0.000
1714026517.314,-23.926,-31.250,-23.438,-25.391,0.000
1714026517.318,-23.438,-23.438,-25.391,-26.855,0.000
1714026517.322,-24.414,-16.113,-15.625,-24.414,0.000
1714026517.326,-22.461,-23.438,-24.414,-26.855,0.000
1714026517.329,-22.461,-28.320,-25.879,-25.391,0.000
1714026517.333,-21.973,-26.855,-9.277,-29.785,0.000
1714026517.337,-30.273,-25.879,-15.625,-37.598,0.000
1714026517.341,-37.109,-25.391,-28.320,-41.992,0.000
1714026517.345,-27.344,-26.367,-23.926,-39.062,0.000
1714026517.349,-23.926,-30.273,-30.762,-40.527,0.000
1714026517.351,-25.879,-31.738,-27.344,-45.410,0.000
1714026517.355,-28.809,-31.738,-16.602,-43.457,0.000
1714026517.359,-31.738,-32.227,-19.043,-36.133,0.000
1714026517.363,-30.762,-32.715,-22.949,-36.133,0.000
1714026517.367,-32.715,-27.344,-29.297,-40.527,0.000
1714026517.371,-31.738,-20.996,-30.273,-32.715,0.000
1714026517.375,-26.855,-20.020,-18.066,-28.809,0.000
1714026517.379,-27.832,-26.855,-23.438,-34.668,0.000
1714026517.383,-28.809,-30.273,-33.203,-36.133,0.000
1714026517.386,-27.344,-30.762,-28.320,-35.156,0.000
1714026517.390,-19.531,-20.996,-20.508,-23.926,0.000
1714026517.394,-15.625,-15.137,-20.996,-20.020,0.000
1714026517.404,-23.926,-22.461,-26.855,-27.832,0.000
1714026517.408,-28.809,-27.832,-20.508,-33.203,0.000
1714026517.412,-26.855,-29.785,-18.066,-28.320,0.000
1714026517.416,-24.414,-30.273,-28.809,-25.391,0.000
1714026517.419,-32.227,-39.551,-33.691,-35.156,0.000
1714026517.423,-34.668,-46.875,-35.645,-36.133,0.000
1714026517.427,-27.344,-26.855,-34.180,-32.227,0.000
1714026517.431,-24.902,-11.719,-26.855,-36.133,0.000
1714026517.435,-18.066,-10.742,-18.066,-27.344,0.000
1714026517.439,-15.625,-19.531,-22.949,-25.879,0.000
1714026517.443,-19.531,-20.508,-25.879,-32.227,0.000
1714026517.447,-17.090,-19.531,-23.438,-26.367,0.000
1714026517.453,-18.555,-28.320,-27.832,-26.855,0.000
1714026517.456,-20.020,-28.809,-25.879,-27.344,0.000
1714026517.460,-15.625,-16.602,-20.508,-19.531,0.000
1714026517.464,-17.578,-11.719,-20.508,-18.066,0.000
1714026517.468,-17.578,-23.438,-24.902,-20.020,0.000
1714026517.472,-19.043,-30.762,-27.344,-24.414,0.000
1714026517.476,-19.531,-29.297,-26.367,-25.391,0.000
1714026517.480,-23.438,-30.762,-29.785,-28.809,0.000
1714026517.484,-19.043,-26.855,-30.273,-23.926,0.000
1714026517.488,-13.184,-22.949,-19.043,-18.555,0.000
1714026517.492,-19.531,-23.438,-17.578,-25.879,0.000
1714026517.496,-18.555,-20.508,-20.020,-26.855,0.000
1714026517.499,-12.207,-15.137,-18.066,-20.996,0.000
1714026517.503,-10.742,-21.484,-27.832,-23.926,0.000
1714026517.507,-18.066,-28.809,-32.227,-33.691,0.000
1714026517.511,-18.555,-25.879,-20.996,-26.855,0.000
1714026517.515,-21.973,-31.738,-9.277,-24.902,0.000
1714026517.519,-26.367,-30.273,-29.785,-33.691,0.000
1714026517.523,-23.438,-24.902,-37.598,-37.109,0.000
1714026517.527,-26.855,-23.926,-30.762,-37.598,0.000
1714026517.530,-30.273,-20.996,-43.457,-32.715,0.000
1714026517.534,-25.879,-21.973,-34.668,-24.902,0.000
1714026517.538,-27.344,-31.250,-16.602,-28.320,0.000
1714026517.542,-31.250,-36.133,-17.090,-37.109,0.000
1714026517.546,-30.762,-31.738,-28.809,-36.621,0.000
1714026517.549,-23.926,-17.090,-34.668,-34.180,0.000
1714026517.553,-17.090,-14.648,-31.250,-31.250,0.000
1714026517.557,-22.949,-18.555,-33.691,-32.715,0.000
1714026517.561,-26.855,-21.484,-32.715,-35.645,0.000
1714026517.565,-24.414,-18.555,-25.391,-33.203,0.000
1714026517.569,-14.648,-18.066,-16.113,-26.367,0.000
1714026517.573,-9.277,-22.949,-21.973,-24.902,0.000
1714026517.577,-15.137,-24.902,-28.320,-28.809,0.000
1714026517.581,-20.996,-25.879,-29.785,-34.668,0.000
1714026517.585,-18.555,-20.996,-32.227,-29.785,0.000
1714026517.589,-20.020,-23.926,-30.762,-25.391,0.000
1714026517.591,-24.414,-26.855,-23.926,-32.715,0.000
1714026517.595,-24.414,-22.949,-20.996,-30.273,0.000
1714026517.599,-21.484,-22.461,-24.902,-22.949,0.000
1714026517.603,-21.484,-19.531,-23.438,-25.391,0.000
1714026517.607,-23.926,-17.578,-30.273,-32.715,0.000
1714026517.611,-20.020,-18.555,-29.297,-28.809,0.000
1714026517.615,-16.602,-16.113,-23.438,-26.367,0.000
1714026517.619,-15.625,-18.555,-29.297,-23.438,0.000
1714026517.623,-20.996,-25.391,-27.832,-27.832,0.000
1714026517.626,-9.766,-23.438,-38.086,-21.973,0.000
1714026517.630,-2.930,-23.926,-41.992,-12.207,0.000
1714026517.634,-18.555,-23.926,-33.203,-20.020,0.000
1714026517.636,-22.949,-20.508,-27.344,-23.438,0.000
1714026517.640,-25.879,-25.879,-19.531,-22.949,0.000
1714026517.644,-24.414,-29.297,-16.602,-18.066,0.000
1714026517.648,-21.973,-30.762,-20.996,-22.949,0.000
1714026517.652,-25.879,-29.785,-28.320,-30.762,0.000
1714026517.656,-23.438,-30.273,-32.227,-25.879,0.000
1714026517.660,-26.367,-30.762,-35.156,-20.508,0.000
1714026517.664,-28.809,-28.809,-33.691,-21.484,0.000
1714026517.668,-25.391,-25.879,-37.109,-33.203,0.000
1714026517.672,-23.926,-30.273,-29.785,-33.203,0.000
1714026517.675,-20.020,-28.320,-13.672,-28.320,0.000
1714026517.679,-15.625,-26.367,-22.461,-29.785,0.000
1714026517.689,-12.207,-29.297,-36.133,-33.691,0.000
1714026517.693,-4.395,-30.273,-36.133,-37.598,0.000
1714026517.697,-6.836,-28.320,-32.227,-37.109,0.000
1714026517.701,-19.531,-21.484,-24.902,-29.785,0.000
1714026517.705,-26.367,-30.273,-22.949,-27.832,0.000
1714026517.709,-27.832,-38.574,-18.066,-23.926,0.000
1714026517.713,-34.668,-37.598,-24.902,-18.555,0.000
1714026517.716,-40.527,-29.785,-33.691,-26.367,0.000
1714026517.720,-39.551,-22.461,-31.738,-26.855,0.000
1714026517.724,-37.598,-32.715,-27.344,-25.879,0.000
1714026517.728,-37.109,-35.645,-23.926,-38.086,0.000
1714026517.732,-31.738,-22.949,-24.902,-40.039,0.000
1714026517.730,-33.203,-24.902,-30.762,-33.203,0.000
1714026517.734,-38.574,-32.227,-36.133,-41.992,0.000
1714026517.738,-38.086,-31.738,-39.062,-40.039,0.000
1714026517.742,-38.086,-27.344,-33.691,-32.227,0.000
1714026517.746,-32.715,-21.973,-25.879,-25.879,0.000
1714026517.750,-24.414,-30.762,-31.738,-22.949,0.000
1714026517.754,-35.156,-38.086,-35.156,-30.273,0.000
1714026517.758,-35.156,-32.227,-26.855,-29.297,0.000
1714026517.761,-24.902,-33.691,-25.879,-24.902,0.000
1714026517.765,-28.320,-36.133,-32.227,-23.926,0.000
1714026517.769,-29.297,-25.391,-33.691,-25.879,0.000
1714026517.773,-25.879,-22.949,-38.086,-31.250,0.000
1714026517.781,-23.926,-27.344,-33.691,-27.344,0.000
1714026517.785,-21.973,-21.484,-31.250,-22.949,0.000
1714026517.789,-25.391,-23.926,-36.133,-27.832,0.000
1714026517.793,-27.344,-23.438,-26.367,-28.809,0.000
1714026517.797,-25.391,-23.926,-22.949,-23.438,0.000
1714026517.800,-23.926,-26.855,-29.297,-24.902,0.000
1714026517.804,-19.043,-25.391,-25.879,-26.855,0.000
1714026517.808,-21.484,-23.438,-24.414,-29.785,0.000
1714026517.812,-25.879,-25.879,-30.273,-34.180,0.000
1714026517.816,-29.297,-29.297,-38.086,-30.762,0.000
1714026517.820,-31.738,-25.879,-38.574,-37.109,0.000
1714026517.824,-32.715,-26.367,-35.156,-42.480,0.000
1714026517.829,-26.367,-33.203,-36.621,-32.227,0.000
1714026517.833,-26.367,-30.273,-24.902,-28.320,0.000
1714026517.837,-30.762,-23.926,-24.902,-34.180,0.000
1714026517.841,-26.855,-26.855,-33.691,-27.832,0.000
1714026517.844,-24.414,-22.949,-37.109,-19.043,0.000
1714026517.848,-26.855,-17.090,-41.992,-23.438,0.000
1714026517.852,-30.762,-23.926,-45.898,-33.691,0.000
1714026517.856,-31.250,-31.250,-43.945,-41.016,0.000
1714026517.860,-31.250,-32.227,-41.504,-37.598,0.000
1714026517.864,-27.832,-26.367,-30.762,-22.461,0.000
1714026517.868,-20.508,-16.602,-16.602,-18.555,0.000
1714026517.872,-23.438,-30.273,-24.902,-30.762,0.000
1714026517.875,-26.855,-36.621,-35.156,-33.691,0.000
1714026517.879,-25.879,-19.043,-26.367,-28.809,0.000
1714026517.883,-23.926,-15.137,-24.902,-29.297,0.000
1714026517.887,-20.996,-22.461,-31.738,-31.738,0.000
1714026517.891,-20.508,-23.926,-25.391,-35.645,0.000
1714026517.894,-17.578,-28.320,-16.602,-29.297,0.000
1714026517.898,-17.090,-27.832,-23.926,-24.902,0.000
1714026517.902,-18.555,-20.996,-33.203,-25.391,0.000
1714026517.906,-15.625,-19.043,-31.738,-15.137,0.000
1714026517.910,-17.090,-21.973,-25.879,-24.414,0.000
1714026517.914,-22.949,-34.668,-28.809,-30.273,0.000
1714026517.918,-21.484,-31.738,-26.855,-19.531,0.000
1714026517.921,-20.020,-20.996,-23.438,-31.250,0.000
1714026517.925,-26.855,-26.367,-28.809,-38.574,0.000
1714026517.929,-29.297,-30.273,-29.297,-23.926,0.000
1714026517.933,-30.273,-35.156,-23.438,-20.508,0.000
1714026517.937,-30.762,-39.551,-24.414,-27.832,0.000
1714026517.940,-27.344,-32.715,-27.832,-30.762,0.000
1714026517.944,-31.738,-23.926,-30.762,-43.457,0.000
1714026517.948,-28.320,-21.973,-35.645,-41.504,0.000
1714026517.952,-19.531,-30.762,-35.645,-29.297,0.000
1714026517.956,-13.672,-29.297,-21.484,-33.691,0.000
1714026517.960,-11.230,-22.461,-10.254,-29.785,0.000
1714026517.964,-9.766,-23.438,-20.508,-28.809,0.000
1714026517.967,-7.324,-21.484,-28.320,-25.391,0.000
1714026517.971,-11.230,-25.879,-31.250,-31.738,0.000
1714026517.974,-17.090,-30.762,-31.738,-40.039,0.000
1714026517.978,-23.926,-27.344,-33.203,-35.645,0.000
1714026517.982,-19.531,-25.879,-25.879,-25.879,0.000
1714026517.986,-16.602,-32.227,-9.277,-27.832,0.000
1714026517.990,-21.484,-34.180,-19.531,-30.273,0.000
1714026517.994,-20.996,-20.508,-23.926,-17.090,0.000
1714026517.998,-25.879,-13.672,-26.855,-21.484,0.000
1714026518.002,-31.738,-32.227,-36.133,-34.180,0.000
1714026518.006,-32.227,-45.410,-26.367,-31.250,0.000
1714026518.010,-32.715,-36.133,-18.555,-28.320,0.000
1714026518.011,-31.250,-25.391,-13.184,-24.902,0.000
1714026518.015,-27.832,-31.250,-6.348,-30.273,0.000
1714026518.019,-27.832,-30.273,-24.414,-37.109,0.000
1714026518.023,-26.855,-24.902,-37.109,-33.203,0.000
1714026518.027,-24.414,-22.949,-36.133,-30.273,0.000
1714026518.031,-27.832,-21.484,-36.133,-36.133,0.000
1714026518.035,-26.367,-25.879,-30.762,-38.086,0.000
1714026518.039,-25.391,-29.297,-24.902,-37.598,0.000
1714026518.043,-23.438,-28.809,-16.113,-32.715,0.000
1714026518.047,-21.484,-25.879,-19.043,-33.691,0.000
1714026518.050,-23.438,-22.461,-27.832,-32.715,0.000
1714026518.054,-23.438,-18.555,-33.203,-29.785,0.000
1714026518.056,-20.020,-16.113,-31.250,-27.832,0.000
1714026518.060,-19.043,-13.672,-27.832,-21.484,0.000
1714026518.064,-16.113,-19.531,-28.320,-20.508,0.000
1714026518.068,-17.578,-26.855,-30.762,-24.902,0.000
1714026518.072,-21.973,-30.762,-25.879,-27.344,0.000
1714026518.076,-21.484,-28.809,-27.344,-26.367,0.000
1714026518.080,-22.461,-28.809,-34.180,-20.996,0.000
1714026518.084,-24.414,-34.180,-30.762,-26.855,0.000
1714026518.087,-23.926,-28.809,-25.879,-34.668,0.000
1714026518.091,-22.461,-14.160,-23.926,-35.645,0.000
1714026518.095,-19.531,-22.461,-28.320,-38.086,0.000
1714026518.099,-23.438,-33.691,-35.645,-42.969,0.000
1714026518.101,-22.949,-32.715,-36.133,-43.457,0.000
1714026518.105,-21.973,-23.438,-33.691,-39.062,0.000
1714026518.109,-23.438,-21.973,-36.621,-32.715,0.000
1714026518.113,-21.484,-28.809,-36.133,-31.250,0.000
1714026518.117,-20.996,-25.879,-16.602,-34.668,0.000
1714026518.121,-21.484,-17.578,-9.766,-30.762,0.000
1714026518.125,-20.508,-19.043,-20.996,-26.855,0.000
1714026518.128,-18.066,-31.738,-23.926,-28.809,0.000
1714026518.132,-19.531,-38.086,-20.508,-28.320,0.000
1714026518.136,-25.391,-35.645,-18.066,-21.484,0.000
1714026518.140,-27.344,-30.273,-17.578,-27.344,0.000
1714026518.144,-23.926,-32.715,-23.438,-29.297,0.000
1714026518.154,-16.113,-29.297,-20.996,-22.461,0.000
1714026518.158,-15.137,-18.066,-16.602,-18.555,0.000
1714026518.162,-17.090,-15.625,-22.949,-11.719,0.000
1714026518.166,-19.043,-25.391,-24.902,-9.277,0.000
1714026518.169,-20.508,-26.367,-17.578,-13.184,0.000
1714026518.173,-26.367,-33.203,-29.785,-21.973,0.000
1714026518.177,-23.926,-33.203,-28.809,-20.508,0.000
1714026518.181,-13.672,-18.555,-10.742,-9.766,0.000
1714026518.185,-16.113,-24.414,-19.043,-14.160,0.000
1714026518.189,-24.902,-29.785,-22.461,-18.066,0.000
1714026518.193,-29.297,-30.273,-14.160,-24.414,0.000
1714026518.197,-25.391,-23.926,-20.020,-24.902,0.000
1714026518.203,-26.855,-19.043,-26.855,-23.438,0.000
1714026518.206,-31.250,-22.949,-30.762,-28.320,0.000
1714026518.210,-25.879,-27.344,-33.691,-22.949,0.000
1714026518.214,-25.391,-30.762,-20.996,-19.043,0.000
1714026518.218,-27.832,-29.297,-23.438,-23.926,0.000
1714026518.222,-20.508,-27.832,-26.855,-23.926,0.000
1714026518.226,-22.461,-30.273,-21.973,-31.738,0.000
1714026518.230,-24.414,-24.414,-21.484,-34.180,0.000
1714026518.234,-18.066,-24.414,-23.926,-25.879,0.000
1714026518.238,-22.461,-33.203,-22.461,-25.391,0.000
1714026518.242,-25.879,-33.203,-17.578,-27.344,0.000
1714026518.246,-21.484,-32.227,-16.113,-19.531,0.000
1714026518.250,-20.020,-28.809,-21.973,-13.672,0.000
1714026518.254,-22.461,-29.297,-24.902,-22.461,0.000
1714026518.257,-26.855,-34.668,-20.996,-32.227,0.000
1714026518.261,-27.344,-26.367,-21.973,-26.855,0.000
1714026518.265,-23.926,-16.602,-23.926,-17.578,0.000
1714026518.269,-24.902,-24.414,-19.531,-25.391,0.000
1714026518.273,-31.738,-27.832,-19.043,-38.574,0.000
1714026518.277,-34.668,-25.391,-26.367,-35.645,0.000
1714026518.281,-26.367,-27.344,-30.273,-20.020,0.000
1714026518.285,-25.879,-35.645,-17.090,-23.438,0.000
1714026518.289,-28.809,-33.203,-8.789,-32.715,0.000
1714026518.293,-26.367,-22.461,-8.789,-23.926,0.000
1714026518.295,-22.949,-28.320,-4.883,-12.207,0.000
1714026518.299,-25.391,-30.762,-7.324,-15.625,0.000
1714026518.303,-27.832,-26.367,-32.227,-20.508,0.000
1714026518.307,-27.832,-25.879,-47.363,-24.902,0.000
1714026518.311,-27.832,-25.391,-26.367,-27.344,0.000
1714026518.315,-24.414,-26.855,-7.812,-21.973,0.000
1714026518.319,-25.879,-30.273,-11.230,-24.414,0.000
1714026518.323,-22.461,-30.762,-14.648,-16.602,0.000
1714026518.327,-19.043,-29.785,-19.531,-16.602,0.000
1714026518.330,-26.855,-27.832,-30.273,-34.668,0.000
1714026518.334,-27.832,-22.461,-35.645,-34.668,0.000
1714026518.338,-23.438,-27.344,-41.016,-30.273,0.000
1714026518.341,-26.367,-36.133,-34.180,-31.738,0.000
1714026518.345,-25.879,-37.598,-28.320,-26.855,0.000
1714026518.349,-20.020,-40.527,-34.668,-24.902,0.000
1714026518.353,-18.555,-32.715,-28.809,-29.297,0.000
1714026518.357,-18.555,-23.926,-38.574,-26.367,0.000
1714026518.360,-24.902,-29.785,-49.805,-28.809,0.000
1714026518.364,-28.809,-34.180,-41.504,-29.297,0.000
1714026518.368,-27.344,-34.180,-38.574,-28.320,0.000
1714026518.372,-32.227,-33.691,-34.668,-36.133,0.000
1714026518.376,-31.738,-33.691,-30.273,-31.738,0.000
1714026518.380,-25.391,-30.762,-27.344,-28.320,0.000
1714026518.384,-23.926,-26.855,-29.785,-33.691,0.000
1714026518.386,-29.785,-26.855,-36.133,-33.691,0.000
1714026518.390,-34.180,-31.250,-39.551,-35.156,0.000
1714026518.394,-30.273,-25.391,-34.180,-36.621,0.000
1714026518.398,-21.973,-28.809,-26.367,-31.738,0.000
1714026518.402,-20.020,-36.621,-26.367,-34.668,0.000
1714026518.406,-20.508,-26.855,-24.414,-30.762,0.000
1714026518.410,-23.438,-28.809,-22.949,-24.902,0.000
1714026518.413,-22.949,-33.691,-31.250,-22.461,0.000
1714026518.417,-19.043,-31.738,-21.484,-25.879,0.000
1714026518.421,-17.090,-29.785,-21.484,-33.203,0.000
1714026518.425,-17.090,-27.344,-36.133,-25.879,0.000
1714026518.429,-15.625,-24.414,-31.250,-18.066,0.000
1714026518.431,-16.113,-24.902,-16.602,-15.137,0.000
1714026518.435,-16.113,-20.508,-20.020,-16.113,0.000
1714026518.439,-15.625,-12.695,-26.367,-14.160,0.000
1714026518.443,-18.066,-14.160,-18.066,-10.742,0.000
1714026518.447,-25.391,-22.949,-22.949,-19.531,0.000
1714026518.451,-32.715,-26.855,-41.504,-26.367,0.000
1714026518.455,-32.227,-28.809,-37.598,-18.555,0.000
1714026518.458,-26.367,-26.367,-15.625,-15.137,0.000
1714026518.462,-23.926,-19.531,-10.742,-17.090,0.000
1714026518.466,-24.414,-22.461,-22.461,-25.879,0.000
1714026518.470,-18.555,-26.367,-25.391,-30.273,0.000
1714026518.474,-17.578,-29.297,-24.414,-24.414,0.000
1714026518.476,-24.902,-27.832,-29.297,-25.391,0.000
1714026518.480,-28.809,-25.391,-29.297,-33.691,0.000
1714026518.484,-28.320,-24.902,-28.320,-38.574,0.000
1714026518.488,-27.344,-25.879,-22.949,-38.086,0.000
1714026518.492,-21.973,-19.043,-22.461,-30.273,0.000
1714026518.496,-18.066,-22.461,-38.574,-25.879,0.000
1714026518.500,-23.438,-24.414,-30.273,-32.227,0.000
1714026518.504,-28.320,-18.555,-14.648,-34.180,0.000
1714026518.507,-21.973,-23.438,-16.113,-30.762,0.000
1714026518.511,-13.672,-24.414,-19.043,-25.879,0.000
1714026518.515,-16.113,-22.461,-24.902,-32.715,0.000
1714026518.519,-20.020,-21.973,-19.043,-33.203,0.000
1714026518.529,-21.973,-21.973,-19.043,-26.367,0.000
1714026518.533,-22.461,-23.438,-21.484,-29.297,0.000
1714026518.537,-22.461,-23.438,-20.996,-34.668,0.000
1714026518.540,-19.043,-23.926,-26.367,-32.227,0.000
1714026518.544,-16.602,-23.438,-22.461,-31.738,0.000
1714026518.548,-15.625,-22.461,-22.461,-39.062,0.000
1714026518.552,-14.160,-24.414,-22.461,-39.062,0.000
1714026518.556,-13.184,-25.879,-18.066,-35.156,0.000
1714026518.560,-12.695,-27.344,-16.602,-20.508,0.000
1714026518.564,-12.695,-23.926,-20.020,-7.324,0.000
1714026518.568,-24.414,-25.391,-28.809,-19.531,0.000
1714026518.572,-30.273,-33.691,-32.715,-22.949,0.000
1714026518.578,-27.344,-34.180,-28.320,-18.066,0.000
1714026518.581,-25.879,-30.762,-15.137,-17.578,0.000
1714026518.585,-23.438,-27.832,-5.371,-20.020,0.000
1714026518.589,-22.461,-23.926,-15.625,-20.020,0.000
1714026518.593,-24.902,-24.902,-20.996,-19.531,0.000
1714026518.597,-30.273,-25.391,-25.879,-19.043,0.000
1714026518.601,-29.785,-20.508,-33.691,-17.578,0.000
1714026518.605,-27.832,-16.602,-27.832,-31.250,0.000
1714026518.609,-26.855,-18.555,-28.320,-34.668,0.000
1714026518.613,-23.438,-26.367,-23.926,-20.508,0.000
1714026518.617,-22.461,-28.809,-19.531,-16.113,0.000
1714026518.621,-22.461,-24.902,-38.086,-23.438,0.000
1714026518.624,-25.391,-21.484,-37.598,-27.832,0.000
1714026518.628,-24.414,-22.461,-19.531,-19.531,0.000
1714026518.632,-24.902,-24.414,-16.113,-13.184,0.000
1714026518.636,-25.391,-23.438,-21.973,-20.020,0.000
1714026518.640,-23.438,-23.438,-21.484,-22.461,0.000
1714026518.644,-24.414,-24.414,-27.344,-21.973,0.000
1714026518.648,-26.855,-24.414,-44.922,-24.902,0.000
1714026518.652,-29.785,-26.367,-40.527,-29.297,0.000
1714026518.656,-27.832,-26.367,-32.715,-27.344,0.000
1714026518.660,-22.461,-20.996,-36.133,-29.297,0.000
1714026518.663,-11.230,-17.090,-30.762,-20.508,0.000
1714026518.667,-8.301,-19.531,-28.320,-12.695,0.000
1714026518.671,-19.043,-22.461,-21.484,-21.973,0.000
1714026518.675,-24.902,-24.414,-19.531,-26.855,0.000
1714026518.679,-20.996,-23.926,-22.461,-28.320,0.000
1714026518.683,-23.438,-30.762,-26.855,-30.762,0.000
1714026518.686,-25.879,-40.039,-31.738,-31.738,0.000
1714026518.690,-19.043,-34.668,-25.879,-34.180,0.000
1714026518.694,-14.648,-24.902,-17.578,-32.227,0.000
1714026518.698,-14.160,-25.391,-15.625,-18.555,0.000
1714026518.702,-12.207,-24.414,-19.531,-16.602,0.000
1714026518.706,-19.043,-23.438,-20.996,-31.250,0.000
1714026518.710,-22.949,-24.414,-26.855,-31.738,0.000
1714026518.714,-20.508,-26.855,-26.367,-28.320,0.000
1714026518.716,-20.996,-27.344,-15.137,-27.832,0.000
1714026518.720,-22.461,-26.367,-20.020,-31.250,0.000
1714026518.724,-20.996,-20.508,-15.137,-24.414,0.000
1714026518.728,-23.926,-21.973,-11.230,-20.508,0.000
1714026518.732,-31.738,-27.832,-20.996,-30.273,0.000
1714026518.736,-34.668,-31.738,-31.250,-35.156,0.000
1714026518.739,-34.180,-35.645,-42.480,-33.691,0.000
1714026518.743,-33.203,-33.203,-40.527,-24.902,0.000
1714026518.747,-30.762,-21.484,-25.391,-28.320,0.000
1714026518.751,-25.391,-23.926,-17.090,-32.715,0.000
1714026518.755,-22.949,-22.949,-11.230,-28.320,0.000
1714026518.759,-25.391,-19.043,-21.484,-30.273,0.000
1714026518.761,-29.297,-28.320,-35.156,-29.297,0.000
1714026518.765,-33.203,-32.715,-29.785,-33.203,0.000
1714026518.769,-32.715,-32.715,-32.227,-31.738,0.000
1714026518.773,-30.273,-33.691,-34.668,-27.344,0.000
1714026518.777,-30.273,-32.715,-28.809,-28.809,0.000
1714026518.780,-26.855,-23.438,-18.555,-20.996,0.000
1714026518.784,-21.973,-16.602,-19.531,-16.113,0.000
1714026518.788,-26.855,-20.996,-34.180,-18.066,0.000
1714026518.792,-31.250,-21.484,-34.668,-25.391,0.000
1714026518.796,-31.250,-23.926,-32.227,-31.738,0.000
1714026518.800,-28.809,-25.391,-29.785,-33.203,0.000
1714026518.804,-25.879,-21.484,-28.320,-31.738,0.000
1714026518.806,-22.949,-23.438,-26.855,-24.902,0.000
1714026518.810,-23.438,-25.879,-17.090,-25.879,0.000
1714026518.814,-27.832,-29.297,-30.762,-37.109,0.000
1714026518.818,-28.809,-27.832,-41.504,-43.457,0.000
1714026518.822,-28.809,-22.461,-32.715,-37.109,0.000
1714026518.825,-30.273,-23.926,-23.438,-34.668,0.000
1714026518.829,-28.320,-28.320,-20.020,-27.832,0.000
1714026518.833,-24.414,-25.391,-16.602,-26.367,0.000
1714026518.837,-27.832,-20.996,-18.066,-35.645,0.000
1714026518.841,-35.645,-28.809,-30.273,-36.621,0.000
1714026518.845,-35.645,-34.180,-39.062,-36.133,0.000
1714026518.849,-24.414,-25.879,-24.414,-32.227,0.000
1714026518.851,-28.320,-28.809,-23.438,-35.156,0.000
1714026518.855,-33.203,-30.762,-30.762,-32.227,0.000
1714026518.859,-31.250,-25.391,-30.762,-24.414,0.000
1714026518.863,-25.391,-22.461,-26.855,-28.320,0.000
1714026518.867,-20.508,-25.391,-17.090,-27.832,0.000
1714026518.871,-26.367,-31.738,-31.738,-25.879,0.000
1714026518.875,-27.832,-29.297,-32.715,-29.297,0.000
1714026518.879,-24.902,-22.461,-16.602,-28.320,0.000
1714026518.883,-23.438,-23.926,-20.508,-28.809,0.000
1714026518.887,-18.066,-27.344,-32.227,-31.250,0.000
1714026518.891,-17.090,-25.879,-34.180,-26.367,0.000
1714026518.894,-21.484,-26.367,-25.391,-28.320,0.000
1714026518.904,-25.879,-24.902,-28.809,-35.645,0.000
1714026518.908,-30.273,-25.879,-39.062,-31.250,0.000
1714026518.912,-28.320,-23.926,-41.016,-30.273,0.000
1714026518.916,-30.273,-21.973,-40.527,-32.227,0.000
1714026518.920,-28.320,-23.438,-32.227,-28.809,0.000
1714026518.924,-24.414,-20.996,-32.715,-31.250,0.000
1714026518.928,-25.879,-21.973,-34.180,-32.715,0.000
1714026518.931,-23.926,-24.902,-24.414,-30.273,0.000
1714026518.935,-23.438,-24.414,-20.996,-31.250,0.000
1714026518.939,-24.902,-25.879,-41.504,-25.879,0.000
1714026518.943,-25.879,-26.367,-45.410,-25.879,0.000
1714026518.947,-26.855,-25.879,-34.668,-29.785,0.000
1714026518.953,-26.367,-26.855,-27.832,-25.879,0.000
1714026518.957,-25.391,-28.320,-26.367,-28.320,0.000
1714026518.961,-24.902,-24.902,-34.668,-33.203,0.000
1714026518.964,-22.461,-21.484,-38.574,-29.785,0.000
1714026518.968,-20.508,-22.949,-32.715,-27.832,0.000
1714026518.972,-20.508,-25.391,-30.273,-24.902,0.000
1714026518.976,-17.090,-24.902,-28.809,-21.973,0.000
1714026518.980,-17.578,-22.461,-29.785,-29.297,0.000
1714026518.984,-22.461,-24.414,-34.668,-25.879,0.000
1714026518.988,-19.531,-20.996,-34.180,-17.578,0.000
1714026518.992,-23.926,-17.090,-32.227,-29.297,0.000
1714026518.996,-32.715,-21.973,-23.438,-37.109,0.000
1714026518.999,-32.227,-28.809,-22.949,-33.203,0.000
1714026519.003,-27.344,-26.855,-32.227,-29.785,0.000
1714026519.007,-26.855,-20.996,-31.250,-29.297,0.000
1714026519.011,-35.156,-20.996,-30.273,-32.715,0.000
1714026519.015,-38.574,-25.879,-31.738,-32.227,0.000
1714026519.019,-33.203,-27.344,-32.227,-35.645,0.000
1714026519.023,-32.227,-24.902,-34.180,-44.434,0.000
1714026519.027,-32.715,-33.691,-34.180,-39.062,0.000
1714026519.031,-33.691,-36.621,-30.762,-24.414,0.000
1714026519.035,-33.203,-24.902,-29.297,-28.809,0.000
1714026519.038,-28.809,-19.043,-33.203,-41.504,0.000
1714026519.042,-29.297,-26.367,-31.250,-41.016,0.000
1714026519.045,-33.691,-33.691,-29.785,-36.621,0.000
1714026519.049,-28.809,-26.367,-32.715,-37.109,0.000
1714026519.053,-25.391,-24.414,-27.344,-38.574,0.000
1714026519.057,-25.391,-26.855,-17.090,-41.016,0.000
1714026519.061,-27.832,-28.809,-18.066,-40.039,0.000
1714026519.065,-30.273,-32.227,-22.461,-31.738,0.000
1714026519.069,-32.227,-32.715,-24.902,-32.715,0.000
1714026519.073,-30.273,-25.879,-23.438,-32.227,0.000
1714026519.076,-25.879,-25.391,-13.672,-21.484,0.000
1714026519.080,-29.785,-34.180,-19.043,-25.391,0.000
1714026519.084,-24.902,-33.203,-35.645,-25.879,0.000
1714026519.088,-17.578,-26.367,-32.715,-27.344,0.000
1714026519.098,-25.879,-27.832,-26.367,-36.133,0.000
1714026519.102,-28.320,-24.414,-29.297,-34.180,0.000
1714026519.106,-24.414,-22.949,-24.902,-29.785,0.000
1714026519.110,-23.926,-26.855,-15.625,-31.250,0.000
1714026519.114,-26.855,-22.949,-18.555,-35.645,0.000
1714026519.118,-31.250,-28.320,-26.367,-30.762,0.000
1714026519.122,-32.715,-36.621,-35.645,-27.832,0.000
1714026519.126,-32.227,-33.203,-40.527,-26.367,0.000
1714026519.130,-29.785,-26.367,-29.785,-29.785,0.000
1714026519.133,-27.344,-22.461,-25.879,-31.738,0.000
1714026519.137,-24.902,-23.438,-23.926,-24.414,0.000
1714026519.141,-24.414,-30.273,-27.832,-28.809,0.000
1714026519.140,-25.879,-31.738,-28.809,-35.156,0.000
1714026519.144,-25.391,-23.926,-28.320,-30.273,0.000
1714026519.147,-25.391,-26.855,-36.133,-29.297,0.000
1714026519.151,-21.973,-31.738,-41.504,-32.227,0.000
1714026519.155,-19.531,-22.949,-34.180,-35.645,0.000
1714026519.159,-20.996,-20.508,-23.438,-37.109,0.000
1714026519.163,-16.113,-25.879,-21.973,-28.809,0.000
1714026519.167,-20.020,-18.066,-31.738,-27.832,0.000
1714026519.171,-25.391,-19.043,-42.480,-36.133,0.000
1714026519.175,-29.785,-20.996,-43.457,-38.574,0.000
1714026519.179,-28.809,-16.113,-41.016,-29.297,0.000
1714026519.183,-29.297,-20.508,-34.668,-20.996,0.000
1714026519.183,-34.668,-21.973,-36.133,-25.879,0.000
1714026519.187,-30.273,-22.461,-31.738,-28.809,0.000
1714026519.191,-28.320,-24.414,-27.344,-29.785,0.000
1714026519.194,-29.297,-24.414,-30.762,-30.273,0.000
1714026519.198,-30.273,-23.438,-33.203,-27.344,0.000
1714026519.202,-26.367,-20.020,-29.297,-23.438,0.000
1714026519.206,-29.785,-27.344,-32.227,-23.438,0.000
1714026519.210,-34.668,-26.855,-39.062,-30.762,0.000
1714026519.214,-30.762,-21.973,-33.203,-35.645,0.000
1714026519.218,-27.832,-32.227,-20.996,-30.273,0.000
1714026519.222,-23.926,-35.156,-23.926,-30.273,0.000
1714026519.226,-24.902,-28.809,-33.691,-34.668,0.000
1714026519.227,-27.832,-19.043,-30.762,-28.320,0.000
1714026519.231,-28.809,-19.043,-25.879,-28.320,0.000
1714026519.235,-33.203,-28.320,-36.621,-35.156,0.000
1714026519.239,-31.738,-34.180,-45.410,-31.738,0.000
1714026519.243,-30.273,-28.320,-43.457,-31.250,0.000
1714026519.247,-24.414,-24.902,-29.297,-27.832,0.000
1714026519.251,-24.414,-31.738,-26.367,-21.484,0.000
1714026519.255,-30.273,-31.738,-29.785,-24.902,0.000
1714026519.259,-25.391,-25.879,-20.508,-27.344,0.000
1714026519.262,-25.391,-22.461,-27.344,-25.879,0.000
1714026519.266,-32.715,-21.973,-35.156,-30.762,0.000
1714026519.270,-31.738,-19.531,-30.762,-27.344,0.000
1714026519.279,-26.855,-18.555,-30.762,-20.996,0.000
1714026519.283,-26.855,-23.438,-27.832,-24.902,0.000
1714026519.287,-25.879,-25.391,-18.066,-23.438,0.000
1714026519.291,-24.902,-27.344,-24.902,-24.414,0.000
1714026519.295,-26.367,-29.785,-25.879,-23.926,0.000
1714026519.299,-28.320,-29.297,-25.391,-18.066,0.000
1714026519.303,-22.949,-25.391,-27.344,-18.066,0.000
1714026519.307,-16.602,-27.344,-21.973,-18.555,0.000
1714026519.310,-20.996,-27.832,-29.785,-20.508,0.000
1714026519.314,-18.555,-29.785,-30.273,-16.602,0.000
1714026519.318,-11.719,-30.762,-22.949,-16.602,0.000
1714026519.322,-9.766,-27.344,-12.207,-17.578,0.000
1714026519.328,-17.578,-29.297,-4.883,-18.066,0.000
1714026519.332,-21.484,-28.809,-12.695,-19.043,0.000
1714026519.335,-18.066,-23.926,-17.090,-18.066,0.000
1714026519.339,-19.531,-29.785,-16.602,-21.973,0.000
1714026519.343,-22.461,-33.203,-27.344,-25.391,0.000
1714026519.347,-20.508,-30.273,-26.855,-20.508,0.000
1714026519.351,-22.461,-28.809,-18.066,-15.137,0.000
1714026519.355,-25.879,-28.320,-9.277,-14.648,0.000
1714026519.359,-22.461,-26.367,-10.742,-13.672,0.000
1714026519.363,-22.949,-22.949,-15.625,-9.766,0.000
1714026519.367,-27.832,-16.113,-8.301,-17.090,0.000
1714026519.371,-32.227,-20.996,-19.531,-30.762,0.000
1714026519.374,-30.273,-24.414,-35.645,-35.156,0.000
1714026519.378,-23.438,-23.926,-32.227,-30.273,0.000
1714026519.382,-21.973,-23.926,-22.949,-32.715,0.000
1714026519.386,-16.602,-21.973,-13.672,-38.574,0.000
1714026519.390,-16.113,-24.902,-19.531,-34.668,0.000
1714026519.394,-24.902,-30.273,-28.809,-35.645,0.000
1714026519.398,-26.367,-34.668,-27.344,-26.367,0.000
1714026519.402,-23.438,-34.180,-26.367,-15.137,0.000
1714026519.406,-34.180,-28.809,-37.598,-24.414,0.000
1714026519.409,-41.016,-23.438,-38.574,-34.180,0.000
1714026519.413,-35.156,-23.926,-25.879,-29.297,0.000
1714026519.417,-34.180,-22.461,-20.020,-31.250,0.000
1714026519.420,-33.203,-13.672,-23.926,-38.574,0.000
1714026519.424,-30.762,-18.555,-27.832,-37.598,0.000
1714026519.428,-36.621,-33.203,-30.273,-39.062,0.000
1714026519.432,-42.480,-34.668,-27.832,-44.922,0.000
1714026519.436,-37.109,-26.855,-23.926,-43.457,0.000
1714026519.440,-32.715,-22.949,-28.320,-42.480,0.000
1714026519.444,-30.762,-24.414,-29.297,-41.992,0.000
1714026519.448,-22.949,-18.066,-12.207,-22.949,0.000
1714026519.452,-20.508,-12.695,-10.742,-15.625,0.000
1714026519.455,-26.367,-16.602,-19.043,-23.926,0.000
1714026519.459,-27.344,-22.461,-24.414,-20.508,0.000
1714026519.463,-25.391,-26.367,-25.391,-20.508,0.000
1714026519.466,-28.320,-30.762,-23.438,-30.273,0.000
1714026519.470,-23.926,-23.926,-25.391,-33.203,0.000
1714026519.474,-19.043,-20.020,-24.902,-29.297,0.000
1714026519.478,-20.508,-25.879,-20.508,-28.320,0.000
1714026519.482,-25.391,-23.926,-24.414,-32.227,0.000
1714026519.486,-27.344,-13.184,-34.668,-34.668,0.000
1714026519.490,-27.344,-15.625,-36.621,-33.203,0.000
1714026519.493,-24.414,-21.973,-29.785,-22.461,0.000
1714026519.497,-27.344,-26.855,-30.762,-29.297,0.000
1714026519.501,-27.344,-27.832,-26.855,-36.133,0.000
1714026519.505,-25.391,-23.926,-11.230,-25.391,0.000
1714026519.509,-30.273,-20.508,-17.090,-24.902,0.000
1714026519.511,-28.809,-24.902,-27.832,-27.344,0.000
1714026519.515,-26.855,-28.320,-30.762,-24.414,0.000
1714026519.519,-28.809,-28.320,-24.902,-25.879,0.000
1714026519.523,-29.785,-33.691,-20.020,-25.879,0.000
1714026519.527,-31.738,-39.062,-16.602,-20.996,0.000
1714026519.531,-32.715,-34.668,-13.184,-23.926,0.000
1714026519.535,-29.297,-30.762,-17.578,-26.855,0.000
1714026519.539,-28.809,-29.785,-24.414,-24.902,0.000
1714026519.543,-32.715,-29.785,-33.203,-31.250,0.000
1714026519.546,-31.738,-29.785,-29.297,-26.367,0.000
1714026519.550,-27.344,-25.391,-23.926,-25.879,0.000
1714026519.554,-27.344,-25.879,-29.785,-27.344,0.000
1714026519.556,-32.227,-25.391,-26.855,-16.602,0.000
1714026519.560,-31.738,-28.320,-20.996,-15.625,0.000
1714026519.564,-31.250,-32.227,-22.461,-23.926,0.000
1714026519.568,-26.855,-24.902,-27.344,-23.926,0.000
1714026519.572,-19.531,-20.020,-27.832,-25.391,0.000
1714026519.576,-17.578,-22.461,-27.832,-24.414,0.000
1714026519.580,-21.484,-23.438,-24.414,-20.020,0.000
1714026519.584,-27.344,-24.902,-20.020,-22.461,0.000
1714026519.588,-31.250,-24.902,-23.438,-22.461,0.000
1714026519.592,-27.832,-24.414,-29.297,-20.996,0.000
1714026519.596,-28.320,-28.320,-33.691,-28.320,0.000
1714026519.599,-25.879,-20.508,-20.508,-26.855,0.000
1714026519.602,-23.926,-16.113,-14.160,-21.484,0.000
1714026519.606,-21.484,-25.391,-24.902,-20.020,0.000
1714026519.609,-24.414,-24.902,-19.043,-15.137,0.000
1714026519.613,-29.785,-18.555,-8.301,-13.672,0.000
1714026519.617,-30.273,-20.508,-18.066,-21.973,0.000
1714026519.621,-31.738,-25.879,-23.438,-24.414,0.000
1714026519.625,-32.227,-30.273,-19.043,-21.973,0.000
1714026519.629,-26.367,-24.902,-20.508,-21.484,0.000
1714026519.633,-29.785,-22.949,-30.762,-22.461,0.000
1714026519.637,-35.645,-27.344,-33.691,-20.020,0.000
1714026519.641,-27.832,-24.902,-17.090,-12.207,0.000
1714026519.645,-21.973,-26.367,-8.301,-17.578,0.000
1714026519.654,-23.438,-37.598,-19.043,-24.414,0.000
1714026519.658,-25.391,-38.574,-32.227,-20.020,0.000
1714026519.662,-22.949,-22.949,-30.273,-13.184,0.000
1714026519.666,-17.578,-13.672,-26.855,-17.578,0.000
1714026519.670,-19.043,-8.789,-24.902,-24.414,0.000
1714026519.674,-24.414,-7.324,-21.484,-20.020,0.000
1714026519.678,-15.137,-11.230,-12.695,-10.254,0.000
1714026519.682,-18.555,-23.926,-12.695,-17.090,0.000
1714026519.685,-25.879,-26.855,-31.250,-23.926,0.000
1714026519.689,-21.484,-20.020,-37.598,-22.461,0.000
1714026519.693,-20.020,-19.043,-30.273,-32.715,0.000
1714026519.697,-18.066,-22.461,-23.438,-32.227,0.000
1714026519.703,-20.020,-23.438,-17.578,-24.902,0.000
1714026519.707,-24.414,-22.461,-12.695,-26.367,0.000
1714026519.711,-30.273,-26.855,-18.066,-31.738,0.000
1714026519.714,-35.645,-31.250,-18.555,-34.180,0.000
1714026519.718,-29.785,-23.926,-18.066,-27.344,0.000
1714026519.722,-24.414,-21.484,-28.809,-23.438,0.000
1714026519.726,-33.203,-29.297,-27.832,-28.809,0.000
1714026519.730,-39.062,-31.738,-17.578,-28.320,0.000
1714026519.734,-30.273,-23.926,-16.602,-18.066,0.000
1714026519.738,-22.461,-26.855,-20.996,-19.531,0.000
1714026519.742,-25.879,-30.762,-21.484,-30.762,0.000
1714026519.746,-34.668,-29.785,-33.203,-32.715,0.000
1714026519.750,-34.180,-32.715,-36.133,-25.879,0.000
1714026519.754,-27.344,-32.227,-27.832,-28.320,0.000
1714026519.758,-27.344,-23.438,-20.996,-34.668,0.000
1714026519.762,-27.832,-20.508,-15.625,-23.926,0.000
1714026519.766,-22.949,-18.555,-14.160,-20.020,0.000
1714026519.769,-28.320,-22.461,-26.367,-27.344,0.000
1714026519.773,-26.367,-24.902,-27.832,-29.297,0.000
1714026519.777,-23.926,-30.762,-15.625,-22.461,0.000
1714026519.781,-27.344,-31.250,-25.391,-9.766,0.000
1714026519.785,-26.367,-24.902,-35.156,-17.090,0.000
1714026519.789,-23.438,-22.461,-30.273,-24.414,0.000
1714026519.793,-22.949,-21.484,-34.180,-20.020,0.000
1714026519.796,-26.855,-24.902,-31.250,-20.996,0.000
1714026519.799,-28.809,-26.855,-17.090,-21.973,0.000
1714026519.803,-30.273,-26.367,-23.926,-27.832,0.000
1714026519.807,-31.250,-30.273,-21.484,-35.156,0.000
1714026519.811,-27.832,-36.621,-23.438,-30.762,0.000
1714026519.815,-24.902,-30.273,-24.902,-22.949,0.000
1714026519.819,-25.391,-22.461,-22.949,-26.367,0.000
1714026519.823,-27.344,-27.832,-30.273,-29.785,0.000
1714026519.827,-29.785,-33.203,-33.691,-30.762,0.000
1714026519.831,-27.832,-32.227,-27.344,-31.250,0.000
1714026519.835,-24.902,-32.715,-16.602,-28.809,0.000
1714026519.839,-29.297,-34.180,-22.461,-35.156,0.000
1714026519.841,-29.297,-33.691,-31.738,-39.062,0.000
1714026519.845,-25.879,-27.832,-33.203,-37.598,0.000
1714026519.849,-26.367,-21.973,-28.320,-34.668,0.000
1714026519.853,-26.367,-28.809,-26.855,-34.180,0.000
1714026519.856,-28.809,-36.133,-31.738,-45.410,0.000
1714026519.860,-33.203,-39.062,-26.367,-43.945,0.000
1714026519.864,-30.273,-38.086,-29.297,-35.156,0.000
1714026519.868,-25.391,-37.598,-27.344,-30.762,0.000
1714026519.872,-33.203,-38.086,-15.625,-38.086,0.000
1714026519.876,-35.645,-34.180,-20.508,-40.527,0.000
1714026519.880,-29.297,-20.996,-24.902,-30.762,0.000
1714026519.884,-29.785,-25.391,-26.855,-33.203,0.000
1714026519.887,-35.156,-40.039,-22.949,-39.062,0.000
1714026519.890,-37.598,-36.621,-14.648,-39.062,0.000
1714026519.894,-37.598,-27.832,-14.648,-36.133,0.000
1714026519.898,-27.344,-19.531,-20.020,-34.668,0.000
1714026519.902,-27.344,-21.484,-20.996,-34.180,0.000
1714026519.906,-32.715,-27.832,-31.738,-36.621,0.000
1714026519.910,-32.227,-34.180,-32.227,-32.715,0.000
1714026519.914,-31.738,-33.203,-24.902,-21.973,0.000
1714026519.918,-28.809,-25.391,-16.113,-18.555,0.000
1714026519.922,-29.297,-28.320,-11.230,-21.484,0.000
1714026519.926,-29.297,-28.320,-8.789,-21.973,0.000
1714026519.929,-29.297,-23.438,-7.324,-14.648,0.000
1714026519.931,-34.180,-22.949,-17.090,-21.484,0.000
1714026519.935,-38.574,-32.715,-31.738,-37.598,0.000
1714026519.939,-34.668,-39.062,-34.668,-37.598,0.000
1714026519.943,-30.273,-28.809,-26.367,-30.762,0.000
1714026519.947,-27.832,-20.996,-12.207,-32.715,0.000
1714026519.951,-20.020,-17.090,-6.836,-32.227,0.000
1714026519.955,-28.320,-24.414,-21.484,-29.785,0.000
1714026519.959,-37.109,-24.902,-26.855,-28.809,0.000
1714026519.962,-33.203,-21.973,-29.297,-26.855,0.000
1714026519.966,-29.297,-26.855,-31.250,-26.367,0.000
1714026519.970,-30.273,-22.461,-24.902,-25.879,0.000
1714026519.974,-27.344,-19.043,-23.926,-20.020,0.000
1714026519.976,-26.855,-20.996,-20.020,-21.973,0.000
1714026519.980,-33.203,-27.344,-16.602,-32.227,0.000
1714026519.984,-37.109,-28.809,-19.531,-33.691,0.000
1714026519.988,-40.039,-28.320,-20.996,-32.227,0.000
1714026519.992,-40.039,-28.809,-21.484,-38.574,0.000
1714026519.996,-32.715,-23.438,-18.555,-30.762,0.000
1714026520.000,-30.273,-20.996,-14.648,-24.414,0.000
1714026520.004,-33.203,-26.367,-18.555,-33.691,0.000
1714026520.008,-35.156,-29.297,-28.320,-36.133,0.000
1714026520.011,-31.738,-27.832,-29.785,-34.180,0.000
1714026520.015,-31.738,-26.855,-32.227,-31.250,0.000
1714026520.019,-35.156,-29.785,-33.691,-30.762,0.000
1714026520.029,-29.785,-30.273,-21.973,-28.320,0.000
1714026520.033,-22.949,-30.273,-17.578,-20.996,0.000
1714026520.037,-21.484,-30.762,-21.973,-25.879,0.000
1714026520.041,-23.438,-28.320,-25.391,-32.715,0.000
1714026520.045,-20.996,-19.043,-22.461,-23.926,0.000
1714026520.048,-23.438,-17.090,-30.273,-20.508,0.000
1714026520.052,-28.809,-26.855,-37.598,-22.461,0.000
1714026520.056,-26.855,-20.996,-33.203,-23.926,0.000
1714026520.060,-26.367,-22.461,-20.508,-24.414,0.000
1714026520.064,-24.902,-29.297,-22.949,-19.531,0.000
1714026520.068,-23.438,-20.508,-22.461,-19.531,0.000
1714026520.072,-26.367,-29.297,-12.695,-21.973,0.000
1714026520.077,-24.902,-31.250,-28.809,-26.367,0.000
1714026520.081,-22.949,-20.996,-35.645,-24.902,0.000
1714026520.085,-22.461,-20.020,-25.879,-25.879,0.000
1714026520.089,-21.484,-21.484,-25.879,-29.785,0.000
1714026520.093,-25.391,-30.273,-34.180,-27.832,0.000
1714026520.097,-35.156,-26.367,-31.738,-28.320,0.000
1714026520.101,-36.621,-25.391,-24.414,-33.203,0.000
1714026520.105,-30.762,-31.250,-34.668,-36.621,0.000
1714026520.109,-37.598,-36.621,-47.852,-41.992,0.000
1714026520.113,-38.574,-34.180,-43.945,-29.785,0.000
1714026520.117,-30.273,-27.344,-31.738,-26.855,0.000
1714026520.120,-31.738,-30.273,-33.203,-40.527,0.000
1714026520.124,-31.250,-25.879,-32.227,-41.504,0.000
1714026520.128,-24.414,-20.020,-17.578,-32.715,0.000
1714026520.132,-27.344,-27.344,-21.973,-31.250,0.000
1714026520.136,-32.227,-33.203,-28.809,-36.133,0.000
1714026520.140,-33.203,-33.691,-35.645,-43.457,0.000
1714026520.144,-30.273,-31.738,-36.621,-41.992,0.000
1714026520.148,-32.227,-28.320,-28.809,-36.133,0.000
1714026520.152,-36.133,-30.273,-27.832,-40.039,0.000
1714026520.156,-33.691,-33.691,-35.156,-33.691,0.000
1714026520.160,-31.250,-29.297,-30.762,-32.227,0.000
1714026520.164,-32.715,-33.203,-24.902,-38.574,0.000
1714026520.167,-34.668,-35.645,-36.133,-41.504,0.000
1714026520.171,-33.203,-32.715,-36.133,-39.062,0.000
1714026520.175,-27.344,-33.203,-18.555,-35.156,0.000
1714026520.179,-26.367,-25.879,-23.926,-31.738,0.000
1714026520.183,-31.250,-23.438,-32.227,-31.250,0.000
1714026520.186,-34.668,-32.715,-35.156,-31.250,0.000
1714026520.190,-33.691,-35.156,-32.227,-31.250,0.000
1714026520.194,-30.273,-27.344,-20.996,-26.367,0.000
1714026520.198,-32.715,-26.855,-25.391,-21.973,0.000
1714026520.202,-36.133,-25.391,-21.973,-19.043,0.000
1714026520.206,-29.785,-16.113,-13.672,-21.484,0.000
1714026520.210,-25.879,-18.066,-30.273,-24.414,0.000
1714026520.214,-27.344,-20.996,-34.180,-23.438,0.000
1714026520.216,-28.320,-16.602,-22.461,-23.438,0.000
1714026520.220,-21.484,-12.695,-24.414,-20.996,0.000
1714026520.224,-18.555,-20.996,-32.227,-25.391,0.000
1714026520.228,-22.949,-21.484,-27.344,-20.020,0.000
1714026520.232,-25.879,-16.602,-20.508,-11.719,0.000
1714026520.236,-28.320,-20.020,-22.461,-24.902,0.000
1714026520.240,-29.785,-20.020,-32.227,-33.203,0.000
1714026520.244,-26.855,-20.020,-35.156,-24.414,0.000
1714026520.247,-29.785,-19.043,-18.555,-21.484,0.000
1714026520.251,-32.227,-20.508,-11.230,-29.297,0.000
1714026520.255,-27.344,-21.484,-19.531,-26.367,0.000
1714026520.259,-22.949,-21.973,-18.066,-22.461,0.000
1714026520.261,-19.043,-20.020,-11.719,-20.020,0.000
1714026520.265,-19.043,-20.020,-23.438,-27.344,0.000
1714026520.269,-15.137,-20.508,-36.621,-36.133,0.000
1714026520.273,-9.766,-19.531,-31.738,-28.809,0.000
1714026520.277,-2.930,-21.484,-20.508,-16.113,0.000
1714026520.281,2.441,-22.949,-20.508,-21.973,0.000
1714026520.285,-5.371,-26.367,-33.691,-28.809,0.000
1714026520.289,-15.625,-23.926,-33.203,-25.879,0.000
1714026520.293,-18.066,-23.438,-17.578,-27.832,0.000
1714026520.297,-16.113,-27.344,-28.320,-28.320,0.000
1714026520.300,-20.996,-32.227,-46.387,-27.344,0.000
1714026520.304,-26.367,-28.320,-32.227,-26.367,0.000
1714026520.306,-30.762,-23.926,-29.785,-25.391,0.000
1714026520.310,-35.156,-30.762,-42.480,-30.762,0.000
1714026520.314,-34.180,-31.250,-35.645,-33.691,0.000
1714026520.318,-34.668,-24.414,-21.973,-28.320,0.000
1714026520.322,-33.691,-25.879,-35.156,-27.832,0.000
1714026520.326,-34.180,-34.668,-49.316,-31.738,0.000
1714026520.330,-34.668,-32.227,-40.527,-26.367,0.000
1714026520.334,-33.691,-24.414,-29.785,-29.785,0.000
1714026520.338,-33.203,-21.484,-19.531,-32.715,0.000
1714026520.342,-33.203,-24.414,-27.832,-24.414,0.000
1714026520.345,-28.809,-23.926,-34.180,-22.949,0.000
1714026520.349,-27.832,-21.484,-17.578,-21.973,0.000
1714026520.352,-29.785,-29.785,-15.137,-22.949,0.000
1714026520.355,-29.785,-34.180,-27.344,-27.344,0.000
1714026520.359,-29.297,-29.785,-29.785,-25.391,0.000
1714026520.363,-26.855,-25.391,-31.738,-29.297,0.000
1714026520.367,-20.996,-28.809,-23.926,-29.297,0.000
1714026520.371,-20.508,-29.297,-28.809,-26.367,0.000
1714026520.375,-26.855,-34.668,-39.551,-25.879,0.000
1714026520.379,-21.484,-33.691,-24.414,-22.949,0.000
1714026520.383,-23.438,-28.320,-26.367,-27.832,0.000
1714026520.387,-30.273,-37.109,-37.109,-31.250,0.000
1714026520.391,-30.762,-41.992,-34.180,-29.297,0.000
1714026520.395,-25.391,-34.180,-29.785,-23.438,0.000
1714026520.404,-18.555,-27.344,-25.879,-21.973,0.000
1714026520.408,-17.090,-23.926,-28.320,-25.391,0.000
1714026520.412,-20.020,-25.879,-31.738,-23.438,0.000
1714026520.416,-20.020,-30.273,-25.391,-21.484,0.000
1714026520.420,-23.438,-31.738,-36.621,-30.762,0.000
1714026520.423,-26.855,-25.391,-41.992,-36.133,0.000
1714026520.427,-19.531,-16.113,-34.180,-30.762,0.000
1714026520.431,-18.066,-18.066,-26.367,-28.320,0.000
1714026520.435,-23.926,-28.809,-32.227,-30.273,0.000
1714026520.439,-25.879,-30.273,-46.387,-24.902,0.000
1714026520.443,-19.531,-21.973,-33.691,-20.508,0.000
1714026520.447,-13.184,-18.066,-25.879,-19.043,0.000
1714026520.452,-17.090,-15.137,-30.273,-20.996,0.000
1714026520.456,-17.578,-15.137,-27.344,-22.949,0.000
1714026520.460,-14.160,-20.020,-31.250,-19.043,0.000
1714026520.464,-20.020,-22.461,-33.691,-27.832,0.000
1714026520.468,-19.043,-24.414,-36.621,-33.691,0.000
1714026520.472,-12.207,-23.926,-48.828,-29.297,0.000
1714026520.476,-26.367,-25.879,-53.223,-39.551,0.000
1714026520.480,-38.086,-27.344,-37.598,-45.410,0.000
1714026520.484,-30.762,-24.902,-35.645,-37.109,0.000
1714026520.488,-30.762,-20.996,-38.574,-35.156,0.000
1714026520.492,-34.668,-9.766,-21.973,-37.598,0.000
1714026520.495,-29.785,-12.207,-14.160,-34.180,0.000
1714026520.499,-29.785,-24.414,-29.297,-35.645,0.000
1714026520.503,-24.902,-22.949,-40.039,-34.180,0.000
1714026520.507,-21.484,-23.926,-25.391,-29.785,0.000
1714026520.511,-23.926,-31.738,-19.531,-21.973,0.000
1714026520.515,-17.090,-23.438,-21.973,-16.602,0.000
1714026520.519,-17.090,-10.742,-15.625,-17.578,0.000
1714026520.523,-25.391,-11.719,-20.020,-28.809,0.000
1714026520.527,-26.855,-19.043,-22.949,-26.855,0.000
1714026520.530,-27.344,-26.855,-20.996,-12.207,0.000
1714026520.534,-27.832,-25.879,-19.531,-16.602,0.000
1714026520.538,-31.250,-28.320,-19.531,-31.738,0.000
1714026520.542,-35.156,-29.785,-25.879,-37.109,0.000
1714026520.546,-35.156,-26.855,-31.250,-31.738,0.000
1714026520.549,-31.738,-24.414,-26.855,-26.855,0.000
1714026520.553,-28.809,-19.531,-30.273,-25.879,0.000
1714026520.557,-28.320,-20.996,-37.109,-30.762,0.000
1714026520.561,-25.391,-27.344,-30.762,-29.785,0.000
1714026520.565,-24.414,-30.273,-20.996,-24.414,0.000
1714026520.569,-25.391,-27.832,-20.508,-23.926,0.000
1714026520.573,-20.996,-27.344,-14.648,-18.066,0.000
1714026520.577,-21.484,-27.832,-19.043,-15.137,0.000
1714026520.581,-25.879,-24.414,-26.367,-22.461,0.000
1714026520.585,-26.855,-26.367,-27.832,-23.438,0.000
1714026520.589,-30.273,-26.855,-33.203,-27.832,0.000
1714026520.591,-32.227,-28.809,-28.320,-28.320,0.000
1714026520.595,-32.227,-28.320,-20.996,-22.949,0.000
1714026520.599,-34.180,-23.926,-17.578,-24.902,0.000
1714026520.603,-36.621,-29.785,-23.926,-33.203,0.000
1714026520.607,-32.715,-27.832,-32.227,-33.203,0.000
1714026520.610,-27.832,-27.832,-45.898,-29.785,0.000
1714026520.614,-28.809,-29.297,-47.363,-26.855,0.000
1714026520.618,-28.320,-27.344,-36.133,-22.461,0.000
1714026520.622,-30.273,-23.438,-33.691,-30.273,0.000
1714026520.626,-28.809,-17.578,-22.461,-29.785,0.000
1714026520.630,-25.391,-24.902,-15.137,-24.902,0.000
1714026520.634,-28.320,-29.297,-20.508,-25.879,0.000
1714026520.636,-26.367,-27.344,-30.762,-29.297,0.000
1714026520.640,-21.973,-23.926,-34.668,-30.273,0.000
1714026520.644,-17.578,-18.066,-37.109,-23.926,0.000
1714026520.648,-14.648,-24.414,-33.203,-24.414,0.000
1714026520.652,-12.695,-26.855,-27.832,-22.949,0.000
1714026520.655,-16.113,-25.879,-34.668,-26.855,0.000
1714026520.659,-18.066,-25.391,-20.996,-21.973,0.000
1714026520.663,-14.648,-24.414,-10.254,-11.719,0.000
1714026520.667,-22.461,-26.367,-26.855,-28.809,0.000
1714026520.671,-25.879,-23.926,-32.227,-38.574,0.000
1714026520.675,-24.414,-25.879,-33.691,-32.227,0.000
1714026520.679,-22.949,-25.391,-28.320,-22.461,0.000
1714026520.681,-22.461,-25.391,-25.879,-20.996,0.000
1714026520.685,-22.461,-31.738,-29.785,-19.043,0.000
1714026520.689,-24.414,-31.738,-33.691,-18.066,0.000
1714026520.693,-26.367,-21.973,-29.297,-23.438,0.000
1714026520.697,-25.391,-21.973,-19.531,-28.809,0.000
1714026520.701,-27.344,-31.738,-25.391,-28.809,0.000
1714026520.705,-27.832,-33.203,-35.156,-22.949,0.000
1714026520.708,-25.879,-25.391,-28.320,-23.926,0.000
1714026520.712,-22.461,-21.484,-19.531,-24.902,0.000
1714026520.716,-24.902,-27.344,-27.344,-30.273,0.000
1714026520.720,-24.414,-27.344,-28.809,-29.297,0.000
1714026520.724,-15.137,-18.066,-20.508,-15.625,0.000
1714026520.727,-11.230,-13.672,-13.672,-10.742,0.000
1714026520.731,-19.043,-23.438,-20.996,-18.066,0.000
1714026520.735,-23.438,-28.320,-25.879,-25.391,0.000
1714026520.739,-27.344,-16.602,-21.973,-29.297,0.000
1714026520.742,-28.320,-17.090,-27.344,-28.320,0.000
1714026520.746,-27.344,-27.832,-30.762,-30.273,0.000
1714026520.750,-29.297,-22.461,-26.367,-31.738,0.000
1714026520.754,-27.832,-13.184,-18.066,-28.809,0.000
1714026520.758,-23.438,-16.113,-14.648,-25.391,0.000
1714026520.762,-23.438,-21.484,-17.090,-27.832,0.000
1714026520.766,-28.320,-24.902,-15.625,-36.133,0.000
1714026520.770,-32.715,-28.809,-15.625,-35.156,0.000
1714026520.779,-30.762,-27.344,-20.508,-21.484,0.000
1714026520.783,-26.367,-32.227,-32.227,-16.602,0.000
1714026520.787,-26.855,-37.109,-28.809,-25.879,0.000
1714026520.791,-30.762,-26.855,-16.113,-28.809,0.000
1714026520.795,-32.227,-22.949,-19.531,-23.926,0.000
1714026520.799,-25.391,-18.555,-24.902,-23.926,0.000
1714026520.803,-23.438,-15.137,-24.902,-20.996,0.000
1714026520.807,-28.809,-20.996,-31.250,-17.578,0.000
1714026520.811,-23.438,-28.320,-27.344,-14.160,0.000
1714026520.815,-22.949,-33.691,-22.461,-17.578,0.000
1714026520.818,-30.762,-27.344,-20.508,-26.367,0.000
1714026520.822,-33.203,-33.203,-29.297,-35.156,0.000
1714026520.828,-36.133,-39.551,-31.738,-42.969,0.000
1714026520.832,-38.574,-27.832,-29.785,-41.016,0.000
1714026520.836,-35.156,-22.461,-29.297,-33.203,0.000
1714026520.840,-32.227,-19.531,-27.344,-39.551,0.000
1714026520.844,-30.273,-18.555,-31.738,-45.410,0.000
1714026520.848,-30.273,-20.996,-31.250,-37.598,0.000
1714026520.852,-35.156,-21.484,-26.367,-41.504,0.000
1714026520.855,-32.715,-21.973,-21.973,-40.039,0.000
1714026520.859,-27.832,-26.367,-21.484,-28.320,0.000
1714026520.863,-27.344,-27.344,-27.344,-27.344,0.000
1714026520.867,-33.203,-23.926,-33.203,-31.250,0.000
1714026520.871,-38.574,-25.879,-32.227,-28.320,0.000
1714026520.875,-41.016,-28.320,-29.297,-34.668,0.000
1714026520.878,-42.480,-27.344,-24.902,-37.598,0.000
1714026520.882,-38.086,-29.297,-20.020,-27.832,0.000
1714026520.886,-36.133,-29.785,-28.809,-25.879,0.000
1714026520.890,-46.387,-36.621,-36.621,-38.574,0.000
1714026520.894,-50.781,-40.527,-28.320,-44.922,0.000
1714026520.898,-50.781,-37.109,-26.855,-40.039,0.000
1714026520.902,-50.781,-34.668,-30.762,-41.016,0.000
1714026520.906,-40.527,-31.250,-33.203,-34.668,0.000
1714026520.910,-32.715,-22.949,-34.668,-28.809,0.000
1714026520.914,-30.762,-26.855,-32.715,-33.691,0.000
1714026520.918,-29.297,-38.574,-32.715,-30.273,0.000
1714026520.928,-31.738,-39.062,-34.180,-29.785,0.000
1714026520.932,-33.691,-36.133,-30.762,-38.086,0.000
1714026520.936,-28.320,-32.227,-24.902,-30.273,0.000
1714026520.940,-26.367,-33.203,-23.926,-25.391,0.000
1714026520.944,-24.414,-29.785,-26.855,-27.832,0.000
1714026520.948,-24.414,-28.809,-32.227,-34.180,0.000
1714026520.952,-25.391,-30.273,-28.320,-34.668,0.000
1714026520.956,-18.555,-23.438,-22.949,-21.973,0.000
1714026520.960,-14.648,-21.484,-26.367,-22.949,0.000
1714026520.964,-20.020,-23.926,-26.367,-27.344,0.000
1714026520.967,-20.508,-25.879,-25.391,-22.949,0.000
1714026520.971,-18.066,-25.391,-17.578,-19.531,0.000
1714026520.970,-24.414,-26.367,-17.090,-22.949,0.000
1714026520.974,-24.414,-29.785,-30.273,-30.762,0.000
1714026520.978,-17.090,-27.832,-29.297,-28.809,0.000
1714026520.981,-13.672,-25.391,-14.648,-20.996,0.000
1714026520.985,-15.137,-27.344,-16.602,-19.531,0.000
1714026520.989,-18.555,-24.902,-29.297,-24.902,0.000
1714026520.993,-22.461,-29.785,-29.785,-30.273,0.000
1714026520.997,-22.949,-38.086,-26.367,-26.367,0.000
1714026521.001,-15.137,-32.715,-19.043,-20.996,0.000
1714026521.005,-16.113,-24.414,-16.113,-22.949,0.000
1714026521.009,-23.926,-24.902,-24.414,-31.250,0.000
1714026521.013,-29.297,-32.715,-27.832,-26.367,0.000
1714026521.013,-28.320,-39.551,-20.996,-22.461,0.000
1714026521.017,-24.902,-30.273,-19.043,-34.180,0.000
1714026521.021,-28.809,-25.391,-26.367,-39.551,0.000
1714026521.025,-31.738,-27.344,-31.738,-33.691,0.000
1714026521.029,-31.738,-23.926,-30.762,-26.367,0.000
1714026521.033,-29.785,-25.879,-25.879,-29.785,0.000
1714026521.037,-32.227,-28.809,-29.785,-39.551,0.000
1714026521.041,-31.250,-31.738,-23.438,-33.691,0.000
1714026521.045,-28.809,-39.551,-26.367,-29.297,0.000
1714026521.048,-28.320,-36.621,-33.203,-27.344,0.000
1714026521.052,-29.297,-34.668,-30.273,-26.367,0.000
1714026521.056,-28.809,-36.621,-33.203,-32.227,0.000
1714026521.058,-29.785,-33.691,-30.762,-39.062,0.000
1714026521.061,-32.715,-30.273,-24.902,-38.574,0.000
1714026521.065,-33.203,-28.809,-30.762,-36.621,0.000
1714026521.069,-33.691,-27.832,-37.598,-38.086,0.000
1714026521.073,-36.133,-29.297,-31.738,-34.668,0.000
1714026521.077,-30.273,-38.086,-26.855,-23.926,0.000
1714026521.081,-21.973,-36.133,-26.367,-10.254,0.000
1714026521.085,-25.391,-23.438,-22.949,-14.160,0.000
1714026521.089,-26.855,-19.043,-21.484,-27.832,0.000
1714026521.093,-19.531,-28.809,-21.484,-20.996,0.000
1714026521.097,-30.273,-33.203,-27.832,-22.461,0.000
1714026521.100,-31.250,-26.855,-29.785,-28.809,0.000
1714026521.102,-20.020,-27.832,-30.273,-26.367,0.000
1714026521.106,-23.926,-26.367,-27.344,-26.855,0.000
1714026521.110,-26.367,-30.273,-17.090,-28.320,0.000
1714026521.114,-24.414,-35.156,-17.090,-32.715,0.000
1714026521.118,-25.879,-31.250,-25.879,-35.156,0.000
1714026521.122,-29.297,-32.715,-27.344,-35.156,0.000
1714026521.126,-30.762,-31.738,-34.180,-38.574,0.000
1714026521.130,-30.762,-24.902,-42.969,-45.898,0.000
1714026521.134,-29.785,-20.020,-43.457,-49.805,0.000
1714026521.137,-27.832,-24.414,-45.410,-40.039,0.000
1714026521.141,-24.902,-24.902,-38.574,-33.203,0.000
1714026521.145,-19.531,-19.531,-21.484,-34.668,0.000
1714026521.154,-15.625,-15.625,-18.066,-34.668,0.000
1714026521.158,-21.484,-22.461,-21.484,-31.250,0.000
1714026521.162,-22.949,-20.508,-20.508,-27.344,0.000
1714026521.166,-20.020,-16.113,-25.391,-27.832,0.000
1714026521.170,-25.391,-19.043,-26.367,-30.762,0.000
1714026521.174,-35.156,-27.344,-35.645,-39.551,0.000
1714026521.178,-37.598,-24.902,-41.504,-48.340,0.000
1714026521.182,-24.902,-13.184,-36.621,-32.715,0.000
1714026521.185,-28.320,-20.996,-30.762,-31.250,0.000
1714026521.189,-41.016,-21.484,-24.414,-42.969,0.000
1714026521.193,-45.410,-13.184,-8.301,-50.293,0.000
1714026521.197,-62.500,-23.926,-14.160,-67.871,0.000
1714026521.203,-66.406,-31.250,-30.273,-72.754,0.000
1714026521.207,-55.664,-29.297,-28.320,-71.289,0.000
1714026521.211,-63.477,-27.832,-21.973,-82.520,0.000
1714026521.215,-88.867,-20.996,-19.043,-98.145,0.000
1714026521.219,-104.004,-21.973,-14.160,-105.957,0.000
1714026521.223,-112.793,-27.832,-12.207,-108.887,0.000
1714026521.227,-122.070,-24.414,-4.395,-114.258,0.000
1714026521.230,-126.953,-24.902,14.160,-107.910,0.000
1714026521.234,-128.418,-30.762,13.672,-105.957,0.000
1714026521.238,-120.117,-32.227,5.859,-98.633,0.000
1714026521.242,-109.863,-32.227,12.695,-85.449,0.000
1714026521.246,-101.562,-33.691,15.625,-77.148,0.000
1714026521.250,-84.473,-37.109,18.555,-60.547,0.000
1714026521.254,-79.102,-40.039,21.973,-61.523,0.000
1714026521.258,-83.008,-40.039,23.438,-69.824,0.000
1714026521.262,-65.918,-48.340,19.043,-43.457,0.000
1714026521.266,-43.945,-54.199,3.906,-16.602,0.000
1714026521.270,-34.668,-51.270,-4.883,-14.160,0.000
1714026521.274,-26.367,-55.176,-5.859,-9.766,0.000
1714026521.277,-25.879,-58.105,-6.348,-6.348,0.000
1714026521.281,-16.113,-60.547,-9.766,18.066,0.000
1714026521.285,1.953,-57.617,-9.277,37.109,0.000
1714026521.289,1.465,-55.176,-19.043,29.297,0.000
1714026521.293,11.719,-57.617,-25.391,32.227,0.000
1714026521.296,28.809,-58.105,-22.949,52.246,0.000
1714026521.300,37.598,-52.734,-27.832,56.641,0.000
1714026521.304,44.434,-51.758,-31.250,45.898,0.000
1714026521.308,51.758,-46.875,-33.691,46.387,0.000
1714026521.312,59.082,-44.922,-39.062,56.152,0.000
1714026521.316,67.383,-48.340,-44.434,59.082,0.000
1714026521.320,69.824,-45.410,-39.062,60.059,0.000
1714026521.324,65.918,-44.434,-37.598,71.289,0.000
1714026521.328,69.336,-45.898,-44.434,78.125,0.000
1714026521.332,72.754,-44.922,-40.527,70.801,0.000
1714026521.335,75.684,-41.016,-34.180,75.195,0.000
1714026521.339,70.801,-35.156,-41.504,75.684,0.000
1714026521.341,66.895,-26.367,-46.875,68.359,0.000
1714026521.345,69.336,-28.809,-43.945,74.219,0.000
1714026521.349,60.059,-34.668,-47.852,70.801,0.000
1714026521.353,50.293,-38.086,-45.898,57.129,0.000
1714026521.357,48.828,-43.457,-37.109,57.617,0.000
1714026521.361,42.969,-45.410,-38.574,50.781,0.000
1714026521.365,37.598,-47.363,-43.945,43.945,0.000
1714026521.369,38.574,-46.875,-40.527,46.875,0.000
1714026521.372,35.645,-39.551,-33.691,42.969,0.000
1714026521.376,27.832,-36.133,-41.016,37.598,0.000
1714026521.380,23.438,-33.691,-45.898,36.621,0.000
1714026521.384,22.461,-37.109,-49.316,33.203,0.000
1714026521.387,24.902,-42.969,-56.152,29.785,0.000
1714026521.390,22.949,-40.527,-42.480,25.879,0.000
1714026521.394,19.531,-43.457,-30.762,22.949,0.000
1714026521.398,23.438,-40.527,-29.297,20.020,0.000
1714026521.402,14.648,-38.574,-30.762,10.254,0.000
1714026521.406,8.789,-44.434,-35.156,3.906,0.000
1714026521.410,8.789,-41.992,-39.062,8.301,0.000
1714026521.414,2.930,-40.527,-42.969,10.742,0.000
1714026521.418,10.254,-38.086,-30.762,8.301,0.000
1714026521.422,8.789,-35.645,-34.668,0.488,0.000
1714026521.426,-2.441,-37.598,-43.457,-0.488,0.000
1714026521.430,-2.930,-37.598,-37.598,7.324,0.000
1714026521.432,-5.371,-39.062,-41.504,-0.977,0.000
1714026521.436,-4.883,-40.527,-38.574,-4.395,0.000
1714026521.439,-0.488,-41.992,-34.180,-1.953,0.000
1714026521.443,0.488,-37.109,-39.551,6.348,0.000
1714026521.447,1.465,-33.691,-27.344,3.906,0.000
1714026521.451,-6.836,-39.551,-36.133,-11.230,0.000
1714026521.455,-18.555,-43.945,-57.617,-12.695,0.000
1714026521.459,-17.090,-45.410,-46.387,-7.812,0.000
1714026521.463,-6.348,-39.551,-31.250,-8.301,0.000
1714026521.467,-8.301,-33.203,-35.645,-16.113,0.000
1714026521.471,-16.113,-35.156,-39.062,-20.508,0.000
1714026521.475,-12.695,-39.551,-33.203,-17.578,0.000
1714026521.476,-12.207,-51.270,-33.203,-17.578,0.000
1714026521.480,-14.160,-52.246,-29.297,-16.113,0.000
1714026521.484,-15.137,-39.062,-27.832,-16.113,0.000
1714026521.488,-22.949,-40.039,-32.227,-17.578,0.000
1714026521.492,-27.344,-47.852,-28.320,-17.578,0.000
1714026521.496,-27.344,-50.781,-33.691,-20.020,0.000
1714026521.500,-26.367,-45.410,-43.457,-24.414,0.000
1714026521.504,-28.809,-41.992,-32.227,-24.414,0.000
1714026521.508,-24.902,-43.457,-21.484,-19.043,0.000
1714026521.512,-20.508,-43.945,-22.949,-21.973,0.000
1714026521.516,-20.020,-39.062,-26.367,-34.180,0.000
1714026521.519,-27.344,-38.574,-36.133,-40.527,0.000
1714026521.529,-37.598,-49.805,-44.434,-36.621,0.000
1714026521.533,-34.180,-49.805,-38.086,-25.879,0.000
1714026521.537,-31.250,-41.016,-38.086,-28.320,0.000
1714026521.541,-35.156,-43.945,-42.480,-35.645,0.000
1714026521.545,-32.715,-46.387,-42.969,-28.320,0.000
1714026521.549,-37.109,-48.828,-47.852,-26.855,0.000
1714026521.552,-37.598,-42.969,-41.016,-34.180,0.000
1714026521.556,-31.250,-43.457,-31.250,-37.109,0.000
1714026521.560,-35.156,-57.129,-41.992,-37.109,0.000
1714026521.564,-36.133,-55.664,-49.316,-27.344,0.000
1714026521.568,-35.156,-47.852,-36.133,-29.297,0.000
1714026521.572,-38.086,-46.387,-38.086,-41.016,0.000
1714026521.578,-41.992,-48.828,-47.852,-40.527,0.000
1714026521.582,-40.527,-53.711,-43.457,-34.180,0.000
1714026521.586,-23.926,-51.270,-32.227,-22.949,0.000
1714026521.590,-22.461,-45.410,-37.598,-28.809,0.000
1714026521.594,-38.086,-42.969,-52.734,-44.434,0.000
1714026521.598,-44.434,-43.945,-52.246,-46.387,0.000
1714026521.602,-43.457,-49.805,-46.875,-41.992,0.000
1714026521.606,-35.156,-50.293,-46.387,-34.668,0.000
1714026521.610,-36.621,-48.340,-44.434,-28.809,0.000
1714026521.614,-42.969,-52.734,-42.480,-27.832,0.000
1714026521.618,-40.039,-47.363,-40.527,-29.297,0.000
1714026521.621,-33.203,-43.457,-45.410,-37.109,0.000
1714026521.625,-35.156,-41.504,-48.828,-41.992,0.000
1714026521.629,-36.133,-43.457,-43.457,-39.551,0.000
1714026521.633,-36.621,-41.504,-45.898,-32.227,0.000
1714026521.637,-36.621,-38.086,-60.547,-30.273,0.000
1714026521.641,-31.738,-42.480,-54.199,-34.668,0.000
1714026521.645,-32.227,-49.805,-44.922,-34.668,0.000
1714026521.648,-34.180,-53.223,-43.945,-35.156,0.000
1714026521.652,-36.621,-58.594,-40.527,-41.992,0.000
1714026521.656,-39.062,-59.082,-54.199,-41.016,0.000
1714026521.660,-31.738,-45.898,-54.199,-33.691,0.000
1714026521.664,-28.320,-45.898,-41.504,-26.855,0.000
1714026521.668,-39.551,-54.688,-54.199,-26.855,0.000
