timestamps,TP9,AF7,AF8,TP10,Right AUX
1714025219.231,-21.484,-19.043,-28.320,-12.695,0.000
1714025219.235,-15.137,-8.789,-24.902,-19.043,0.000
1714025219.239,-25.879,-19.043,-32.715,-41.016,0.000
1714025219.243,-32.227,-21.973,-41.016,-39.551,0.000
1714025219.247,-20.508,-19.531,-37.109,-23.438,0.000
1714025219.251,-21.973,-22.461,-33.691,-34.180,0.000
1714025219.255,-26.855,-19.531,-28.809,-39.062,0.000
1714025219.259,-26.855,-23.438,-27.344,-33.691,0.000
1714025219.262,-21.973,-34.668,-24.414,-28.320,0.000
1714025219.266,-23.438,-26.367,-12.207,-18.555,0.000
1714025219.270,-24.414,-20.996,-15.137,-20.508,0.000
1714025219.274,-16.602,-28.320,-24.902,-17.578,0.000
1714025219.278,-17.578,-26.367,-23.438,-20.996,0.000
1714025219.282,-10.742,-22.461,-26.855,-16.602,0.000
1714025219.285,-19.531,-28.809,-31.250,-19.531,0.000
1714025219.289,-32.715,-33.691,-29.297,-31.738,0.000
1714025219.293,-30.273,-28.809,-25.879,-23.438,0.000
1714025219.297,-22.949,-28.809,-20.020,-21.484,0.000
1714025219.301,-18.555,-35.156,-17.090,-33.691,0.000
1714025219.305,-22.461,-27.344,-19.531,-37.109,0.000
1714025219.309,-26.367,-24.414,-19.531,-38.086,0.000
1714025219.313,-34.180,-25.879,-23.438,-41.504,0.000
1714025219.317,-30.762,-18.555,-27.344,-25.391,0.000
1714025219.321,-24.414,-22.461,-25.391,-16.113,0.000
1714025219.324,-30.762,-30.273,-21.484,-28.809,0.000
1714025219.328,-36.133,-27.832,-22.461,-34.180,0.000
1714025219.332,-35.645,-29.785,-23.438,-29.297,0.000
1714025219.336,-36.133,-30.273,-26.367,-34.180,0.000
1714025219.339,-35.156,-27.344,-22.949,-30.762,0.000
1714025219.343,-27.344,-29.785,-19.043,-31.250,0.000
1714025219.347,-27.344,-27.832,-15.625,-25.391,0.000
1714025219.351,-26.367,-25.391,-17.578,-9.277,0.000
1714025219.355,-31.738,-25.391,-21.973,-22.461,0.000
1714025219.359,-28.809,-24.902,-23.438,-30.273,0.000
1714025219.363,-21.973,-27.832,-19.531,-20.508,0.000
1714025219.367,-34.180,-27.344,-20.996,-29.297,0.000
1714025219.370,-34.668,-29.785,-20.020,-48.828,0.000
1714025219.374,-18.066,-21.484,-17.578,-36.621,0.000
1714025219.378,-17.578,-14.160,-20.020,-30.273,0.000
1714025219.382,-24.414,-20.020,-23.438,-23.438,0.000
1714025219.386,-32.715,-25.879,-23.438,-26.855,0.000
1714025219.389,-40.527,-29.297,-22.949,-36.133,0.000
1714025219.393,-34.180,-30.762,-21.973,-18.066,0.000
1714025219.397,-30.762,-32.715,-20.508,-17.090,0.000
1714025219.401,-30.762,-33.203,-21.484,-36.621,0.000
1714025219.405,-26.367,-34.180,-24.902,-41.504,0.000
1714025219.409,-31.738,-32.715,-29.785,-45.410,0.000
1714025219.413,-25.879,-33.203,-29.785,-34.668,0.000
1714025219.419,-31.738,-31.250,-27.832,-28.809,0.000
1714025219.422,-38.574,-29.785,-33.203,-40.039,0.000
1714025219.426,-22.949,-29.785,-28.320,-32.715,0.000
1714025219.430,-20.508,-27.832,-24.414,-20.996,0.000
1714025219.434,-28.809,-24.414,-22.949,-24.414,0.000
1714025219.438,-31.738,-26.855,-26.855,-28.320,0.000
1714025219.442,-30.762,-26.855,-27.832,-17.090,0.000
1714025219.446,-32.715,-29.785,-23.926,-24.414,0.000
1714025219.450,-36.133,-32.227,-29.785,-41.016,0.000
1714025219.454,-31.738,-23.926,-31.250,-35.645,0.000
1714025219.458,-30.273,-20.508,-24.902,-34.180,0.000
1714025219.462,-31.250,-20.996,-20.508,-33.203,0.000
1714025219.464,-32.715,-24.414,-23.926,-30.762,0.000
1714025219.468,-19.043,-23.438,-29.297,-24.414,0.000
1714025219.471,-16.113,-19.043,-33.691,-29.297,0.000
1714025219.475,-20.508,-24.414,-30.762,-30.273,0.000
1714025219.479,-20.996,-24.902,-28.809,-25.391,0.000
1714025219.483,-17.578,-17.090,-30.273,-23.926,0.000
1714025219.487,-13.672,-16.602,-23.438,-24.414,0.000
1714025219.491,-19.531,-12.695,-21.973,-23.926,0.000
1714025219.495,-15.137,-11.230,-26.367,-19.531,0.000
1714025219.499,-21.973,-19.043,-30.273,-17.090,0.000
1714025219.503,-26.367,-20.508,-28.809,-23.926,0.000
1714025219.507,-18.066,-17.578,-21.973,-32.227,0.000
1714025219.512,-16.602,-14.648,-22.461,-28.320,0.000
1714025219.515,-15.137,-19.043,-21.973,-17.578,0.000
1714025219.519,-17.578,-24.902,-18.555,-20.996,0.000
1714025219.523,-20.020,-19.531,-24.902,-33.691,0.000
1714025219.527,-22.949,-20.020,-21.484,-31.738,0.000
1714025219.531,-25.391,-20.996,-23.926,-19.531,0.000
1714025219.535,-29.785,-24.414,-28.320,-24.414,0.000
1714025219.539,-29.785,-25.879,-23.438,-28.809,0.000
1714025219.543,-25.879,-24.414,-27.832,-16.602,0.000
1714025219.547,-26.367,-21.484,-24.414,-10.742,0.000
1714025219.551,-24.414,-19.043,-17.578,-16.602,0.000
1714025219.555,-26.855,-26.855,-24.902,-25.879,0.000
1714025219.559,-29.297,-32.715,-28.320,-33.203,0.000
1714025219.563,-26.367,-23.438,-22.949,-33.691,0.000
1714025219.567,-28.320,-18.555,-26.367,-39.062,0.000
1714025219.571,-26.855,-24.414,-32.227,-38.574,0.000
1714025219.575,-25.391,-20.996,-30.762,-33.691,0.000
1714025219.578,-27.832,-16.113,-28.320,-33.691,0.000
1714025219.582,-30.762,-18.066,-29.785,-32.227,0.000
1714025219.586,-36.133,-24.902,-28.320,-33.691,0.000
1714025219.590,-34.668,-27.344,-30.273,-37.109,0.000
1714025219.594,-25.879,-14.160,-27.344,-29.785,0.000
1714025219.598,-20.508,-15.625,-15.625,-24.902,0.000
1714025219.602,-19.531,-21.484,-10.742,-23.438,0.000
1714025219.606,-25.879,-22.949,-23.438,-28.320,0.000
1714025219.610,-23.926,-28.809,-33.691,-22.949,0.000
1714025219.614,-23.926,-27.344,-28.320,-21.973,0.000
1714025219.617,-31.738,-30.762,-23.926,-25.391,0.000
1714025219.621,-30.762,-32.227,-29.297,-22.461,0.000
1714025219.625,-35.645,-30.273,-35.156,-30.762,0.000
1714025219.629,-43.457,-32.715,-34.180,-41.016,0.000
1714025219.633,-35.645,-26.367,-29.297,-41.992,0.000
1714025219.637,-28.809,-24.414,-27.344,-25.879,0.000
1714025219.641,-33.203,-28.809,-25.879,-23.926,0.000
1714025219.645,-28.809,-25.391,-35.156,-28.809,0.000
1714025219.649,-30.762,-27.344,-41.992,-27.832,0.000
1714025219.652,-36.621,-32.715,-39.062,-36.133,0.000
1714025219.656,-33.691,-27.344,-32.715,-31.738,0.000
1714025219.660,-35.156,-16.113,-29.297,-25.879,0.000
1714025219.664,-31.738,-25.391,-29.785,-22.949,0.000
1714025219.668,-26.367,-31.250,-35.645,-20.508,0.000
1714025219.672,-31.738,-19.531,-35.156,-35.156,0.000
1714025219.676,-36.621,-22.461,-28.320,-33.691,0.000
1714025219.680,-33.691,-28.320,-25.391,-30.273,0.000
1714025219.683,-33.691,-25.391,-24.902,-35.156,0.000
1714025219.687,-36.621,-28.320,-33.203,-39.551,0.000
1714025219.691,-32.715,-26.855,-34.668,-35.645,0.000
1714025219.695,-31.250,-27.832,-25.391,-26.855,0.000
1714025219.699,-30.273,-34.180,-19.531,-35.645,0.000
1714025219.703,-27.832,-29.785,-23.926,-39.551,0.000
1714025219.706,-27.832,-19.531,-27.344,-27.832,0.000
1714025219.710,-30.762,-18.555,-28.809,-31.738,0.000
1714025219.714,-27.344,-22.461,-21.484,-29.297,0.000
1714025219.718,-22.949,-24.902,-16.113,-20.020,0.000
1714025219.722,-30.273,-27.832,-22.461,-32.227,0.000
1714025219.726,-34.668,-30.273,-24.902,-36.621,0.000
1714025219.730,-28.809,-21.484,-27.344,-33.691,0.000
1714025219.734,-26.855,-23.438,-23.926,-40.527,0.000
1714025219.738,-28.320,-29.785,-26.855,-40.527,0.000
1714025219.742,-22.949,-27.832,-32.227,-30.273,0.000
1714025219.745,-13.184,-22.949,-25.879,-28.320,0.000
1714025219.749,-5.859,-21.484,-25.879,-34.668,0.000
1714025219.752,-4.883,-23.926,-32.227,-29.297,0.000
1714025219.756,-1.465,-30.273,-33.691,-28.320,0.000
1714025219.760,-9.277,-32.715,-36.621,-38.086,0.000
1714025219.764,-25.391,-29.785,-31.738,-26.367,0.000
1714025219.768,-16.602,-26.367,-32.227,-14.160,0.000
1714025219.772,-13.672,-17.578,-30.273,-20.020,0.000
1714025219.776,-29.785,-18.066,-24.902,-28.320,0.000
1714025219.780,-24.902,-22.949,-23.926,-19.531,0.000
1714025219.784,-19.043,-22.461,-16.113,-18.066,0.000
1714025219.788,-29.297,-20.020,-17.090,-28.809,0.000
1714025219.790,-30.762,-24.414,-21.973,-27.832,0.000
1714025219.794,-35.156,-29.297,-22.949,-29.785,0.000
1714025219.798,-48.828,-31.738,-23.926,-34.180,0.000
1714025219.802,-48.340,-31.738,-27.832,-42.969,0.000
1714025219.806,-34.668,-33.203,-32.227,-43.457,0.000
1714025219.810,-34.180,-29.785,-27.344,-25.391,0.000
1714025219.814,-29.785,-20.508,-23.926,-18.066,0.000
1714025219.818,-20.508,-23.438,-23.438,-15.625,0.000
1714025219.822,-20.508,-31.250,-21.973,-16.602,0.000
1714025219.826,-36.621,-26.367,-22.461,-29.297,0.000
1714025219.829,-45.410,-23.438,-25.391,-36.621,0.000
1714025219.833,-34.668,-30.273,-30.762,-37.109,0.000
1714025219.836,-45.898,-44.922,-29.785,-39.551,0.000
1714025219.840,-51.270,-45.898,-28.320,-34.668,0.000
1714025219.844,-36.133,-28.809,-21.484,-20.996,0.000
1714025219.848,-38.086,-21.484,-10.254,-27.344,0.000
1714025219.852,-44.922,-28.320,-12.695,-42.969,0.000
1714025219.856,-30.762,-31.250,-15.137,-25.879,0.000
1714025219.859,-27.832,-25.879,-14.648,-22.461,0.000
1714025219.863,-30.273,-21.973,-22.461,-40.039,0.000
1714025219.867,-33.203,-22.461,-23.438,-37.109,0.000
1714025219.871,-30.273,-20.508,-20.996,-29.297,0.000
1714025219.875,-24.414,-31.250,-20.020,-17.578,0.000
1714025219.879,-27.832,-29.785,-15.625,-19.531,0.000
1714025219.884,-27.832,-18.555,-14.648,-25.879,0.000
1714025219.888,-35.645,-24.902,-14.160,-31.250,0.000
1714025219.892,-39.062,-19.531,-16.113,-28.320,0.000
1714025219.896,-32.715,-15.625,-27.344,-31.250,0.000
1714025219.900,-33.691,-19.043,-33.691,-37.598,0.000
1714025219.904,-33.203,-18.066,-35.156,-34.668,0.000
1714025219.908,-37.598,-24.902,-34.180,-41.016,0.000
1714025219.912,-40.527,-24.414,-32.227,-37.109,0.000
1714025219.916,-25.879,-19.043,-31.250,-20.508,0.000
1714025219.920,-21.484,-20.508,-27.344,-12.695,0.000
1714025219.923,-30.762,-25.879,-29.297,-21.973,0.000
1714025219.927,-27.344,-28.809,-31.738,-18.066,0.000
1714025219.932,-26.855,-28.320,-30.273,-16.113,0.000
1714025219.936,-32.715,-29.297,-35.156,-26.367,0.000
1714025219.940,-23.926,-24.902,-35.156,-23.926,0.000
1714025219.944,-20.508,-24.902,-30.762,-24.902,0.000
1714025219.948,-21.973,-25.391,-28.809,-26.367,0.000
1714025219.952,-16.113,-22.949,-26.855,-26.855,0.000
1714025219.956,-19.531,-20.020,-26.855,-29.785,0.000
1714025219.960,-28.320,-20.508,-28.320,-21.973,0.000
1714025219.963,-20.020,-22.949,-18.555,-10.742,0.000
1714025219.967,-20.020,-21.484,-16.113,-17.578,0.000
1714025219.971,-30.762,-25.879,-20.996,-39.551,0.000
1714025219.975,-31.250,-31.738,-23.926,-38.086,0.000
1714025219.982,-28.320,-25.879,-27.832,-32.227,0.000
1714025219.986,-31.738,-28.320,-26.855,-41.016,0.000
1714025219.990,-37.109,-22.461,-30.762,-49.805,0.000
1714025219.994,-36.621,-19.043,-33.691,-48.828,0.000
1714025219.998,-25.879,-23.926,-23.926,-40.039,0.000
1714025220.002,-23.926,-30.762,-24.414,-41.504,0.000
1714025220.006,-25.879,-25.879,-24.902,-41.504,0.000
1714025220.010,-24.902,-25.391,-23.438,-36.621,0.000
1714025220.013,-23.926,-26.367,-27.832,-31.738,0.000
1714025220.017,-23.926,-15.137,-20.996,-31.250,0.000
1714025220.021,-24.414,-19.531,-16.113,-28.320,0.000
1714025220.025,-26.367,-23.438,-20.996,-28.320,0.000
1714025220.029,-24.902,-17.578,-19.531,-28.809,0.000
1714025220.033,-19.043,-16.602,-16.602,-24.902,0.000
1714025220.036,-20.996,-19.043,-13.184,-27.832,0.000
1714025220.040,-26.367,-25.879,-14.160,-38.086,0.000
1714025220.044,-30.762,-34.180,-26.855,-39.551,0.000
1714025220.048,-35.645,-31.738,-34.668,-35.645,0.000
1714025220.052,-32.227,-22.461,-30.273,-38.574,0.000
1714025220.056,-28.809,-15.625,-27.832,-37.598,0.000
1714025220.060,-31.738,-18.555,-31.250,-34.180,0.000
1714025220.064,-30.762,-26.367,-31.738,-31.738,0.000
1714025220.068,-29.785,-24.414,-26.367,-30.762,0.000
1714025220.072,-32.715,-23.926,-27.832,-34.180,0.000
1714025220.077,-34.180,-27.344,-32.715,-37.598,0.000
1714025220.081,-34.180,-30.273,-30.762,-37.598,0.000
1714025220.085,-35.645,-34.180,-32.227,-39.062,0.000
1714025220.089,-31.250,-33.203,-38.086,-44.434,0.000
1714025220.093,-32.715,-28.809,-32.715,-40.527,0.000
1714025220.097,-33.691,-20.996,-25.879,-35.156,0.000
1714025220.101,-26.367,-14.160,-20.020,-28.809,0.000
1714025220.105,-23.926,-16.113,-18.066,-19.531,0.000
1714025220.109,-22.461,-20.996,-20.508,-27.832,0.000
1714025220.113,-28.809,-29.785,-26.367,-39.551,0.000
1714025220.117,-40.039,-31.738,-26.855,-39.062,0.000
1714025220.120,-35.156,-28.320,-18.066,-41.992,0.000
1714025220.123,-26.855,-17.090,-15.137,-43.457,0.000
1714025220.127,-25.879,-19.043,-21.484,-37.598,0.000
1714025220.130,-30.762,-31.250,-24.902,-30.273,0.000
1714025220.134,-23.438,-27.344,-21.484,-30.273,0.000
1714025220.138,-20.508,-22.949,-15.625,-33.691,0.000
1714025220.142,-29.785,-25.879,-20.020,-37.109,0.000
1714025220.146,-32.227,-20.020,-24.902,-33.691,0.000
1714025220.150,-27.344,-19.043,-20.020,-28.320,0.000
1714025220.154,-32.227,-22.461,-19.043,-35.645,0.000
1714025220.158,-36.133,-24.414,-27.832,-35.156,0.000
1714025220.162,-29.785,-26.855,-28.320,-26.367,0.000
1714025220.166,-28.809,-25.879,-19.043,-23.438,0.000
1714025220.168,-31.250,-23.926,-21.484,-29.297,0.000
1714025220.172,-30.273,-20.996,-27.344,-32.715,0.000
1714025220.176,-28.320,-21.973,-20.996,-28.809,0.000
1714025220.179,-28.320,-21.484,-20.508,-37.109,0.000
1714025220.183,-23.438,-17.090,-25.879,-42.480,0.000
1714025220.187,-11.719,-16.602,-24.414,-23.438,0.000
1714025220.191,-16.113,-24.902,-18.555,-8.301,0.000
1714025220.195,-27.344,-28.809,-10.742,-20.020,0.000
1714025220.199,-24.414,-21.973,-13.184,-27.344,0.000
1714025220.203,-25.879,-25.879,-16.602,-21.973,0.000
1714025220.207,-34.668,-31.250,-19.043,-26.367,0.000
1714025220.211,-24.902,-29.785,-18.066,-24.902,0.000
1714025220.216,-23.438,-31.250,-23.926,-24.902,0.000
1714025220.220,-31.250,-31.738,-32.715,-34.180,0.000
1714025220.224,-34.180,-24.414,-23.926,-38.574,0.000
1714025220.228,-30.762,-24.902,-18.555,-35.156,0.000
1714025220.231,-26.367,-30.762,-23.438,-31.738,0.000
1714025220.235,-29.297,-22.949,-30.762,-26.367,0.000
1714025220.239,-30.762,-16.113,-27.832,-29.785,0.000
1714025220.243,-27.832,-23.926,-21.973,-39.062,0.000
1714025220.247,-30.273,-31.250,-31.250,-39.551,0.000
1714025220.251,-27.832,-28.320,-36.621,-30.273,0.000
1714025220.255,-32.715,-26.855,-30.273,-25.879,0.000
1714025220.259,-36.621,-26.855,-34.668,-35.156,0.000
1714025220.263,-33.203,-27.344,-37.109,-38.086,0.000
1714025220.267,-31.250,-21.973,-30.762,-29.297,0.000
1714025220.271,-30.762,-16.602,-27.832,-32.227,0.000
1714025220.275,-26.367,-20.508,-28.809,-28.320,0.000
1714025220.279,-21.973,-28.320,-28.320,-18.555,0.000
1714025220.283,-24.902,-30.273,-26.367,-31.738,0.000
1714025220.287,-22.461,-30.273,-30.273,-30.762,0.000
1714025220.291,-26.367,-33.691,-31.738,-23.438,0.000
1714025220.295,-25.391,-29.785,-29.785,-22.949,0.000
1714025220.299,-18.066,-19.043,-36.621,-22.461,0.000
1714025220.302,-21.484,-19.531,-35.645,-26.367,0.000
1714025220.306,-25.391,-25.391,-34.180,-33.203,0.000
1714025220.310,-32.715,-31.738,-29.785,-30.762,0.000
1714025220.314,-36.621,-35.156,-27.832,-29.785,0.000
1714025220.318,-30.762,-34.668,-29.785,-30.762,0.000
1714025220.322,-29.297,-34.668,-27.832,-31.738,0.000
1714025220.326,-34.668,-36.621,-28.809,-34.180,0.000
1714025220.330,-34.180,-31.250,-33.203,-28.320,0.000
1714025220.334,-28.320,-25.391,-31.738,-34.668,0.000
1714025220.338,-27.832,-25.391,-23.438,-49.805,0.000
1714025220.342,-33.203,-25.391,-26.367,-43.457,0.000
1714025220.345,-32.715,-27.344,-33.691,-36.133,0.000
1714025220.349,-28.320,-31.738,-30.762,-36.621,0.000
1714025220.353,-33.203,-34.668,-31.738,-39.062,0.000
1714025220.357,-29.785,-37.598,-36.133,-48.828,0.000
1714025220.361,-25.879,-27.832,-31.738,-40.039,0.000
1714025220.365,-26.855,-21.973,-27.344,-34.180,0.000
1714025220.369,-25.879,-18.555,-26.855,-35.645,0.000
1714025220.373,-24.902,-16.113,-17.090,-33.691,0.000
1714025220.376,-20.508,-17.578,-19.531,-30.762,0.000
1714025220.380,-20.996,-18.066,-26.367,-27.344,0.000
1714025220.384,-25.879,-23.438,-30.273,-30.762,0.000
1714025220.388,-23.926,-36.621,-28.320,-27.344,0.000
1714025220.392,-21.973,-28.320,-19.043,-28.809,0.000
1714025220.396,-22.461,-18.066,-20.996,-37.598,0.000
1714025220.400,-24.902,-20.020,-19.531,-37.598,0.000
1714025220.403,-23.926,-23.926,-22.949,-25.879,0.000
1714025220.407,-26.367,-28.320,-27.344,-29.297,0.000
1714025220.411,-24.414,-20.996,-23.926,-30.762,0.000
1714025220.415,-19.043,-17.090,-23.926,-19.043,0.000
1714025220.419,-22.461,-19.043,-24.414,-27.832,0.000
1714025220.423,-27.344,-16.602,-25.391,-39.062,0.000
1714025220.427,-27.832,-29.785,-25.879,-35.645,0.000
1714025220.431,-22.949,-31.250,-24.902,-21.973,0.000
1714025220.434,-20.508,-17.578,-23.438,-14.160,0.000
1714025220.438,-22.949,-17.578,-22.949,-26.367,0.000
1714025220.442,-24.902,-21.973,-22.949,-28.809,0.000
1714025220.446,-30.273,-25.879,-21.973,-28.320,0.000
1714025220.449,-25.879,-25.391,-18.555,-35.156,0.000
1714025220.453,-21.484,-22.461,-21.973,-46.387,0.000
1714025220.457,-22.949,-22.949,-30.273,-47.363,0.000
1714025220.461,-18.066,-23.926,-30.762,-36.621,0.000
1714025220.465,-10.742,-25.391,-26.855,-33.203,0.000
1714025220.469,-8.301,-22.949,-29.297,-29.297,0.000
1714025220.473,-16.113,-20.020,-30.273,-22.949,0.000
1714025220.477,-23.438,-30.273,-22.949,-12.207,0.000
1714025220.481,-25.879,-36.133,-20.020,-18.066,0.000
1714025220.485,-33.203,-31.250,-30.273,-31.250,0.000
1714025220.488,-38.086,-26.367,-35.645,-40.527,0.000
1714025220.492,-38.574,-24.414,-30.273,-41.504,0.000
1714025220.495,-42.480,-30.273,-27.344,-28.320,0.000
1714025220.499,-47.852,-34.180,-40.527,-35.156,0.000
1714025220.503,-40.527,-32.227,-47.363,-37.109,0.000
1714025220.507,-35.156,-28.320,-31.250,-20.996,0.000
1714025220.511,-36.133,-30.762,-20.020,-21.973,0.000
1714025220.515,-28.809,-36.133,-26.855,-30.273,0.000
1714025220.519,-23.438,-32.227,-33.203,-27.832,0.000
1714025220.523,-29.785,-29.785,-34.668,-21.973,0.000
1714025220.527,-38.086,-27.344,-35.645,-27.832,0.000
1714025220.531,-33.691,-19.531,-28.809,-25.879,0.000
1714025220.534,-24.414,-13.184,-21.973,-22.461,0.000
1714025220.538,-24.414,-14.160,-19.043,-24.414,0.000
1714025220.541,-30.762,-22.949,-16.602,-26.367,0.000
1714025220.545,-31.738,-29.297,-17.090,-22.461,0.000
1714025220.549,-31.738,-35.156,-23.926,-29.297,0.000
1714025220.553,-40.039,-30.273,-25.879,-34.668,0.000
1714025220.557,-41.504,-24.902,-24.902,-27.344,0.000
1714025220.561,-32.227,-33.691,-29.297,-30.762,0.000
1714025220.565,-33.691,-30.762,-32.227,-32.227,0.000
1714025220.568,-43.945,-20.996,-25.879,-40.527,0.000
1714025220.572,-37.598,-27.832,-18.555,-39.551,0.000
1714025220.576,-30.762,-30.273,-23.926,-26.855,0.000
1714025220.580,-31.250,-20.508,-33.203,-24.902,0.000
1714025220.584,-37.598,-18.066,-37.109,-46.387,0.000
1714025220.587,-33.203,-21.484,-38.086,-45.410,0.000
1714025220.590,-25.879,-21.973,-40.039,-32.715,0.000
1714025220.594,-32.715,-23.438,-31.738,-36.133,0.000
1714025220.598,-31.738,-26.367,-26.855,-41.992,0.000
1714025220.602,-29.785,-26.367,-29.785,-43.945,0.000
1714025220.606,-33.691,-29.785,-31.250,-33.203,0.000
1714025220.610,-32.715,-35.156,-36.133,-30.273,0.000
1714025220.614,-25.391,-27.832,-40.527,-46.387,0.000
1714025220.618,-23.926,-25.391,-37.109,-45.898,0.000
1714025220.622,-29.297,-25.879,-34.180,-36.621,0.000
1714025220.626,-26.367,-24.902,-37.109,-35.645,0.000
1714025220.630,-28.809,-32.715,-30.273,-38.086,0.000
1714025220.635,-23.926,-27.832,-20.996,-36.621,0.000
1714025220.639,-21.484,-22.461,-23.438,-30.273,0.000
1714025220.643,-30.762,-18.066,-24.902,-30.762,0.000
1714025220.647,-22.461,-14.160,-22.461,-28.320,0.000
1714025220.651,-14.648,-22.949,-24.902,-25.391,0.000
1714025220.654,-22.461,-23.926,-31.250,-23.926,0.000
1714025220.658,-26.367,-20.508,-29.785,-27.344,0.000
1714025220.662,-29.297,-26.855,-22.949,-27.832,0.000
1714025220.666,-20.996,-22.949,-19.043,-17.578,0.000
1714025220.670,-17.090,-18.555,-28.320,-18.066,0.000
1714025220.674,-25.879,-28.809,-31.738,-21.484,0.000
1714025220.678,-24.414,-32.715,-29.297,-20.020,0.000
1714025220.683,-22.949,-28.809,-33.691,-30.762,0.000
1714025220.686,-23.926,-27.832,-22.949,-32.227,0.000
1714025220.690,-20.020,-28.320,-15.625,-20.996,0.000
1714025220.694,-20.996,-21.973,-20.020,-22.461,0.000
1714025220.698,-23.438,-23.926,-20.508,-21.973,0.000
1714025220.702,-26.855,-31.250,-24.414,-26.855,0.000
1714025220.706,-25.879,-25.879,-27.344,-28.320,0.000
1714025220.710,-19.043,-17.578,-29.297,-22.461,0.000
1714025220.714,-20.020,-24.902,-28.320,-19.043,0.000
1714025220.718,-24.414,-29.297,-22.461,-20.508,0.000
1714025220.722,-21.973,-18.555,-24.414,-29.297,0.000
1714025220.725,-26.367,-19.531,-23.926,-36.133,0.000
1714025220.730,-32.715,-23.926,-20.508,-34.180,0.000
1714025220.734,-35.645,-28.809,-24.414,-37.109,0.000
1714025220.737,-34.180,-35.156,-23.926,-41.016,0.000
1714025220.741,-36.133,-32.227,-24.414,-41.992,0.000
1714025220.745,-41.016,-31.738,-31.738,-45.898,0.000
1714025220.749,-37.109,-30.762,-36.621,-41.504,0.000
1714025220.753,-36.133,-24.902,-32.715,-42.480,0.000
1714025220.757,-39.551,-22.949,-29.785,-48.340,0.000
1714025220.761,-34.180,-26.367,-31.738,-28.809,0.000
1714025220.765,-36.621,-30.273,-24.902,-30.762,0.000
1714025220.769,-43.945,-34.668,-20.996,-43.945,0.000
1714025220.773,-42.480,-35.645,-29.297,-37.109,0.000
1714025220.776,-35.645,-36.133,-37.109,-34.180,0.000
1714025220.780,-36.621,-35.645,-30.273,-38.086,0.000
1714025220.784,-42.969,-34.668,-25.879,-44.922,0.000
1714025220.788,-41.504,-33.203,-27.344,-44.922,0.000
1714025220.792,-34.668,-29.785,-27.344,-34.668,0.000
1714025220.796,-33.203,-31.250,-20.508,-23.926,0.000
1714025220.800,-34.180,-32.715,-17.090,-35.156,0.000
1714025220.804,-26.367,-32.715,-26.855,-34.668,0.000
1714025220.808,-25.391,-30.762,-30.273,-23.926,0.000
1714025220.812,-27.832,-28.809,-25.879,-17.578,0.000
1714025220.815,-27.832,-31.738,-30.762,-17.090,0.000
1714025220.819,-26.855,-30.273,-38.086,-26.855,0.000
1714025220.823,-26.367,-26.855,-34.180,-24.902,0.000
1714025220.827,-30.762,-34.668,-28.809,-17.578,0.000
1714025220.831,-24.902,-28.320,-33.203,-11.719,0.000
1714025220.834,-21.973,-20.996,-33.203,-27.344,0.000
1714025220.838,-29.297,-26.855,-28.809,-41.016,0.000
1714025220.842,-30.273,-32.227,-31.738,-30.762,0.000
1714025220.846,-19.531,-30.273,-34.668,-21.484,0.000
1714025220.850,-16.602,-26.367,-30.273,-20.996,0.000
1714025220.854,-20.020,-25.391,-20.508,-33.203,0.000
1714025220.858,-19.531,-31.738,-20.996,-37.598,0.000
1714025220.862,-23.926,-27.832,-24.414,-33.691,0.000
1714025220.866,-27.832,-18.555,-24.902,-41.504,0.000
1714025220.869,-21.973,-22.461,-24.902,-32.227,0.000
1714025220.873,-14.160,-28.320,-23.438,-31.738,0.000
1714025220.877,-23.438,-28.320,-17.578,-41.992,0.000
1714025220.881,-24.414,-28.320,-19.043,-28.320,0.000
1714025220.885,-18.066,-22.461,-24.902,-30.273,0.000
1714025220.889,-27.832,-18.066,-29.297,-38.086,0.000
1714025220.892,-30.273,-22.461,-32.715,-27.832,0.000
1714025220.896,-30.273,-23.926,-25.391,-23.438,0.000
1714025220.900,-33.691,-19.531,-22.461,-29.297,0.000
1714025220.904,-33.691,-16.602,-24.902,-37.109,0.000
1714025220.908,-33.203,-20.020,-21.973,-43.945,0.000
1714025220.912,-29.785,-25.879,-18.066,-40.527,0.000
1714025220.915,-32.715,-32.227,-20.996,-36.133,0.000
1714025220.919,-38.574,-35.156,-28.320,-39.062,0.000
1714025220.923,-34.180,-34.180,-31.738,-32.227,0.000
1714025220.927,-31.250,-28.320,-29.785,-28.320,0.000
1714025220.931,-30.273,-25.391,-24.414,-30.762,0.000
1714025220.935,-33.203,-30.273,-31.738,-37.109,0.000
1714025220.938,-29.785,-37.109,-30.273,-29.297,0.000
1714025220.942,-28.320,-33.203,-15.137,-25.879,0.000
1714025220.946,-34.668,-24.902,-28.320,-34.668,0.000
1714025220.950,-32.715,-18.066,-35.645,-33.691,0.000
1714025220.954,-29.785,-17.578,-28.320,-29.785,0.000
1714025220.958,-32.227,-22.461,-27.344,-34.180,0.000
1714025220.961,-36.133,-32.715,-29.785,-37.598,0.000
1714025220.965,-30.762,-37.598,-33.691,-37.598,0.000
1714025220.969,-20.020,-32.227,-32.715,-38.086,0.000
1714025220.972,-23.438,-22.949,-29.785,-35.156,0.000
1714025220.976,-31.738,-17.578,-25.391,-33.691,0.000
1714025220.980,-33.691,-19.531,-21.973,-38.574,0.000
1714025220.984,-41.016,-26.367,-26.855,-43.457,0.000
1714025220.988,-44.434,-25.879,-34.180,-46.875,0.000
1714025220.992,-37.109,-23.438,-33.691,-43.457,0.000
1714025220.996,-34.668,-31.250,-31.738,-32.715,0.000
1714025221.000,-28.809,-24.414,-30.762,-29.297,0.000
1714025221.004,-27.832,-18.066,-29.297,-34.180,0.000
1714025221.009,-28.809,-17.578,-25.879,-29.297,0.000
1714025221.013,-19.043,-19.043,-25.391,-22.461,0.000
1714025221.017,-15.137,-23.926,-30.273,-21.484,0.000
1714025221.021,-34.180,-28.809,-27.832,-25.879,0.000
1714025221.025,-48.828,-30.762,-26.855,-27.832,0.000
1714025221.029,-35.156,-31.738,-27.832,-17.578,0.000
1714025221.033,-25.879,-30.273,-21.484,-20.020,0.000
1714025221.037,-34.668,-23.926,-17.578,-28.809,0.000
1714025221.041,-31.250,-18.555,-20.508,-28.809,0.000
1714025221.045,-28.320,-25.391,-16.602,-26.855,0.000
1714025221.048,-38.086,-29.785,-18.066,-43.945,0.000
1714025221.052,-36.133,-29.785,-28.320,-49.316,0.000
1714025221.057,-31.250,-32.715,-32.227,-40.527,0.000
1714025221.061,-31.738,-23.926,-34.668,-38.086,0.000
1714025221.065,-32.227,-21.484,-28.809,-40.527,0.000
1714025221.069,-37.598,-26.367,-16.113,-46.875,0.000
1714025221.073,-33.691,-29.297,-19.043,-48.340,0.000
1714025221.077,-24.414,-29.297,-20.020,-39.062,0.000
1714025221.081,-26.367,-27.832,-19.531,-30.762,0.000
1714025221.085,-24.414,-27.344,-22.949,-31.250,0.000
1714025221.088,-21.484,-37.109,-30.762,-35.645,0.000
1714025221.092,-28.320,-36.621,-30.762,-34.180,0.000
1714025221.096,-22.461,-20.996,-18.555,-29.785,0.000
1714025221.100,-12.695,-25.879,-18.555,-33.203,0.000
1714025221.105,-18.066,-35.156,-28.320,-35.645,0.000
1714025221.109,-26.855,-37.109,-30.762,-28.809,0.000
1714025221.112,-25.879,-30.273,-24.902,-20.996,0.000
1714025221.116,-19.043,-24.414,-27.344,-21.973,0.000
1714025221.120,-20.996,-24.902,-30.273,-35.156,0.000
1714025221.124,-25.391,-27.344,-26.855,-38.574,0.000
1714025221.128,-19.043,-22.949,-22.949,-32.715,0.000
1714025221.132,-12.207,-17.090,-22.949,-27.344,0.000
1714025221.136,-11.719,-21.973,-27.344,-21.973,0.000
1714025221.140,-27.832,-22.461,-28.320,-28.320,0.000
1714025221.144,-26.855,-21.973,-24.414,-38.086,0.000
1714025221.148,-15.625,-22.949,-28.809,-34.180,0.000
1714025221.152,-18.555,-26.367,-38.574,-33.691,0.000
1714025221.155,-19.531,-26.855,-30.762,-38.574,0.000
1714025221.159,-26.367,-18.066,-27.344,-27.832,0.000
1714025221.163,-32.227,-22.461,-23.926,-20.508,0.000
1714025221.167,-30.273,-33.691,-19.531,-25.879,0.000
1714025221.171,-34.668,-38.086,-29.297,-31.738,0.000
1714025221.175,-39.551,-34.180,-25.879,-26.367,0.000
1714025221.179,-36.133,-25.879,-16.602,-19.531,0.000
1714025221.183,-34.180,-23.438,-12.695,-22.461,0.000
1714025221.187,-31.738,-24.902,-25.879,-31.250,0.000
1714025221.191,-36.133,-24.902,-29.785,-28.320,0.000
1714025221.195,-38.574,-20.996,-26.367,-22.461,0.000
1714025221.198,-31.250,-22.949,-20.508,-26.855,0.000
1714025221.202,-28.320,-28.809,-17.090,-35.645,0.000
1714025221.206,-24.414,-24.414,-26.367,-40.039,0.000
1714025221.210,-27.832,-34.668,-30.273,-29.785,0.000
1714025221.213,-22.461,-34.668,-26.855,-24.414,0.000
1714025221.217,-11.719,-20.508,-12.207,-28.320,0.000
1714025221.221,-19.531,-26.367,-17.090,-43.457,0.000
1714025221.225,-15.625,-23.438,-32.227,-36.133,0.000
1714025221.229,-4.395,-16.602,-32.715,-25.391,0.000
1714025221.233,-17.090,-22.461,-34.668,-28.809,0.000
1714025221.237,-26.855,-30.273,-30.762,-33.691,0.000
1714025221.241,-30.762,-34.180,-26.855,-32.227,0.000
1714025221.244,-34.668,-30.273,-27.344,-33.691,0.000
1714025221.248,-33.203,-27.832,-23.438,-31.250,0.000
1714025221.252,-36.133,-31.250,-23.926,-31.250,0.000
1714025221.256,-37.109,-32.715,-24.902,-32.227,0.000
1714025221.260,-36.621,-27.832,-31.250,-28.320,0.000
1714025221.264,-39.551,-34.668,-41.504,-31.250,0.000
1714025221.268,-40.527,-40.039,-39.551,-25.391,0.000
1714025221.271,-35.645,-24.414,-27.832,-22.949,0.000
1714025221.275,-34.668,-24.414,-23.926,-25.879,0.000
1714025221.279,-38.574,-29.297,-26.367,-26.367,0.000
1714025221.283,-37.598,-37.598,-21.484,-29.297,0.000
1714025221.287,-34.668,-35.156,-17.090,-42.969,0.000
1714025221.290,-32.227,-20.020,-23.926,-45.410,0.000
1714025221.294,-34.668,-21.484,-28.809,-38.574,0.000
1714025221.298,-34.668,-27.344,-37.598,-51.758,0.000
1714025221.302,-31.738,-29.297,-37.109,-54.199,0.000
1714025221.306,-35.156,-26.367,-29.785,-45.898,0.000
1714025221.310,-32.227,-35.156,-27.344,-43.945,0.000
1714025221.313,-29.297,-39.551,-31.250,-30.273,0.000
1714025221.317,-37.598,-31.738,-35.645,-35.645,0.000
1714025221.321,-40.527,-20.996,-30.273,-41.992,0.000
1714025221.325,-38.086,-20.508,-25.879,-40.527,0.000
1714025221.329,-40.039,-33.691,-31.250,-41.016,0.000
1714025221.333,-31.250,-31.250,-34.668,-40.527,0.000
1714025221.336,-31.738,-30.762,-36.621,-47.363,0.000
1714025221.340,-39.062,-33.203,-38.574,-46.875,0.000
1714025221.344,-39.062,-24.902,-38.086,-43.945,0.000
1714025221.347,-36.133,-24.414,-38.086,-45.898,0.000
1714025221.351,-35.645,-31.738,-42.480,-46.387,0.000
1714025221.355,-36.621,-32.715,-47.852,-45.898,0.000
1714025221.359,-33.691,-29.297,-41.504,-35.645,0.000
1714025221.363,-35.156,-31.738,-32.715,-37.109,0.000
1714025221.367,-38.574,-30.762,-35.156,-43.457,0.000
1714025221.371,-36.621,-33.691,-35.156,-35.156,0.000
1714025221.375,-34.180,-28.809,-30.273,-36.133,0.000
1714025221.379,-34.180,-13.184,-21.973,-36.621,0.000
1714025221.384,-33.203,-14.160,-21.484,-37.598,0.000
1714025221.388,-32.715,-22.949,-27.832,-35.645,0.000
1714025221.392,-37.598,-28.320,-22.949,-26.855,0.000
1714025221.396,-37.598,-26.855,-22.461,-31.738,0.000
1714025221.400,-28.320,-24.902,-27.344,-31.250,0.000
1714025221.404,-29.785,-23.926,-23.438,-29.785,0.000
1714025221.408,-34.668,-24.414,-17.578,-29.297,0.000
1714025221.412,-40.527,-26.367,-24.414,-31.738,0.000
1714025221.416,-33.691,-30.273,-23.926,-32.227,0.000
1714025221.419,-27.344,-26.367,-20.508,-23.926,0.000
1714025221.423,-32.715,-20.508,-20.020,-29.297,0.000
1714025221.427,-28.320,-27.832,-20.020,-28.809,0.000
1714025221.432,-31.250,-23.438,-20.996,-28.809,0.000
1714025221.436,-35.156,-14.160,-14.160,-29.785,0.000
1714025221.440,-35.156,-22.461,-15.625,-24.414,0.000
1714025221.444,-31.738,-20.508,-17.090,-28.809,0.000
1714025221.448,-25.879,-21.484,-17.090,-34.668,0.000
1714025221.452,-22.949,-26.367,-28.809,-30.762,0.000
1714025221.455,-21.484,-20.996,-32.715,-32.227,0.000
1714025221.459,-25.879,-22.949,-22.949,-41.504,0.000
1714025221.463,-31.250,-36.133,-22.461,-33.691,0.000
1714025221.467,-32.715,-36.621,-28.809,-34.668,0.000
1714025221.471,-33.691,-19.531,-29.297,-42.969,0.000
1714025221.475,-31.250,-20.996,-33.203,-34.180,0.000
1714025221.479,-27.344,-23.438,-28.320,-27.832,0.000
1714025221.483,-30.273,-18.555,-20.508,-29.297,0.000
1714025221.487,-33.691,-18.066,-19.043,-28.809,0.000
1714025221.491,-26.367,-22.461,-22.461,-22.949,0.000
1714025221.495,-23.438,-25.879,-29.297,-23.926,0.000
1714025221.499,-25.391,-14.160,-28.809,-24.902,0.000
1714025221.503,-24.902,-14.648,-27.344,-23.926,0.000
1714025221.507,-27.344,-18.555,-29.297,-27.832,0.000
1714025221.511,-30.762,-17.090,-29.297,-24.414,0.000
1714025221.514,-25.391,-20.020,-27.832,-26.367,0.000
1714025221.518,-28.809,-23.926,-31.738,-36.133,0.000
1714025221.522,-23.438,-31.250,-39.551,-30.762,0.000
1714025221.526,-7.812,-34.180,-39.551,-17.578,0.000
1714025221.530,-20.508,-36.133,-29.785,-23.438,0.000
1714025221.534,-40.039,-34.180,-26.367,-37.109,0.000
1714025221.538,-43.457,-26.855,-29.785,-42.969,0.000
1714025221.542,-43.945,-25.879,-17.578,-40.039,0.000
1714025221.546,-44.922,-29.297,-11.230,-35.645,0.000
1714025221.550,-49.316,-36.133,-18.066,-41.992,0.000
1714025221.554,-46.875,-35.156,-16.113,-36.133,0.000
1714025221.557,-41.992,-35.645,-19.531,-26.367,0.000
1714025221.561,-42.480,-33.203,-28.809,-32.715,0.000
1714025221.565,-41.504,-24.414,-30.762,-29.785,0.000
1714025221.569,-41.992,-28.809,-33.203,-34.180,0.000
1714025221.573,-37.598,-35.645,-27.832,-37.109,0.000
1714025221.576,-36.133,-33.691,-24.414,-28.320,0.000
1714025221.580,-40.039,-31.738,-27.832,-27.344,0.000
1714025221.584,-33.203,-25.391,-22.461,-26.367,0.000
1714025221.588,-31.738,-27.832,-14.648,-28.809,0.000
1714025221.592,-37.598,-30.273,-16.113,-28.320,0.000
1714025221.596,-35.645,-25.391,-27.832,-25.391,0.000
1714025221.600,-36.133,-34.668,-38.086,-26.367,0.000
1714025221.604,-34.180,-33.691,-26.855,-34.668,0.000
1714025221.608,-38.086,-23.926,-22.949,-40.527,0.000
1714025221.612,-37.598,-27.832,-28.320,-35.645,0.000
1714025221.616,-29.297,-20.508,-21.484,-27.344,0.000
1714025221.619,-20.020,-15.137,-21.973,-30.273,0.000
1714025221.623,-18.555,-25.391,-23.926,-34.668,0.000
1714025221.627,-21.973,-25.879,-21.484,-27.344,0.000
1714025221.630,-22.949,-19.043,-27.832,-31.250,0.000
1714025221.634,-24.414,-22.949,-30.762,-42.969,0.000
1714025221.638,-31.250,-28.809,-33.203,-40.039,0.000
1714025221.642,-37.109,-29.297,-39.551,-28.809,0.000
1714025221.646,-38.086,-27.832,-39.062,-21.484,0.000
1714025221.650,-35.156,-25.879,-29.785,-26.367,0.000
1714025221.654,-34.668,-29.785,-29.785,-32.715,0.000
1714025221.658,-32.227,-24.902,-37.109,-32.227,0.000
1714025221.662,-26.855,-18.066,-30.762,-14.160,0.000
1714025221.665,-23.926,-18.066,-23.438,-13.672,0.000
1714025221.669,-20.996,-24.414,-31.738,-26.367,0.000
1714025221.673,-22.461,-29.297,-39.551,-25.391,0.000
1714025221.676,-23.926,-28.809,-42.480,-21.484,0.000
1714025221.680,-22.461,-31.738,-29.297,-28.320,0.000
1714025221.684,-14.160,-33.203,-21.973,-24.414,0.000
1714025221.688,-21.484,-24.414,-27.344,-23.926,0.000
1714025221.692,-37.109,-15.137,-19.531,-28.320,0.000
1714025221.696,-31.738,-15.137,-13.184,-27.344,0.000
1714025221.700,-23.926,-13.672,-15.137,-28.320,0.000
1714025221.704,-23.926,-18.066,-20.508,-33.691,0.000
1714025221.708,-26.367,-26.855,-22.949,-35.156,0.000
1714025221.713,-26.855,-21.484,-21.484,-31.250,0.000
1714025221.717,-27.344,-20.508,-25.879,-35.645,0.000
1714025221.721,-28.809,-23.926,-25.879,-39.551,0.000
1714025221.725,-37.598,-30.762,-24.414,-34.668,0.000
1714025221.729,-33.203,-29.297,-17.578,-24.414,0.000
1714025221.733,-28.320,-29.297,-20.020,-14.160,0.000
1714025221.737,-29.297,-27.344,-28.320,-12.695,0.000
1714025221.741,-28.320,-20.020,-27.344,-15.137,0.000
1714025221.745,-27.832,-31.738,-29.785,-17.090,0.000
1714025221.749,-24.902,-31.738,-27.832,-22.461,0.000
1714025221.753,-26.855,-17.578,-24.414,-33.203,0.000
1714025221.756,-36.133,-20.020,-27.832,-38.086,0.000
1714025221.761,-33.691,-29.297,-25.879,-31.738,0.000
1714025221.765,-28.809,-35.645,-24.414,-33.203,0.000
1714025221.769,-25.391,-21.973,-25.391,-36.621,0.000
1714025221.773,-20.996,-16.113,-26.855,-28.809,0.000
1714025221.777,-19.043,-21.484,-30.273,-28.809,0.000
1714025221.781,-16.602,-20.020,-27.832,-24.414,0.000
1714025221.785,-16.602,-24.902,-30.273,-36.133,0.000
1714025221.789,-19.043,-32.227,-35.156,-50.781,0.000
1714025221.793,-19.043,-28.809,-34.180,-39.062,0.000
1714025221.797,-23.438,-32.715,-34.668,-34.180,0.000
1714025221.801,-28.320,-36.133,-36.621,-45.898,0.000
1714025221.804,-30.762,-29.785,-29.785,-45.898,0.000
1714025221.809,-29.785,-23.438,-21.973,-37.598,0.000
1714025221.813,-27.832,-23.438,-26.367,-35.645,0.000
1714025221.817,-24.902,-23.926,-24.902,-36.133,0.000
1714025221.821,-25.879,-25.879,-23.926,-33.691,0.000
1714025221.825,-32.715,-32.227,-37.109,-39.062,0.000
1714025221.829,-39.551,-32.715,-41.992,-46.387,0.000
1714025221.832,-40.527,-24.902,-44.922,-44.434,0.000
1714025221.836,-39.062,-25.879,-52.734,-49.805,0.000
1714025221.840,-36.621,-31.738,-41.992,-42.480,0.000
1714025221.844,-36.133,-25.391,-21.484,-28.320,0.000
1714025221.848,-38.086,-25.879,-18.066,-26.855,0.000
1714025221.852,-35.645,-28.809,-24.902,-34.668,0.000
1714025221.856,-31.250,-30.762,-22.949,-34.180,0.000
1714025221.860,-27.832,-28.809,-22.461,-27.344,0.000
1714025221.864,-34.180,-15.625,-32.715,-30.762,0.000
1714025221.868,-36.133,-13.184,-38.086,-32.715,0.000
1714025221.872,-33.203,-19.043,-34.668,-26.367,0.000
1714025221.875,-31.738,-22.949,-28.320,-22.461,0.000
1714025221.879,-22.949,-19.043,-23.438,-19.531,0.000
1714025221.883,-23.926,-20.996,-30.273,-30.273,0.000
1714025221.887,-32.715,-27.344,-38.086,-33.203,0.000
1714025221.891,-35.645,-23.926,-32.715,-37.109,0.000
1714025221.895,-32.715,-27.832,-29.297,-45.898,0.000
1714025221.899,-28.320,-29.297,-30.273,-45.410,0.000
1714025221.902,-28.809,-26.367,-27.344,-32.227,0.000
1714025221.906,-31.738,-24.414,-30.273,-24.902,0.000
1714025221.910,-31.250,-27.344,-22.461,-25.879,0.000
1714025221.914,-15.625,-33.691,-20.020,-11.719,0.000
1714025221.918,-2.930,-33.203,-26.855,-7.324,0.000
1714025221.922,-12.695,-27.344,-28.809,-26.855,0.000
1714025221.926,-20.020,-15.625,-25.391,-41.504,0.000
1714025221.930,-18.555,-14.160,-26.367,-40.039,0.000
1714025221.934,-15.137,-23.438,-32.715,-42.480,0.000
1714025221.937,-21.484,-23.926,-35.645,-53.223,0.000
1714025221.941,-29.785,-17.578,-39.062,-47.852,0.000
1714025221.945,-27.344,-17.578,-28.809,-34.180,0.000
1714025221.949,-28.809,-17.578,-29.785,-38.574,0.000
1714025221.953,-24.902,-18.555,-38.574,-42.969,0.000
1714025221.956,-17.090,-18.555,-28.320,-31.250,0.000
1714025221.960,-17.090,-19.043,-28.809,-25.879,0.000
1714025221.964,-16.602,-19.531,-26.855,-26.367,0.000
1714025221.968,-20.508,-18.066,-25.391,-31.250,0.000
1714025221.972,-26.855,-21.484,-30.762,-31.250,0.000
1714025221.976,-33.203,-24.902,-30.273,-21.973,0.000
1714025221.980,-37.598,-29.785,-28.809,-20.508,0.000
1714025221.984,-29.297,-20.020,-31.738,-24.414,0.000
1714025221.988,-26.855,-6.348,-30.273,-26.367,0.000
1714025221.992,-28.809,-14.648,-32.227,-30.762,0.000
1714025221.994,-33.203,-31.250,-30.762,-27.832,0.000
1714025221.998,-40.039,-22.461,-26.367,-21.973,0.000
1714025222.002,-29.785,-19.043,-30.273,-27.832,0.000
1714025222.006,-28.809,-33.691,-33.203,-32.227,0.000
1714025222.010,-32.227,-23.438,-34.668,-30.762,0.000
1714025222.014,-23.926,-17.578,-32.715,-31.250,0.000
1714025222.018,-27.832,-22.461,-29.785,-30.762,0.000
1714025222.022,-35.645,-25.391,-26.855,-29.297,0.000
1714025222.026,-30.273,-23.438,-24.902,-23.438,0.000
1714025222.030,-27.344,-29.297,-28.320,-21.973,0.000
1714025222.034,-33.203,-34.668,-26.855,-29.785,0.000
1714025222.037,-29.297,-35.156,-24.902,-30.762,0.000
1714025222.040,-25.879,-37.109,-20.996,-25.879,0.000
1714025222.044,-29.785,-36.133,-24.902,-26.367,0.000
1714025222.048,-30.273,-36.133,-30.273,-38.086,0.000
1714025222.052,-28.320,-41.016,-26.855,-34.180,0.000
1714025222.056,-24.414,-30.762,-26.367,-26.367,0.000
1714025222.060,-21.484,-19.043,-22.949,-22.461,0.000
1714025222.064,-19.043,-19.043,-16.113,-11.719,0.000
1714025222.068,-24.414,-19.043,-10.254,-27.344,0.000
1714025222.072,-28.809,-15.137,-15.625,-37.109,0.000
1714025222.075,-27.832,-25.391,-26.855,-33.203,0.000
1714025222.079,-31.250,-27.344,-32.227,-35.156,0.000
1714025222.083,-29.297,-18.066,-30.273,-37.598,0.000
1714025222.086,-28.320,-23.926,-26.367,-39.062,0.000
1714025222.090,-30.273,-29.785,-25.879,-34.668,0.000
1714025222.094,-31.250,-25.391,-27.832,-29.785,0.000
1714025222.098,-32.715,-20.020,-27.832,-35.156,0.000
1714025222.101,-31.250,-18.066,-17.090,-41.016,0.000
1714025222.105,-29.785,-33.691,-8.789,-33.691,0.000
1714025222.109,-26.855,-38.086,-16.602,-27.832,0.000
1714025222.113,-34.668,-20.996,-34.180,-33.691,0.000
1714025222.117,-35.645,-17.578,-32.227,-35.156,0.000
1714025222.121,-25.879,-20.020,-24.902,-21.484,0.000
1714025222.125,-28.809,-26.367,-27.832,-19.531,0.000
1714025222.129,-29.785,-29.785,-24.902,-28.320,0.000
1714025222.135,-25.391,-25.391,-27.832,-25.879,0.000
1714025222.138,-28.320,-23.438,-34.668,-29.297,0.000
1714025222.142,-30.273,-24.414,-29.297,-30.762,0.000
1714025222.146,-30.762,-22.461,-28.320,-31.738,0.000
1714025222.150,-34.668,-30.273,-32.715,-41.016,0.000
1714025222.154,-29.785,-38.574,-29.785,-35.156,0.000
1714025222.158,-28.809,-29.785,-25.879,-25.391,0.000
1714025222.162,-29.785,-20.508,-26.367,-33.203,0.000
1714025222.166,-27.832,-21.484,-19.043,-43.945,0.000
1714025222.170,-29.297,-20.508,-12.207,-39.062,0.000
1714025222.174,-30.273,-17.090,-13.184,-33.691,0.000
1714025222.178,-33.203,-22.461,-23.926,-27.344,0.000
1714025222.182,-23.438,-23.926,-25.391,-23.926,0.000
1714025222.186,-21.484,-22.461,-21.973,-30.273,0.000
1714025222.190,-30.762,-22.461,-22.461,-31.738,0.000
1714025222.194,-33.691,-31.738,-20.508,-27.832,0.000
1714025222.198,-28.320,-31.250,-24.902,-20.508,0.000
1714025222.202,-26.367,-22.461,-31.738,-24.414,0.000
1714025222.206,-26.367,-17.090,-30.762,-35.156,0.000
1714025222.210,-22.461,-22.461,-23.926,-31.738,0.000
1714025222.214,-27.344,-37.109,-28.809,-16.602,0.000
1714025222.218,-29.297,-35.156,-30.273,-12.695,0.000
1714025222.221,-27.344,-26.367,-26.855,-24.414,0.000
1714025222.225,-32.227,-21.484,-22.949,-27.832,0.000
1714025222.229,-30.273,-28.809,-19.531,-22.461,0.000
1714025222.233,-25.879,-38.574,-20.020,-25.879,0.000
1714025222.237,-23.438,-24.902,-20.996,-31.738,0.000
1714025222.241,-28.809,-19.531,-17.578,-31.738,0.000
1714025222.245,-37.598,-30.273,-22.949,-39.062,0.000
1714025222.249,-39.551,-26.367,-35.645,-46.875,0.000
1714025222.253,-38.574,-33.691,-29.297,-49.805,0.000
1714025222.257,-39.062,-36.621,-27.344,-42.480,0.000
1714025222.261,-31.250,-21.484,-32.715,-19.531,0.000
1714025222.265,-34.668,-18.066,-22.461,-30.762,0.000
1714025222.269,-42.969,-23.926,-25.391,-41.504,0.000
1714025222.272,-36.621,-20.996,-35.645,-29.297,0.000
1714025222.276,-35.156,-26.367,-24.902,-25.879,0.000
1714025222.280,-31.250,-35.156,-18.066,-27.832,0.000
1714025222.284,-34.180,-35.156,-25.391,-35.645,0.000
1714025222.288,-46.875,-33.691,-29.297,-42.480,0.000
1714025222.292,-41.016,-32.227,-25.391,-35.156,0.000
1714025222.296,-33.691,-28.809,-25.879,-26.367,0.000
1714025222.300,-31.250,-27.344,-24.902,-29.785,0.000
1714025222.304,-29.297,-29.297,-25.391,-27.344,0.000
1714025222.308,-30.273,-36.133,-26.855,-26.855,0.000
1714025222.311,-31.738,-30.762,-19.531,-24.902,0.000
1714025222.315,-30.273,-20.020,-23.438,-25.879,0.000
1714025222.319,-34.180,-27.832,-29.297,-34.668,0.000
1714025222.323,-40.039,-34.180,-28.809,-32.227,0.000
1714025222.327,-33.691,-33.691,-25.391,-28.320,0.000
1714025222.330,-28.320,-24.414,-24.902,-37.109,0.000
1714025222.334,-31.738,-13.672,-21.484,-38.574,0.000
1714025222.338,-39.551,-21.484,-22.949,-40.527,0.000
1714025222.342,-40.039,-33.203,-27.832,-43.457,0.000
1714025222.346,-27.832,-36.621,-24.902,-32.227,0.000
1714025222.350,-27.832,-25.391,-21.973,-27.344,0.000
1714025222.354,-33.203,-19.531,-27.832,-37.109,0.000
1714025222.358,-29.785,-32.227,-32.227,-38.574,0.000
1714025222.362,-29.785,-33.691,-23.926,-35.645,0.000
1714025222.366,-32.715,-20.020,-24.902,-37.598,0.000
1714025222.369,-30.273,-18.555,-21.973,-37.109,0.000
1714025222.373,-29.297,-29.785,-20.996,-29.785,0.000
1714025222.377,-29.297,-26.367,-29.297,-31.738,0.000
1714025222.380,-31.250,-19.043,-28.809,-35.156,0.000
1714025222.384,-31.738,-20.996,-28.320,-28.809,0.000
1714025222.388,-34.180,-18.555,-33.691,-28.320,0.000
1714025222.392,-31.738,-16.602,-38.574,-22.949,0.000
1714025222.396,-28.320,-24.414,-35.645,-23.926,0.000
1714025222.400,-24.902,-23.438,-29.785,-31.250,0.000
1714025222.404,-25.879,-29.297,-26.855,-25.391,0.000
1714025222.408,-29.785,-37.598,-27.344,-27.344,0.000
1714025222.412,-31.250,-28.320,-32.715,-36.133,0.000
1714025222.415,-31.250,-29.785,-33.203,-41.992,0.000
1714025222.419,-24.902,-28.320,-32.227,-41.992,0.000
1714025222.422,-21.973,-23.926,-30.273,-34.180,0.000
1714025222.426,-25.391,-24.902,-30.273,-32.715,0.000
1714025222.430,-33.203,-22.949,-33.691,-36.621,0.000
1714025222.434,-35.645,-22.461,-35.156,-34.668,0.000
1714025222.438,-25.879,-23.926,-27.832,-22.949,0.000
1714025222.442,-18.555,-27.344,-20.508,-25.879,0.000
1714025222.446,-15.625,-25.879,-22.949,-34.180,0.000
1714025222.450,-23.438,-28.809,-25.879,-32.715,0.000
1714025222.454,-30.273,-30.762,-31.250,-28.320,0.000
1714025222.458,-31.250,-21.484,-34.180,-30.762,0.000
1714025222.460,-26.855,-21.484,-29.297,-24.902,0.000
1714025222.464,-13.184,-20.508,-24.902,-20.996,0.000
1714025222.468,-14.648,-27.344,-16.113,-35.156,0.000
1714025222.472,-23.438,-33.691,-13.672,-41.992,0.000
1714025222.476,-27.832,-28.320,-29.297,-35.645,0.000
1714025222.480,-23.926,-25.391,-28.809,-29.785,0.000
1714025222.484,-23.438,-22.461,-19.531,-28.320,0.000
1714025222.488,-20.996,-23.438,-21.973,-15.625,0.000
1714025222.492,-19.531,-29.785,-21.973,-12.207,0.000
1714025222.495,-24.902,-24.414,-27.344,-23.926,0.000
1714025222.499,-29.297,-22.949,-26.855,-31.738,0.000
1714025222.503,-27.832,-22.949,-15.137,-33.691,0.000
1714025222.509,-28.320,-24.414,-19.531,-29.297,0.000
1714025222.513,-31.250,-29.785,-29.785,-25.879,0.000
1714025222.517,-34.668,-31.738,-26.855,-22.461,0.000
1714025222.521,-34.668,-27.344,-27.832,-22.461,0.000
1714025222.525,-34.180,-27.344,-29.297,-20.996,0.000
1714025222.529,-33.203,-29.297,-26.367,-20.020,0.000
1714025222.532,-32.715,-27.832,-25.879,-31.250,0.000
1714025222.536,-28.320,-19.531,-21.484,-25.391,0.000
1714025222.540,-20.020,-23.926,-23.438,-16.113,0.000
1714025222.544,-19.531,-32.715,-30.273,-14.160,0.000
1714025222.548,-24.414,-22.461,-26.367,-19.531,0.000
1714025222.552,-30.273,-17.090,-20.996,-32.715,0.000
1714025222.557,-30.762,-22.949,-25.391,-36.133,0.000
1714025222.561,-30.762,-23.438,-24.902,-33.203,0.000
1714025222.565,-32.715,-26.367,-19.531,-29.785,0.000
1714025222.569,-25.879,-23.926,-20.996,-31.250,0.000
1714025222.573,-24.902,-16.602,-21.973,-34.180,0.000
1714025222.577,-30.273,-16.602,-22.949,-28.809,0.000
1714025222.581,-28.320,-16.113,-23.438,-25.391,0.000
1714025222.584,-28.320,-18.555,-20.020,-31.738,0.000
1714025222.588,-32.715,-25.391,-24.414,-41.504,0.000
1714025222.592,-34.180,-27.832,-25.879,-44.434,0.000
1714025222.596,-24.902,-25.879,-20.508,-32.715,0.000
1714025222.600,-15.625,-21.484,-25.391,-38.086,0.000
1714025222.604,-11.719,-23.438,-29.297,-48.340,0.000
1714025222.608,-1.465,-29.297,-28.809,-43.457,0.000
1714025222.612,0.000,-23.926,-31.250,-39.551,0.000
1714025222.616,-7.324,-28.809,-26.855,-34.668,0.000
1714025222.620,-16.113,-28.809,-22.949,-35.645,0.000
1714025222.624,-22.949,-22.461,-27.344,-31.738,0.000
1714025222.628,-28.809,-29.297,-27.344,-30.273,0.000
1714025222.632,-30.762,-32.227,-28.320,-26.367,0.000
1714025222.636,-30.762,-29.297,-28.320,-15.137,0.000
1714025222.640,-35.645,-24.414,-22.461,-24.414,0.000
1714025222.643,-34.668,-31.738,-18.555,-29.785,0.000
1714025222.647,-34.180,-29.785,-16.602,-26.855,0.000
1714025222.651,-32.715,-24.902,-24.414,-37.598,0.000
1714025222.655,-30.273,-25.879,-31.250,-41.504,0.000
1714025222.659,-34.668,-24.902,-28.809,-38.086,0.000
1714025222.663,-31.250,-21.973,-26.855,-35.156,0.000
1714025222.667,-26.367,-21.973,-30.273,-29.785,0.000
1714025222.671,-28.809,-38.086,-28.320,-34.668,0.000
1714025222.675,-30.762,-32.227,-26.367,-35.156,0.000
1714025222.678,-33.203,-30.273,-27.344,-35.645,0.000
1714025222.682,-40.527,-36.133,-19.043,-33.203,0.000
1714025222.686,-43.457,-33.691,-22.461,-40.527,0.000
1714025222.690,-38.574,-28.320,-27.344,-41.016,0.000
1714025222.694,-38.574,-29.785,-29.297,-32.227,0.000
1714025222.697,-28.809,-31.738,-34.180,-30.762,0.000
1714025222.701,-14.160,-25.391,-38.086,-24.414,0.000
1714025222.705,-22.461,-27.832,-33.203,-25.879,0.000
1714025222.709,-49.316,-36.621,-20.996,-35.156,0.000
1714025222.713,-45.898,-32.715,-21.973,-36.133,0.000
1714025222.717,-35.156,-27.832,-19.531,-29.297,0.000
1714025222.721,-39.551,-29.785,-13.672,-31.250,0.000
1714025222.725,-36.133,-28.320,-22.461,-23.926,0.000
1714025222.729,-32.715,-26.855,-22.461,-20.508,0.000
1714025222.733,-36.133,-26.855,-20.508,-32.227,0.000
1714025222.737,-33.691,-30.273,-26.855,-34.180,0.000
1714025222.740,-31.738,-34.668,-30.762,-24.414,0.000
1714025222.744,-32.227,-38.086,-25.391,-18.555,0.000
1714025222.747,-28.809,-31.738,-25.391,-26.855,0.000
1714025222.751,-34.668,-25.391,-23.926,-34.180,0.000
1714025222.755,-34.668,-18.066,-18.066,-28.809,0.000
1714025222.759,-33.691,-22.461,-24.414,-28.320,0.000
1714025222.763,-37.598,-30.273,-24.902,-32.715,0.000
1714025222.767,-38.086,-25.391,-25.879,-34.668,0.000
1714025222.771,-35.156,-24.414,-30.762,-30.762,0.000
1714025222.775,-27.344,-18.555,-20.996,-24.414,0.000
1714025222.779,-21.484,-18.066,-13.672,-22.949,0.000
1714025222.783,-18.555,-20.996,-14.648,-18.066,0.000
1714025222.786,-20.020,-20.996,-17.090,-23.926,0.000
1714025222.790,-25.391,-26.855,-24.902,-31.738,0.000
1714025222.794,-20.996,-25.879,-28.809,-23.926,0.000
1714025222.797,-18.555,-20.996,-24.414,-29.785,0.000
1714025222.801,-19.531,-21.973,-19.043,-38.086,0.000
1714025222.805,-19.043,-25.391,-19.531,-30.273,0.000
1714025222.809,-14.160,-33.691,-22.949,-22.461,0.000
1714025222.813,-14.160,-35.156,-26.367,-19.043,0.000
1714025222.817,-19.531,-28.809,-28.320,-29.785,0.000
1714025222.821,-16.113,-31.250,-27.344,-34.180,0.000
1714025222.825,-11.230,-29.297,-23.438,-25.391,0.000
1714025222.829,-11.719,-19.531,-20.508,-27.832,0.000
1714025222.833,-17.578,-26.367,-24.902,-29.297,0.000
1714025222.835,-19.531,-34.668,-28.809,-28.320,0.000
1714025222.839,-20.996,-26.367,-27.832,-27.344,0.000
1714025222.843,-21.484,-23.438,-28.320,-26.855,0.000
1714025222.847,-25.879,-29.785,-25.391,-33.691,0.000
1714025222.851,-34.180,-22.949,-24.902,-49.316,0.000
1714025222.855,-30.762,-19.043,-22.949,-48.828,0.000
1714025222.859,-23.926,-20.508,-15.625,-33.691,0.000
1714025222.863,-24.414,-17.090,-18.066,-30.762,0.000
1714025222.867,-35.645,-20.508,-33.691,-41.016,0.000
1714025222.871,-32.715,-21.484,-33.691,-28.320,0.000
1714025222.874,-21.484,-27.832,-27.344,-20.508,0.000
1714025222.878,-29.297,-28.809,-30.273,-32.227,0.000
1714025222.884,-32.715,-20.020,-31.250,-33.203,0.000
1714025222.888,-25.879,-18.555,-23.926,-27.344,0.000
1714025222.892,-26.367,-20.020,-18.555,-25.391,0.000
1714025222.896,-30.273,-31.738,-20.020,-24.414,0.000
1714025222.900,-34.668,-32.715,-23.926,-20.996,0.000
1714025222.904,-39.551,-28.809,-34.180,-20.996,0.000
1714025222.907,-37.109,-37.598,-34.180,-22.461,0.000
1714025222.911,-36.133,-31.738,-26.855,-26.367,0.000
1714025222.915,-38.086,-23.926,-27.832,-32.715,0.000
1714025222.919,-36.133,-29.785,-27.832,-27.832,0.000
1714025222.923,-33.691,-26.855,-20.508,-21.484,0.000
1714025222.927,-28.320,-23.438,-21.973,-20.020,0.000
1714025222.932,-22.949,-31.738,-30.273,-20.996,0.000
1714025222.936,-27.344,-30.762,-34.180,-27.344,0.000
1714025222.940,-27.832,-26.367,-30.273,-24.414,0.000
1714025222.944,-26.855,-30.762,-29.297,-22.461,0.000
1714025222.948,-30.273,-34.668,-33.203,-28.320,0.000
1714025222.952,-16.113,-20.508,-28.320,-17.090,0.000
1714025222.955,-3.906,-14.648,-27.344,-12.695,0.000
1714025222.959,-14.648,-20.020,-28.809,-27.832,0.000
1714025222.963,-26.855,-16.602,-29.785,-36.621,0.000
1714025222.967,-28.809,-21.484,-36.621,-34.180,0.000
1714025222.971,-28.320,-31.250,-42.969,-34.180,0.000
1714025222.975,-26.855,-23.438,-48.828,-35.645,0.000
1714025222.980,-27.832,-20.020,-41.504,-32.227,0.000
1714025222.983,-28.809,-20.020,-32.227,-36.133,0.000
1714025222.987,-28.809,-20.996,-32.715,-36.621,0.000
1714025222.991,-26.367,-30.762,-31.250,-32.227,0.000
1714025222.995,-21.484,-27.344,-20.508,-32.715,0.000
1714025222.999,-20.996,-19.531,-20.508,-31.738,0.000
1714025223.003,-22.949,-18.066,-31.738,-32.227,0.000
1714025223.007,-29.297,-22.949,-33.691,-31.738,0.000
1714025223.011,-32.227,-28.320,-31.738,-21.484,0.000
1714025223.015,-28.320,-24.902,-29.297,-25.391,0.000
1714025223.019,-29.297,-30.273,-27.344,-34.180,0.000
1714025223.022,-31.738,-28.320,-29.785,-30.762,0.000
1714025223.026,-30.273,-23.438,-27.344,-29.785,0.000
1714025223.030,-24.414,-22.949,-24.902,-30.273,0.000
1714025223.034,-29.785,-25.391,-30.762,-30.762,0.000
1714025223.038,-40.527,-37.109,-31.738,-40.527,0.000
1714025223.042,-36.621,-26.367,-31.738,-39.551,0.000
1714025223.046,-34.180,-13.672,-26.855,-29.297,0.000
1714025223.050,-37.109,-17.578,-21.973,-37.598,0.000
1714025223.054,-34.668,-19.043,-24.902,-30.762,0.000
1714025223.057,-27.832,-20.020,-23.438,-21.484,0.000
1714025223.061,-25.391,-19.043,-16.602,-28.809,0.000
1714025223.065,-23.926,-26.855,-18.555,-28.320,0.000
1714025223.069,-20.020,-33.203,-25.879,-29.297,0.000
1714025223.073,-21.484,-31.250,-31.738,-31.250,0.000
1714025223.077,-28.809,-26.855,-29.297,-29.785,0.000
1714025223.080,-23.926,-23.926,-28.320,-27.344,0.000
1714025223.084,-25.391,-27.832,-27.344,-28.320,0.000
1714025223.088,-30.762,-30.762,-23.926,-32.715,0.000
1714025223.092,-22.461,-25.391,-24.414,-20.020,0.000
1714025223.096,-21.973,-24.902,-30.762,-6.836,0.000
1714025223.100,-21.484,-24.414,-33.203,-13.672,0.000
1714025223.104,-22.461,-23.438,-28.320,-25.391,0.000
1714025223.108,-26.367,-27.832,-20.996,-23.926,0.000
1714025223.112,-24.902,-23.926,-19.531,-33.691,0.000
1714025223.116,-31.738,-25.391,-24.414,-42.480,0.000
1714025223.119,-33.203,-22.949,-25.879,-38.574,0.000
1714025223.123,-22.949,-17.578,-25.391,-36.133,0.000
1714025223.126,-24.414,-21.973,-18.066,-29.785,0.000
1714025223.130,-24.902,-34.180,-17.578,-31.250,0.000
1714025223.134,-22.949,-37.109,-27.832,-41.016,0.000
1714025223.138,-24.414,-27.832,-25.391,-33.203,0.000
1714025223.142,-24.902,-30.762,-27.344,-23.926,0.000
1714025223.146,-25.391,-38.086,-35.645,-19.043,0.000
1714025223.150,-21.973,-34.668,-22.461,-25.391,0.000
1714025223.154,-22.461,-27.832,-14.648,-35.645,0.000
1714025223.158,-24.414,-18.066,-25.879,-28.320,0.000
1714025223.162,-29.297,-25.391,-24.414,-33.203,0.000
1714025223.165,-28.320,-33.203,-23.438,-41.016,0.000
1714025223.168,-25.879,-26.855,-30.762,-39.551,0.000
1714025223.172,-29.785,-20.996,-30.273,-38.574,0.000
1714025223.176,-32.227,-23.926,-29.785,-34.668,0.000
1714025223.180,-31.250,-27.344,-32.715,-31.738,0.000
1714025223.184,-20.996,-20.508,-29.785,-22.461,0.000
1714025223.188,-20.020,-15.625,-22.461,-14.160,0.000
1714025223.192,-27.344,-25.391,-21.973,-17.090,0.000
1714025223.196,-32.227,-30.273,-27.832,-28.320,0.000
1714025223.200,-33.691,-20.996,-27.344,-35.156,0.000
1714025223.204,-31.250,-23.926,-28.320,-34.668,0.000
1714025223.208,-40.039,-29.785,-30.762,-37.598,0.000
1714025223.210,-40.527,-29.297,-24.414,-33.203,0.000
1714025223.214,-34.180,-26.855,-18.066,-28.809,0.000
1714025223.218,-29.297,-32.227,-22.949,-34.668,0.000
1714025223.222,-30.273,-34.180,-27.832,-35.645,0.000
1714025223.226,-37.598,-29.785,-25.879,-33.203,0.000
1714025223.230,-34.180,-24.902,-24.414,-33.691,0.000
1714025223.234,-32.227,-24.414,-27.832,-33.203,0.000
1714025223.238,-33.203,-27.344,-29.785,-34.180,0.000
1714025223.241,-31.250,-31.250,-25.879,-30.273,0.000
1714025223.245,-30.762,-38.086,-24.414,-20.020,0.000
1714025223.249,-24.902,-33.691,-24.414,-14.160,0.000
1714025223.253,-25.391,-24.902,-26.367,-20.996,0.000
1714025223.259,-27.832,-28.320,-28.809,-19.531,0.000
1714025223.263,-26.855,-31.250,-29.297,-24.414,0.000
1714025223.267,-35.645,-29.785,-25.879,-29.785,0.000
1714025223.271,-34.668,-31.250,-26.855,-25.391,0.000
1714025223.275,-26.367,-30.273,-30.273,-23.926,0.000
1714025223.279,-27.832,-36.621,-23.926,-16.602,0.000
1714025223.283,-28.809,-31.738,-19.531,-29.297,0.000
1714025223.286,-14.648,-11.719,-26.367,-26.367,0.000
1714025223.290,-4.395,-18.555,-32.715,-12.695,0.000
1714025223.294,-13.184,-31.250,-33.691,-20.020,0.000
1714025223.298,-20.508,-26.367,-30.762,-33.691,0.000
1714025223.302,-15.625,-22.461,-25.879,-35.645,0.000
1714025223.307,-5.371,-25.391,-23.926,-30.273,0.000
1714025223.311,-12.207,-25.879,-25.879,-39.551,0.000
1714025223.315,-14.648,-29.297,-26.855,-41.016,0.000
1714025223.319,-15.137,-30.273,-22.949,-33.203,0.000
1714025223.323,-20.996,-19.531,-26.367,-33.691,0.000
1714025223.327,-24.414,-20.020,-33.203,-29.297,0.000
1714025223.331,-28.320,-36.133,-22.949,-25.879,0.000
1714025223.335,-39.062,-30.273,-17.090,-33.691,0.000
1714025223.338,-41.992,-17.090,-31.250,-35.156,0.000
1714025223.342,-40.527,-22.461,-27.832,-25.391,0.000
1714025223.346,-38.086,-30.273,-15.625,-27.344,0.000
1714025223.350,-38.574,-34.180,-21.484,-37.598,0.000
1714025223.354,-34.180,-24.414,-27.344,-36.133,0.000
1714025223.358,-29.297,-18.066,-22.949,-29.785,0.000
1714025223.362,-33.691,-25.391,-22.949,-28.320,0.000
1714025223.366,-36.133,-32.715,-30.273,-29.297,0.000
1714025223.370,-40.527,-30.762,-30.273,-32.715,0.000
1714025223.374,-46.875,-26.367,-31.738,-32.227,0.000
1714025223.378,-43.945,-27.832,-26.855,-34.668,0.000
1714025223.382,-41.992,-23.926,-19.531,-32.227,0.000
1714025223.386,-41.992,-19.531,-20.508,-24.902,0.000
1714025223.390,-37.598,-24.902,-19.531,-31.738,0.000
1714025223.393,-33.691,-19.043,-21.484,-31.738,0.000
1714025223.397,-28.809,-14.160,-22.949,-24.902,0.000
1714025223.401,-29.785,-20.508,-19.043,-23.926,0.000
1714025223.405,-30.762,-26.855,-24.902,-27.832,0.000
1714025223.409,-29.785,-29.785,-34.180,-32.715,0.000
1714025223.413,-31.250,-28.809,-33.203,-35.645,0.000
1714025223.417,-34.668,-33.203,-27.832,-37.598,0.000
1714025223.421,-33.691,-31.250,-24.902,-34.668,0.000
1714025223.425,-31.250,-23.438,-25.879,-37.598,0.000
1714025223.428,-26.367,-26.855,-24.902,-28.809,0.000
1714025223.432,-20.508,-29.297,-20.508,-23.926,0.000
1714025223.436,-19.531,-27.832,-16.113,-30.273,0.000
1714025223.440,-20.508,-28.320,-16.113,-36.621,0.000
1714025223.444,-26.367,-24.902,-18.066,-38.574,0.000
1714025223.447,-31.250,-23.438,-19.531,-34.668,0.000
1714025223.451,-25.879,-21.484,-23.438,-38.574,0.000
1714025223.455,-22.461,-20.020,-27.344,-33.691,0.000
1714025223.459,-24.414,-21.973,-23.926,-27.344,0.000
1714025223.463,-24.414,-18.066,-20.508,-29.297,0.000
1714025223.467,-17.578,-15.137,-20.996,-27.832,0.000
1714025223.471,-19.043,-20.508,-22.949,-28.809,0.000
1714025223.475,-22.461,-23.926,-25.879,-21.973,0.000
1714025223.479,-16.602,-15.625,-18.066,-21.973,0.000
1714025223.483,-17.090,-16.113,-19.531,-37.109,0.000
1714025223.487,-25.391,-21.484,-27.344,-41.504,0.000
1714025223.490,-26.367,-20.508,-25.879,-31.250,0.000
1714025223.494,-23.438,-25.879,-26.855,-29.785,0.000
1714025223.498,-27.344,-25.879,-27.832,-32.715,0.000
1714025223.501,-31.250,-19.531,-24.414,-38.086,0.000
1714025223.505,-27.344,-25.391,-20.020,-38.574,0.000
1714025223.509,-27.832,-30.762,-16.602,-36.621,0.000
1714025223.513,-32.227,-26.855,-20.020,-42.969,0.000
1714025223.517,-26.855,-25.391,-27.832,-42.480,0.000
1714025223.521,-25.879,-25.879,-32.715,-36.133,0.000
1714025223.525,-29.297,-28.320,-31.250,-34.668,0.000
1714025223.529,-27.832,-34.180,-31.250,-30.762,0.000
1714025223.533,-30.762,-30.762,-33.203,-37.598,0.000
1714025223.537,-38.086,-35.156,-36.133,-43.457,0.000
1714025223.539,-34.180,-46.387,-30.273,-24.902,0.000
1714025223.543,-25.391,-30.762,-18.555,-19.531,0.000
1714025223.547,-27.832,-21.484,-20.020,-28.809,0.000
1714025223.551,-34.180,-23.926,-24.414,-36.133,0.000
1714025223.555,-32.227,-20.020,-26.367,-36.133,0.000
1714025223.559,-32.715,-25.391,-37.109,-32.227,0.000
1714025223.563,-33.203,-30.273,-34.668,-23.438,0.000
1714025223.567,-32.227,-30.762,-26.367,-37.109,0.000
1714025223.571,-36.621,-33.203,-28.320,-42.969,0.000
1714025223.575,-33.203,-34.180,-23.926,-29.297,0.000
1714025223.578,-30.762,-33.691,-19.043,-32.715,0.000
1714025223.582,-37.109,-36.133,-27.344,-35.645,0.000
1714025223.585,-38.086,-37.598,-37.109,-31.250,0.000
1714025223.589,-41.992,-30.273,-33.691,-31.250,0.000
1714025223.593,-43.457,-23.926,-24.414,-32.715,0.000
1714025223.597,-31.250,-25.391,-23.438,-39.062,0.000
1714025223.601,-28.809,-32.227,-25.879,-38.574,0.000
1714025223.605,-33.203,-36.133,-24.414,-34.668,0.000
1714025223.609,-33.691,-33.203,-27.832,-36.133,0.000
1714025223.613,-35.645,-27.832,-35.156,-36.133,0.000
1714025223.617,-40.039,-22.949,-34.180,-35.645,0.000
1714025223.621,-42.480,-24.414,-34.180,-30.762,0.000
1714025223.624,-39.062,-28.809,-27.832,-24.414,0.000
1714025223.628,-31.738,-29.785,-20.996,-26.367,0.000
1714025223.634,-33.691,-24.902,-27.344,-31.738,0.000
1714025223.638,-33.691,-25.391,-26.367,-27.344,0.000
1714025223.642,-25.879,-21.973,-21.484,-24.414,0.000
1714025223.646,-29.297,-14.648,-25.391,-25.391,0.000
1714025223.650,-31.250,-15.137,-29.785,-32.715,0.000
1714025223.654,-31.738,-29.785,-33.203,-40.039,0.000
1714025223.658,-29.297,-35.645,-33.203,-40.039,0.000
1714025223.662,-25.391,-24.902,-28.320,-29.785,0.000
1714025223.666,-23.926,-20.996,-23.926,-24.902,0.000
1714025223.669,-21.484,-28.320,-25.391,-25.391,0.000
1714025223.673,-23.926,-28.320,-24.414,-24.414,0.000
1714025223.677,-22.949,-21.973,-21.973,-17.090,0.000
1714025223.682,-18.066,-20.020,-25.391,-22.461,0.000
1714025223.686,-19.531,-17.578,-24.414,-35.645,0.000
1714025223.690,-20.996,-19.043,-23.926,-36.133,0.000
1714025223.694,-25.391,-29.297,-25.391,-36.133,0.000
1714025223.698,-20.508,-30.273,-19.043,-31.250,0.000
1714025223.702,-21.484,-25.391,-19.531,-33.203,0.000
1714025223.706,-27.832,-27.344,-21.973,-35.156,0.000
1714025223.709,-19.043,-27.832,-21.484,-28.320,0.000
1714025223.713,-20.020,-33.691,-29.297,-21.484,0.000
1714025223.717,-24.414,-26.367,-24.414,-21.484,0.000
1714025223.721,-24.414,-16.113,-21.973,-27.832,0.000
1714025223.725,-27.832,-20.020,-22.949,-24.902,0.000
1714025223.729,-21.484,-13.672,-20.508,-15.137,0.000
1714025223.733,-20.020,-5.371,-25.879,-30.273,0.000
1714025223.737,-28.320,-11.230,-31.250,-52.246,0.000
1714025223.741,-23.438,-9.277,-29.785,-41.016,0.000
1714025223.745,-11.719,-3.906,-30.273,-26.855,0.000
1714025223.749,-13.672,-8.301,-31.738,-34.668,0.000
1714025223.753,-17.090,-10.254,-30.273,-44.434,0.000
1714025223.757,-21.973,-18.555,-32.715,-39.062,0.000
1714025223.761,-26.367,-22.949,-32.715,-23.926,0.000
1714025223.764,-23.926,-22.949,-26.855,-28.320,0.000
1714025223.768,-24.902,-27.344,-24.414,-35.645,0.000
1714025223.772,-30.762,-20.020,-27.832,-38.574,0.000
1714025223.776,-35.156,-20.020,-32.227,-40.527,0.000
1714025223.780,-25.879,-21.973,-30.762,-35.156,0.000
1714025223.784,-22.949,-20.020,-29.785,-37.109,0.000
1714025223.788,-22.949,-20.508,-28.809,-37.598,0.000
1714025223.792,-17.090,-21.973,-22.949,-23.926,0.000
1714025223.796,-10.742,-15.625,-22.949,-15.625,0.000
1714025223.800,-7.812,-13.672,-20.020,-21.484,0.000
1714025223.803,-16.113,-18.066,-23.926,-25.879,0.000
1714025223.807,-25.391,-20.996,-31.250,-32.715,0.000
1714025223.811,-15.625,-27.832,-31.250,-28.320,0.000
1714025223.815,-14.160,-34.180,-30.762,-23.438,0.000
1714025223.819,-20.508,-28.320,-32.715,-29.297,0.000
1714025223.826,-17.578,-26.367,-30.273,-23.438,0.000
1714025223.830,-23.926,-30.762,-23.438,-21.484,0.000
1714025223.834,-17.578,-26.855,-16.602,-18.555,0.000
1714025223.837,-11.230,-24.414,-15.625,-13.672,0.000
1714025223.841,-16.113,-22.949,-21.484,-17.578,0.000
1714025223.845,-18.066,-19.531,-21.973,-17.090,0.000
1714025223.849,-25.391,-34.668,-31.738,-14.160,0.000
1714025223.853,-26.855,-36.133,-39.551,-22.949,0.000
1714025223.857,-22.949,-27.344,-31.250,-25.879,0.000
1714025223.861,-20.020,-23.926,-27.344,-18.555,0.000
1714025223.865,-18.066,-16.602,-20.508,-20.020,0.000
1714025223.869,-18.066,-16.113,-17.090,-30.273,0.000
1714025223.871,-26.855,-22.949,-26.367,-42.969,0.000
1714025223.875,-34.180,-28.809,-31.738,-39.551,0.000
1714025223.879,-32.715,-29.297,-28.320,-32.715,0.000
1714025223.883,-32.715,-24.902,-26.367,-43.945,0.000
1714025223.887,-25.879,-23.926,-28.320,-39.551,0.000
1714025223.891,-17.090,-25.879,-37.109,-27.344,0.000
1714025223.895,-21.973,-24.902,-29.785,-35.156,0.000
1714025223.899,-24.414,-14.648,-12.207,-35.156,0.000
1714025223.902,-25.391,-14.648,-14.160,-31.738,0.000
1714025223.906,-26.855,-31.250,-18.066,-34.180,0.000
1714025223.910,-29.785,-28.320,-16.602,-29.785,0.000
1714025223.914,-38.086,-22.949,-23.438,-32.227,0.000
1714025223.917,-41.504,-28.320,-29.785,-43.457,0.000
1714025223.920,-34.180,-26.367,-29.297,-41.504,0.000
1714025223.924,-30.273,-29.297,-30.762,-39.551,0.000
1714025223.928,-31.250,-22.949,-25.879,-37.109,0.000
1714025223.932,-29.785,-19.043,-20.996,-31.738,0.000
1714025223.936,-26.855,-23.926,-27.832,-36.133,0.000
1714025223.940,-30.273,-32.227,-34.180,-28.809,0.000
1714025223.944,-26.367,-33.203,-29.785,-20.508,0.000
1714025223.948,-25.879,-25.879,-26.855,-28.320,0.000
1714025223.952,-32.227,-25.391,-31.250,-30.273,0.000
1714025223.956,-30.273,-20.996,-26.367,-30.762,0.000
1714025223.960,-30.273,-17.578,-20.508,-29.297,0.000
1714025223.962,-36.133,-22.461,-18.066,-28.320,0.000
1714025223.966,-34.180,-25.879,-24.414,-28.809,0.000
1714025223.970,-29.785,-31.738,-33.203,-29.297,0.000
1714025223.974,-30.762,-33.203,-26.855,-24.414,0.000
1714025223.977,-29.297,-31.738,-24.902,-23.438,0.000
1714025223.981,-32.715,-32.715,-32.227,-29.785,0.000
1714025223.985,-39.551,-35.156,-34.180,-29.785,0.000
1714025223.989,-41.992,-38.574,-32.227,-33.203,0.000
1714025223.993,-35.645,-37.598,-24.902,-27.832,0.000
1714025223.997,-35.156,-36.133,-28.320,-26.855,0.000
1714025224.001,-39.551,-41.504,-30.273,-41.992,0.000
1714025224.005,-33.691,-37.598,-25.879,-37.598,0.000
1714025224.010,-32.715,-24.902,-27.344,-33.203,0.000
1714025224.014,-29.297,-24.902,-34.180,-34.180,0.000
1714025224.018,-29.785,-27.344,-35.645,-38.086,0.000
1714025224.022,-29.297,-27.344,-28.320,-29.297,0.000
1714025224.026,-26.855,-23.438,-21.973,-20.996,0.000
1714025224.030,-30.273,-26.367,-20.020,-28.809,0.000
1714025224.034,-29.297,-33.203,-23.438,-34.668,0.000
1714025224.038,-27.832,-25.879,-23.926,-34.668,0.000
1714025224.042,-30.273,-25.391,-21.484,-30.273,0.000
1714025224.046,-29.297,-25.879,-25.879,-19.531,0.000
1714025224.049,-36.621,-23.438,-21.484,-35.156,0.000
1714025224.053,-39.551,-25.879,-24.414,-44.922,0.000
1714025224.058,-28.320,-24.902,-27.344,-29.785,0.000
1714025224.062,-25.391,-25.879,-17.578,-25.879,0.000
1714025224.066,-27.344,-24.414,-15.625,-30.762,0.000
1714025224.070,-21.484,-24.902,-24.414,-39.551,0.000
1714025224.074,-22.461,-26.855,-33.203,-40.039,0.000
1714025224.077,-20.996,-24.414,-37.109,-36.621,0.000
1714025224.081,-16.113,-25.391,-36.133,-38.574,0.000
1714025224.085,-7.812,-23.926,-32.227,-49.805,0.000
1714025224.089,0.000,-22.949,-36.621,-46.387,0.000
1714025224.093,-8.301,-24.414,-29.785,-29.297,0.000
1714025224.097,-19.531,-27.832,-17.578,-35.156,0.000
1714025224.101,-20.996,-28.809,-20.996,-36.621,0.000
1714025224.105,-22.949,-24.902,-25.391,-30.762,0.000
1714025224.109,-27.832,-29.297,-24.414,-27.832,0.000
1714025224.113,-31.250,-33.203,-20.996,-27.832,0.000
1714025224.117,-31.250,-32.715,-23.926,-34.668,0.000
1714025224.121,-28.320,-29.297,-22.461,-36.133,0.000
1714025224.125,-20.996,-25.879,-15.137,-24.902,0.000
1714025224.129,-20.020,-32.715,-20.508,-16.113,0.000
1714025224.133,-24.902,-36.133,-27.344,-22.949,0.000
1714025224.137,-25.879,-25.391,-27.832,-26.367,0.000
1714025224.140,-33.691,-22.949,-25.879,-38.086,0.000
1714025224.144,-33.691,-26.367,-24.414,-32.715,0.000
1714025224.148,-25.879,-28.809,-26.367,-22.461,0.000
1714025224.152,-23.926,-31.250,-29.297,-32.227,0.000
1714025224.156,-25.879,-30.762,-25.879,-34.668,0.000
1714025224.160,-25.391,-29.785,-27.344,-33.691,0.000
1714025224.163,-21.484,-23.438,-30.273,-30.762,0.000
1714025224.167,-16.113,-19.043,-28.320,-26.367,0.000
1714025224.171,-16.602,-20.020,-29.297,-27.832,0.000
1714025224.175,-25.391,-21.973,-30.273,-28.320,0.000
1714025224.179,-26.855,-25.391,-34.180,-19.043,0.000
1714025224.183,-24.414,-25.391,-31.250,-10.254,0.000
1714025224.187,-28.809,-25.391,-21.484,-21.484,0.000
1714025224.191,-25.879,-31.250,-23.438,-30.762,0.000
1714025224.195,-16.113,-35.645,-25.879,-19.043,0.000
1714025224.198,-16.602,-30.762,-21.973,-16.113,0.000
1714025224.202,-25.879,-30.762,-25.391,-28.320,0.000
1714025224.206,-25.879,-26.367,-22.461,-21.973,0.000
1714025224.210,-24.902,-25.879,-22.461,-17.578,0.000
1714025224.214,-28.809,-27.344,-28.809,-26.367,0.000
1714025224.218,-24.902,-21.973,-26.855,-24.902,0.000
1714025224.222,-20.508,-27.344,-22.461,-24.902,0.000
1714025224.225,-22.461,-26.367,-28.320,-18.555,0.000
1714025224.229,-22.461,-20.020,-27.344,-15.137,0.000
1714025224.233,-17.578,-21.973,-20.996,-25.391,0.000
1714025224.237,-22.461,-27.832,-23.438,-36.621,0.000
1714025224.241,-22.949,-27.832,-24.902,-30.273,0.000
1714025224.244,-14.648,-19.531,-20.508,-20.020,0.000
1714025224.248,-12.695,-19.043,-24.902,-28.809,0.000
1714025224.252,-23.926,-37.598,-28.809,-36.133,0.000
1714025224.256,-28.320,-41.992,-24.414,-29.785,0.000
1714025224.260,-27.832,-30.762,-25.391,-27.344,0.000
1714025224.264,-25.391,-29.297,-31.250,-29.785,0.000
1714025224.267,-26.855,-35.156,-36.621,-32.715,0.000
1714025224.271,-36.133,-35.156,-36.133,-35.645,0.000
1714025224.275,-28.809,-27.832,-30.273,-30.273,0.000
1714025224.279,-18.555,-24.414,-31.738,-31.738,0.000
1714025224.283,-18.066,-28.320,-36.621,-31.250,0.000
1714025224.287,-18.555,-26.855,-30.762,-26.367,0.000
1714025224.290,-15.625,-27.832,-21.973,-23.926,0.000
1714025224.294,-16.113,-20.508,-24.414,-25.879,0.000
1714025224.298,-18.555,-13.184,-22.949,-22.461,0.000
1714025224.302,-18.066,-15.625,-23.926,-23.926,0.000
1714025224.306,-17.090,-14.160,-27.832,-22.461,0.000
1714025224.309,-16.602,-21.973,-28.320,-20.996,0.000
1714025224.313,-17.578,-30.762,-33.203,-22.461,0.000
1714025224.317,-30.273,-30.273,-34.668,-31.738,0.000
1714025224.321,-30.762,-28.809,-31.250,-34.180,0.000
1714025224.325,-22.461,-26.855,-30.762,-29.297,0.000
1714025224.329,-26.855,-23.438,-36.133,-32.715,0.000
1714025224.333,-24.902,-19.043,-39.551,-30.762,0.000
1714025224.335,-20.996,-20.508,-37.109,-29.785,0.000
1714025224.339,-26.855,-25.391,-37.109,-27.832,0.000
1714025224.343,-24.414,-23.926,-31.250,-28.320,0.000
1714025224.347,-31.250,-22.949,-26.855,-29.297,0.000
1714025224.351,-34.668,-29.297,-26.367,-29.297,0.000
1714025224.355,-27.832,-24.414,-24.902,-17.578,0.000
1714025224.359,-35.156,-20.508,-23.926,-17.090,0.000
1714025224.363,-41.992,-29.785,-32.227,-26.855,0.000
1714025224.367,-39.062,-32.227,-38.086,-31.250,0.000
1714025224.371,-38.574,-32.715,-33.691,-26.855,0.000
1714025224.375,-36.133,-30.273,-30.273,-15.625,0.000
1714025224.378,-28.809,-22.949,-25.879,-18.555,0.000
1714025224.384,-28.809,-20.508,-27.344,-25.391,0.000
1714025224.388,-34.668,-27.832,-32.227,-23.438,0.000
1714025224.392,-25.391,-23.926,-20.996,-27.344,0.000
1714025224.396,-23.926,-20.508,-16.602,-31.738,0.000
1714025224.400,-30.762,-33.691,-25.879,-31.250,0.000
1714025224.404,-32.227,-35.645,-28.320,-24.902,0.000
1714025224.408,-31.738,-26.367,-21.973,-20.508,0.000
1714025224.412,-30.762,-29.297,-20.996,-18.555,0.000
1714025224.416,-26.855,-33.203,-26.367,-22.949,0.000
1714025224.419,-22.949,-32.715,-23.926,-17.578,0.000
1714025224.423,-25.879,-25.391,-18.066,-20.020,0.000
1714025224.427,-25.391,-25.391,-27.832,-25.391,0.000
1714025224.432,-28.809,-27.832,-37.109,-25.879,0.000
1714025224.436,-31.738,-31.250,-35.156,-33.203,0.000
1714025224.440,-28.809,-26.367,-33.691,-36.621,0.000
1714025224.444,-27.832,-25.879,-28.320,-31.250,0.000
1714025224.448,-21.973,-36.133,-22.949,-24.414,0.000
1714025224.452,-26.367,-30.273,-27.832,-27.344,0.000
1714025224.456,-25.879,-23.926,-34.668,-30.762,0.000
1714025224.460,-27.344,-26.855,-32.227,-33.203,0.000
1714025224.463,-31.738,-30.273,-35.156,-25.391,0.000
1714025224.467,-30.273,-34.668,-35.156,-23.926,0.000
1714025224.471,-32.715,-31.738,-25.391,-39.551,0.000
1714025224.475,-31.250,-31.250,-25.391,-35.156,0.000
1714025224.479,-26.855,-30.762,-29.785,-29.785,0.000
1714025224.483,-28.809,-26.855,-30.273,-33.203,0.000
1714025224.487,-31.250,-31.738,-35.645,-26.855,0.000
1714025224.491,-34.668,-30.273,-29.785,-24.414,0.000
1714025224.495,-35.156,-29.785,-21.484,-31.738,0.000
1714025224.499,-34.180,-31.738,-18.555,-32.715,0.000
1714025224.503,-36.621,-28.320,-21.973,-31.738,0.000
1714025224.507,-38.086,-27.344,-26.855,-30.762,0.000
1714025224.511,-36.621,-27.344,-26.367,-21.484,0.000
1714025224.515,-39.551,-29.297,-21.484,-28.320,0.000
1714025224.519,-35.645,-27.344,-18.066,-40.527,0.000
1714025224.522,-33.203,-24.902,-21.484,-47.363,0.000
1714025224.526,-32.227,-23.926,-20.996,-42.480,0.000
1714025224.530,-20.508,-32.227,-23.438,-25.391,0.000
1714025224.534,-21.484,-35.156,-28.809,-26.367,0.000
1714025224.538,-27.344,-25.879,-24.414,-34.668,0.000
1714025224.542,-22.949,-29.785,-17.090,-26.855,0.000
1714025224.546,-21.973,-33.203,-19.043,-24.902,0.000
1714025224.550,-22.949,-30.762,-22.949,-33.691,0.000
1714025224.554,-20.508,-34.180,-21.484,-25.879,0.000
1714025224.558,-24.902,-31.250,-25.391,-20.996,0.000
1714025224.562,-29.785,-23.438,-20.020,-27.832,0.000
1714025224.565,-23.438,-25.879,-18.555,-25.391,0.000
1714025224.569,-22.461,-27.344,-26.855,-23.438,0.000
1714025224.573,-19.043,-31.250,-31.250,-26.855,0.000
1714025224.577,-13.672,-28.809,-28.320,-25.879,0.000
1714025224.580,-15.625,-28.809,-23.438,-26.367,0.000
1714025224.584,-22.461,-38.086,-24.902,-31.738,0.000
1714025224.588,-26.855,-32.715,-21.484,-26.367,0.000
1714025224.592,-24.414,-27.832,-20.508,-21.484,0.000
1714025224.596,-22.461,-31.250,-25.391,-22.461,0.000
1714025224.600,-26.855,-31.738,-26.367,-21.973,0.000
1714025224.604,-29.297,-20.508,-23.926,-25.391,0.000
1714025224.608,-30.273,-15.625,-28.809,-28.809,0.000
1714025224.612,-32.715,-24.902,-32.715,-29.785,0.000
1714025224.616,-30.762,-27.832,-23.926,-32.715,0.000
1714025224.619,-25.879,-24.414,-19.043,-28.320,0.000
1714025224.623,-20.020,-19.531,-24.902,-26.367,0.000
1714025224.627,-21.484,-24.414,-24.414,-20.996,0.000
1714025224.630,-20.020,-33.203,-17.090,-16.602,0.000
1714025224.634,-16.113,-30.273,-23.926,-29.785,0.000
1714025224.638,-15.625,-24.414,-34.180,-32.715,0.000
1714025224.642,-16.113,-24.902,-33.203,-23.926,0.000
1714025224.646,-21.484,-29.785,-30.762,-23.926,0.000
1714025224.650,-29.297,-28.809,-28.320,-37.598,0.000
1714025224.654,-34.668,-29.297,-25.391,-41.504,0.000
1714025224.658,-34.180,-32.715,-32.715,-35.156,0.000
1714025224.662,-23.438,-28.320,-32.715,-24.902,0.000
1714025224.665,-23.926,-22.949,-26.367,-34.668,0.000
1714025224.669,-37.598,-29.297,-26.367,-46.387,0.000
1714025224.672,-37.598,-32.227,-26.855,-36.133,0.000
1714025224.676,-30.273,-33.691,-32.227,-24.414,0.000
1714025224.680,-31.738,-37.598,-29.297,-20.508,0.000
1714025224.684,-36.133,-43.945,-26.855,-28.320,0.000
1714025224.688,-32.227,-38.574,-31.738,-27.344,0.000
1714025224.692,-34.668,-21.973,-22.949,-29.785,0.000
1714025224.696,-34.180,-20.508,-14.160,-28.320,0.000
1714025224.700,-31.738,-21.973,-25.879,-28.809,0.000
1714025224.704,-34.180,-18.555,-33.691,-31.250,0.000
1714025224.708,-34.180,-16.113,-21.973,-20.508,0.000
1714025224.713,-36.133,-21.973,-27.344,-25.879,0.000
1714025224.717,-34.668,-24.902,-29.785,-28.809,0.000
1714025224.721,-23.926,-19.531,-18.555,-22.461,0.000
1714025224.725,-22.949,-20.996,-16.602,-25.391,0.000
1714025224.729,-19.531,-24.902,-17.090,-22.949,0.000
1714025224.733,-24.414,-23.438,-21.973,-23.438,0.000
1714025224.737,-34.668,-22.949,-24.902,-33.691,0.000
1714025224.741,-30.273,-25.391,-25.879,-38.574,0.000
1714025224.745,-28.809,-24.902,-28.809,-32.715,0.000
1714025224.749,-29.785,-31.738,-29.297,-38.086,0.000
1714025224.752,-21.484,-32.227,-29.785,-41.992,0.000
1714025224.756,-18.555,-23.926,-30.762,-40.527,0.000
1714025224.762,-22.461,-23.438,-27.344,-41.992,0.000
1714025224.766,-20.996,-26.855,-21.484,-36.133,0.000
1714025224.769,-23.926,-32.715,-20.508,-35.645,0.000
1714025224.773,-25.391,-36.621,-21.484,-38.086,0.000
1714025224.777,-19.043,-32.715,-20.020,-22.949,0.000
1714025224.781,-21.973,-30.273,-21.973,-22.461,0.000
1714025224.785,-24.902,-26.367,-22.461,-28.320,0.000
1714025224.789,-25.391,-24.414,-23.438,-27.832,0.000
1714025224.793,-23.438,-25.879,-27.832,-28.320,0.000
1714025224.797,-19.043,-23.926,-20.996,-16.602,0.000
1714025224.801,-18.066,-25.879,-21.973,-20.508,0.000
1714025224.805,-24.902,-25.879,-29.785,-29.297,0.000
1714025224.809,-23.438,-22.461,-22.949,-26.855,0.000
1714025224.813,-20.996,-24.414,-19.043,-21.484,0.000
1714025224.817,-26.367,-23.926,-17.578,-21.973,0.000
1714025224.821,-26.855,-27.344,-15.625,-23.438,0.000
1714025224.825,-30.762,-24.902,-10.742,-32.715,0.000
1714025224.828,-24.902,-15.137,-5.859,-31.738,0.000
1714025224.832,-18.066,-16.602,-11.230,-34.180,0.000
1714025224.836,-22.949,-15.625,-18.066,-41.992,0.000
1714025224.840,-25.391,-16.602,-25.391,-36.133,0.000
1714025224.844,-31.250,-24.902,-24.902,-31.738,0.000
1714025224.848,-32.227,-23.438,-16.602,-27.344,0.000
1714025224.852,-26.367,-20.508,-21.484,-24.902,0.000
1714025224.856,-30.762,-21.973,-19.043,-26.367,0.000
1714025224.860,-36.133,-24.414,-10.254,-18.555,0.000
1714025224.864,-37.598,-32.227,-6.836,-19.531,0.000
1714025224.868,-34.668,-28.809,-11.719,-28.320,0.000
1714025224.872,-34.180,-22.949,-18.555,-27.344,0.000
1714025224.876,-35.156,-28.809,-16.113,-20.020,0.000
1714025224.880,-36.133,-34.180,-15.625,-21.973,0.000
1714025224.883,-33.691,-32.227,-21.484,-31.250,0.000
1714025224.887,-28.809,-28.809,-24.902,-26.855,0.000
1714025224.891,-36.621,-27.344,-22.949,-32.227,0.000
1714025224.895,-39.062,-32.715,-23.438,-34.180,0.000
1714025224.899,-33.691,-35.156,-26.855,-25.879,0.000
1714025224.902,-27.344,-21.484,-28.809,-26.367,0.000
1714025224.906,-25.879,-17.090,-30.273,-27.344,0.000
1714025224.910,-30.762,-21.484,-27.832,-32.227,0.000
1714025224.914,-32.227,-24.414,-23.438,-26.855,0.000
1714025224.918,-27.832,-28.809,-19.531,-19.531,0.000
1714025224.922,-14.160,-26.367,-17.578,-12.695,0.000
1714025224.926,-20.020,-20.020,-20.020,-17.090,0.000
1714025224.930,-33.691,-23.926,-24.414,-25.879,0.000
1714025224.934,-31.250,-28.320,-26.367,-24.902,0.000
1714025224.938,-26.855,-20.996,-27.832,-26.367,0.000
1714025224.942,-32.715,-21.484,-30.273,-34.180,0.000
1714025224.945,-30.273,-29.297,-34.180,-33.203,0.000
1714025224.949,-20.996,-21.484,-33.691,-37.598,0.000
1714025224.953,-19.043,-16.113,-24.414,-40.039,0.000
1714025224.957,-13.672,-27.344,-27.344,-31.738,0.000
1714025224.960,-20.996,-34.180,-41.016,-42.480,0.000
1714025224.964,-23.438,-25.879,-38.574,-39.551,0.000
1714025224.968,-10.254,-25.391,-39.551,-35.645,0.000
1714025224.972,-6.836,-33.691,-42.969,-44.434,0.000
1714025224.976,-11.230,-37.109,-35.645,-31.250,0.000
1714025224.980,-16.602,-29.785,-30.762,-34.668,0.000
1714025224.984,-23.438,-28.809,-28.809,-41.016,0.000
1714025224.988,-28.320,-37.598,-33.691,-35.645,0.000
1714025224.992,-37.598,-39.062,-42.480,-38.086,0.000
1714025224.995,-31.738,-34.180,-38.574,-30.273,0.000
1714025224.999,-19.043,-33.691,-34.180,-28.809,0.000
1714025225.003,-17.578,-33.203,-30.273,-31.250,0.000
1714025225.007,-20.996,-31.738,-24.414,-21.973,0.000
1714025225.010,-23.926,-29.785,-24.902,-19.043,0.000
1714025225.014,-27.344,-31.250,-29.785,-26.855,0.000
1714025225.018,-31.250,-27.832,-31.738,-34.180,0.000
1714025225.022,-32.715,-21.973,-23.438,-31.738,0.000
1714025225.026,-33.691,-19.531,-20.508,-21.973,0.000
1714025225.030,-34.180,-29.785,-28.320,-19.531,0.000
1714025225.034,-30.273,-38.574,-33.691,-27.344,0.000
1714025225.038,-23.926,-29.785,-26.367,-29.297,0.000
1714025225.041,-25.879,-31.738,-21.973,-26.855,0.000
1714025225.044,-27.344,-38.574,-20.508,-25.391,0.000
1714025225.048,-33.203,-30.273,-26.855,-26.855,0.000
1714025225.052,-36.133,-21.484,-29.297,-27.344,0.000
1714025225.056,-30.762,-20.020,-20.996,-22.949,0.000
1714025225.060,-28.809,-20.508,-19.043,-16.602,0.000
1714025225.064,-28.320,-24.902,-25.879,-11.719,0.000
1714025225.068,-30.762,-32.715,-31.738,-20.020,0.000
1714025225.072,-37.598,-36.133,-30.273,-33.691,0.000
1714025225.076,-41.016,-34.668,-23.926,-31.250,0.000
1714025225.080,-43.457,-30.762,-20.996,-35.645,0.000
1714025225.084,-43.945,-30.273,-26.855,-41.504,0.000
1714025225.086,-42.969,-36.621,-31.738,-34.180,0.000
1714025225.090,-35.645,-31.738,-22.949,-30.273,0.000
1714025225.094,-30.273,-33.203,-21.484,-33.691,0.000
1714025225.098,-24.902,-35.156,-22.461,-26.855,0.000
1714025225.102,-23.926,-29.785,-18.555,-20.020,0.000
1714025225.105,-23.926,-31.738,-19.531,-16.113,0.000
1714025225.109,-25.879,-34.668,-19.043,-20.020,0.000
1714025225.113,-27.832,-24.902,-23.438,-27.344,0.000
1714025225.117,-34.668,-17.090,-26.855,-32.715,0.000
1714025225.121,-41.016,-24.414,-27.344,-36.621,0.000
1714025225.125,-33.203,-26.855,-27.832,-29.785,0.000
1714025225.129,-25.391,-27.344,-25.879,-19.531,0.000
1714025225.135,-30.762,-26.367,-30.273,-32.715,0.000
1714025225.139,-34.668,-18.555,-26.855,-41.992,0.000
1714025225.143,-28.320,-14.648,-20.996,-32.715,0.000
1714025225.146,-30.762,-15.137,-17.090,-28.320,0.000
1714025225.150,-31.738,-18.555,-21.973,-31.250,0.000
1714025225.154,-33.203,-31.250,-33.691,-36.133,0.000
1714025225.158,-32.227,-29.785,-28.809,-39.062,0.000
1714025225.162,-28.809,-19.531,-21.484,-41.016,0.000
1714025225.166,-29.785,-22.949,-27.832,-41.992,0.000
1714025225.170,-26.367,-25.879,-32.227,-35.156,0.000
1714025225.174,-26.367,-26.855,-31.250,-40.527,0.000
1714025225.178,-27.832,-25.391,-31.738,-36.621,0.000
1714025225.183,-24.902,-18.066,-28.809,-29.785,0.000
1714025225.187,-20.020,-19.531,-30.762,-32.715,0.000
1714025225.191,-21.973,-24.902,-28.320,-34.180,0.000
1714025225.194,-23.926,-21.973,-18.066,-31.250,0.000
1714025225.198,-16.602,-15.625,-18.555,-25.391,0.000
1714025225.202,-15.137,-15.625,-20.996,-26.367,0.000
1714025225.206,-20.508,-20.996,-24.414,-31.250,0.000
1714025225.210,-16.113,-20.508,-20.996,-28.320,0.000
1714025225.214,-10.254,-22.949,-21.484,-18.066,0.000
1714025225.218,-15.625,-27.832,-26.855,-15.137,0.000
1714025225.222,-23.438,-27.832,-26.855,-26.367,0.000
1714025225.226,-25.879,-32.227,-31.250,-32.227,0.000
1714025225.230,-22.461,-30.273,-32.227,-30.273,0.000
1714025225.234,-26.855,-29.785,-27.344,-32.715,0.000
1714025225.238,-27.344,-24.414,-20.020,-35.156,0.000
1714025225.241,-19.531,-17.090,-18.066,-32.227,0.000
1714025225.245,-23.438,-15.625,-25.391,-26.855,0.000
1714025225.249,-27.832,-21.973,-30.762,-25.879,0.000
1714025225.253,-32.227,-27.344,-28.320,-29.297,0.000
1714025225.257,-33.691,-24.902,-25.879,-29.297,0.000
1714025225.261,-34.668,-21.973,-33.691,-23.438,0.000
1714025225.265,-31.738,-21.973,-36.621,-19.531,0.000
1714025225.269,-27.832,-21.973,-27.344,-27.344,0.000
1714025225.273,-30.273,-15.625,-24.414,-32.715,0.000
1714025225.277,-30.273,-13.672,-25.391,-26.855,0.000
1714025225.280,-30.762,-17.090,-27.832,-32.227,0.000
1714025225.284,-29.785,-18.066,-26.855,-40.039,0.000
1714025225.288,-27.344,-23.926,-29.297,-42.480,0.000
1714025225.292,-28.320,-25.391,-31.738,-35.156,0.000
1714025225.296,-30.273,-27.344,-33.203,-24.414,0.000
1714025225.300,-28.809,-29.785,-35.645,-26.367,0.000
1714025225.304,-24.414,-21.973,-36.621,-27.832,0.000
1714025225.308,-19.043,-17.578,-26.367,-19.531,0.000
1714025225.312,-20.508,-17.090,-19.531,-12.207,0.000
1714025225.316,-28.809,-15.625,-26.855,-27.344,0.000
1714025225.320,-24.902,-15.137,-23.438,-31.250,0.000
1714025225.323,-20.020,-18.555,-23.438,-26.855,0.000
1714025225.327,-21.484,-20.996,-26.367,-31.250,0.000
1714025225.331,-23.438,-24.902,-22.461,-32.715,0.000
1714025225.335,-22.461,-25.879,-23.926,-34.668,0.000
1714025225.338,-21.484,-23.926,-25.391,-39.062,0.000
1714025225.342,-24.414,-25.391,-20.996,-33.691,0.000
1714025225.346,-23.926,-25.391,-21.484,-34.668,0.000
1714025225.350,-20.996,-29.297,-31.250,-36.133,0.000
1714025225.354,-24.902,-27.832,-35.156,-41.016,0.000
1714025225.358,-24.902,-21.484,-35.645,-41.016,0.000
1714025225.362,-24.902,-22.949,-35.156,-32.715,0.000
1714025225.366,-24.902,-22.949,-23.438,-35.156,0.000
1714025225.369,-23.926,-22.461,-22.461,-41.504,0.000
1714025225.373,-25.879,-29.785,-27.344,-35.156,0.000
1714025225.377,-25.391,-36.133,-29.297,-22.949,0.000
1714025225.380,-25.879,-26.367,-27.832,-17.090,0.000
1714025225.384,-26.367,-21.973,-25.391,-24.902,0.000
1714025225.388,-25.391,-26.855,-32.227,-35.156,0.000
1714025225.392,-20.508,-32.715,-28.809,-31.250,0.000
1714025225.396,-20.020,-27.832,-26.367,-29.297,0.000
1714025225.400,-23.438,-22.949,-28.320,-38.086,0.000
1714025225.404,-22.949,-28.320,-24.902,-31.738,0.000
1714025225.408,-22.949,-30.762,-19.531,-26.855,0.000
1714025225.412,-21.484,-24.902,-19.043,-24.902,0.000
1714025225.415,-21.973,-23.926,-24.414,-24.902,0.000
1714025225.419,-26.367,-29.297,-25.391,-25.879,0.000
1714025225.422,-25.391,-30.762,-26.855,-25.391,0.000
1714025225.426,-28.809,-38.086,-24.414,-29.785,0.000
1714025225.430,-29.297,-31.738,-22.461,-30.273,0.000
1714025225.434,-27.832,-25.391,-28.809,-28.320,0.000
1714025225.438,-31.738,-28.320,-26.855,-23.438,0.000
1714025225.442,-32.715,-24.902,-25.391,-23.438,0.000
1714025225.446,-32.715,-24.902,-25.391,-28.320,0.000
1714025225.450,-36.133,-35.645,-20.508,-25.391,0.000
1714025225.454,-40.039,-36.621,-22.949,-20.020,0.000
1714025225.458,-47.363,-29.785,-34.180,-20.996,0.000
1714025225.460,-44.434,-23.926,-30.762,-26.855,0.000
1714025225.464,-39.062,-21.973,-20.996,-30.762,0.000
1714025225.468,-35.645,-20.996,-22.461,-34.180,0.000
1714025225.472,-38.086,-21.484,-27.344,-31.250,0.000
1714025225.476,-38.574,-26.367,-32.715,-31.250,0.000
1714025225.480,-28.320,-23.438,-35.156,-32.227,0.000
1714025225.484,-24.414,-20.508,-27.832,-28.320,0.000
1714025225.488,-23.438,-26.367,-28.320,-27.344,0.000
1714025225.492,-23.438,-29.297,-31.738,-26.367,0.000
1714025225.495,-17.090,-24.902,-24.414,-26.855,0.000
1714025225.499,-11.719,-23.438,-29.785,-27.344,0.000
1714025225.503,-16.602,-27.344,-35.156,-26.367,0.000
1714025225.509,-18.555,-26.855,-27.344,-21.484,0.000
1714025225.513,-13.184,-19.531,-23.438,-19.043,0.000
1714025225.517,-15.625,-22.949,-28.809,-25.879,0.000
1714025225.521,-23.438,-28.809,-21.484,-27.832,0.000
1714025225.525,-22.949,-27.344,-20.996,-24.414,0.000
1714025225.529,-24.414,-26.855,-27.832,-25.391,0.000
1714025225.533,-27.832,-28.320,-26.367,-28.320,0.000
1714025225.536,-21.484,-25.879,-23.926,-25.391,0.000
1714025225.540,-17.578,-21.973,-27.832,-21.973,0.000
1714025225.544,-25.879,-20.020,-34.180,-25.879,0.000
1714025225.548,-30.762,-23.438,-23.926,-33.203,0.000
1714025225.552,-24.902,-22.949,-16.602,-32.715,0.000
1714025225.560,-23.438,-26.367,-25.879,-25.879,0.000
1714025225.564,-27.344,-27.832,-28.320,-23.438,0.000
1714025225.568,-21.973,-24.902,-19.043,-27.832,0.000
1714025225.572,-21.484,-29.785,-22.949,-28.809,0.000
1714025225.576,-26.855,-30.273,-27.344,-22.949,0.000
1714025225.580,-28.320,-29.297,-25.391,-24.414,0.000
1714025225.584,-25.391,-33.691,-27.832,-20.020,0.000
1714025225.588,-26.855,-34.668,-32.227,-27.832,0.000
1714025225.592,-27.832,-24.902,-28.320,-29.785,0.000
1714025225.596,-30.273,-23.926,-24.414,-20.020,0.000
1714025225.599,-34.668,-29.297,-21.484,-27.832,0.000
1714025225.603,-26.367,-23.438,-19.531,-25.391,0.000
1714025225.607,-25.879,-20.508,-22.461,-13.672,0.000
1714025225.611,-33.691,-21.973,-15.625,-18.555,0.000
1714025225.615,-29.297,-22.949,-16.602,-30.762,0.000
1714025225.619,-28.809,-26.855,-33.203,-34.668,0.000
1714025225.623,-30.762,-31.738,-38.086,-32.227,0.000
1714025225.627,-27.832,-30.273,-35.156,-34.180,0.000
1714025225.630,-22.949,-29.785,-30.762,-34.180,0.000
1714025225.634,-25.391,-27.344,-24.902,-30.762,0.000
1714025225.638,-30.762,-27.344,-25.879,-27.832,0.000
1714025225.642,-26.855,-29.785,-24.902,-32.227,0.000
1714025225.646,-24.902,-22.461,-20.508,-37.598,0.000
1714025225.650,-24.414,-20.996,-27.832,-33.203,0.000
1714025225.653,-18.555,-26.367,-37.109,-28.809,0.000
1714025225.657,-24.414,-30.762,-33.691,-39.062,0.000
1714025225.661,-33.203,-32.227,-32.227,-35.645,0.000
1714025225.665,-29.297,-27.344,-35.156,-25.391,0.000
1714025225.669,-24.414,-28.809,-27.344,-34.180,0.000
1714025225.673,-26.855,-34.180,-26.855,-42.969,0.000
1714025225.677,-29.785,-29.297,-31.738,-40.039,0.000
1714025225.681,-23.926,-24.414,-31.250,-29.785,0.000
1714025225.685,-21.484,-27.832,-30.273,-25.391,0.000
1714025225.689,-23.438,-36.133,-24.902,-34.180,0.000
1714025225.692,-22.461,-37.109,-28.320,-32.715,0.000
1714025225.696,-26.855,-30.762,-32.715,-25.391,0.000
1714025225.699,-29.785,-27.832,-29.297,-34.180,0.000
1714025225.703,-30.273,-22.461,-27.344,-35.645,0.000
1714025225.707,-25.391,-28.320,-25.879,-29.297,0.000
1714025225.711,-20.020,-33.691,-28.809,-19.043,0.000
1714025225.715,-20.996,-27.344,-26.367,-11.719,0.000
1714025225.719,-25.391,-20.508,-26.367,-22.461,0.000
1714025225.723,-25.879,-26.367,-33.203,-27.344,0.000
1714025225.727,-20.996,-36.133,-37.598,-21.484,0.000
1714025225.731,-23.926,-27.832,-36.133,-28.809,0.000
1714025225.734,-24.414,-22.949,-35.645,-35.645,0.000
1714025225.738,-20.996,-26.367,-29.785,-34.668,0.000
1714025225.742,-22.949,-23.926,-28.809,-38.086,0.000
1714025225.745,-31.738,-24.902,-36.133,-44.434,0.000
1714025225.749,-27.832,-25.391,-27.344,-34.668,0.000
1714025225.753,-2.441,-29.297,-25.391,-10.742,0.000
1714025225.757,-2.930,-26.367,-30.273,-11.719,0.000
1714025225.761,-23.438,-20.020,-28.809,-27.832,0.000
1714025225.765,-33.691,-22.461,-36.133,-36.621,0.000
1714025225.769,-29.297,-17.578,-39.062,-36.621,0.000
1714025225.773,-29.785,-11.230,-36.133,-38.086,0.000
1714025225.776,-28.809,-10.254,-37.109,-42.969,0.000
1714025225.780,-17.090,-12.695,-39.062,-35.645,0.000
1714025225.784,-25.391,-20.996,-43.945,-54.688,0.000
1714025225.788,-31.250,-16.113,-52.734,-70.801,0.000
1714025225.791,-36.621,-10.254,-46.387,-74.707,0.000
1714025225.795,-35.645,-13.672,-37.109,-71.777,0.000
1714025225.799,-26.855,-18.555,-48.340,-62.500,0.000
1714025225.803,-35.156,-16.113,-53.223,-74.219,0.000
1714025225.806,-31.250,-0.977,-47.852,-67.871,0.000
1714025225.810,-33.203,-3.418,-61.035,-66.895,0.000
1714025225.814,-27.832,-23.926,-64.453,-67.383,0.000
1714025225.818,-19.531,-22.461,-57.617,-69.824,0.000
1714025225.822,-32.227,-8.789,-56.641,-77.637,0.000
1714025225.826,-23.438,16.602,-53.711,-62.500,0.000
1714025225.830,-20.996,21.484,-46.875,-63.965,0.000
1714025225.834,-18.555,12.695,-49.805,-70.312,0.000
1714025225.836,-15.625,8.301,-51.270,-62.988,0.000
1714025225.840,-18.555,1.465,-52.246,-56.641,0.000
1714025225.844,-4.395,4.883,-54.688,-54.199,0.000
1714025225.848,-8.789,11.230,-51.758,-72.266,0.000
1714025225.852,-10.742,21.484,-55.664,-75.684,0.000
1714025225.856,0.000,23.926,-54.688,-56.641,0.000
1714025225.860,2.441,22.949,-52.246,-55.664,0.000
1714025225.863,1.953,2.930,-60.547,-62.012,0.000
1714025225.867,2.441,-18.555,-62.500,-53.223,0.000
1714025225.871,3.418,5.371,-56.152,-36.133,0.000
1714025225.875,-5.371,22.461,-50.293,-40.039,0.000
1714025225.879,-9.277,5.859,-57.617,-47.852,0.000
1714025225.888,-17.578,0.000,-56.152,-41.504,0.000
1714025225.892,-22.949,7.812,-51.270,-41.504,0.000
1714025225.896,-13.184,-0.977,-54.199,-34.668,0.000
1714025225.900,-10.742,-8.301,-40.039,-29.297,0.000
1714025225.904,-17.578,-0.488,-32.227,-40.527,0.000
1714025225.907,-19.531,0.000,-46.387,-40.039,0.000
1714025225.911,-24.414,-5.859,-53.223,-34.668,0.000
1714025225.915,-21.973,-5.859,-46.875,-35.156,0.000
1714025225.919,-20.508,-7.324,-43.457,-32.227,0.000
1714025225.923,-27.832,-17.578,-42.969,-26.367,0.000
1714025225.927,-21.484,-12.695,-38.086,-16.602,0.000
1714025225.931,-16.602,-2.441,-33.691,-16.113,0.000
1714025225.935,-19.531,-2.441,-32.715,-24.414,0.000
1714025225.939,-24.414,-8.301,-35.156,-26.367,0.000
1714025225.943,-30.273,-11.719,-28.320,-33.203,0.000
1714025225.947,-24.902,-9.766,-24.414,-30.273,0.000
1714025225.951,-27.832,-14.648,-31.738,-25.391,0.000
1714025225.955,-31.738,-18.066,-36.133,-33.203,0.000
1714025225.959,-24.414,-19.531,-34.668,-38.086,0.000
1714025225.963,-18.555,-15.625,-28.809,-28.809,0.000
1714025225.966,-19.043,-13.672,-26.367,-22.949,0.000
1714025225.970,-18.066,-13.672,-27.832,-27.344,0.000
1714025225.974,-20.996,-11.719,-28.809,-27.344,0.000
1714025225.978,-22.461,-13.184,-27.344,-24.902,0.000
1714025225.985,-20.508,-20.508,-26.855,-20.020,0.000
1714025225.989,-23.926,-15.137,-24.414,-16.113,0.000
1714025225.993,-20.508,-8.789,-26.367,-20.996,0.000
1714025225.997,-17.090,-18.555,-27.832,-19.043,0.000
1714025226.001,-18.555,-13.672,-25.879,-17.090,0.000
1714025226.005,-19.531,-8.789,-25.879,-36.621,0.000
1714025226.009,-22.949,-9.766,-26.855,-49.805,0.000
1714025226.013,-21.484,-11.719,-31.250,-41.016,0.000
1714025226.016,-22.461,-12.695,-32.227,-26.855,0.000
1714025226.020,-27.344,-12.695,-28.809,-31.738,0.000
1714025226.024,-20.508,-11.230,-28.320,-32.715,0.000
1714025226.028,-10.254,-11.719,-30.762,-16.602,0.000
1714025226.031,-5.859,-17.578,-29.297,-8.789,0.000
1714025226.035,-18.555,-17.578,-21.484,-28.320,0.000
1714025226.039,-36.621,-16.113,-19.043,-46.387,0.000
1714025226.043,-35.156,-10.254,-23.926,-44.922,0.000
1714025226.047,-28.809,-5.859,-27.344,-40.527,0.000
1714025226.051,-29.297,-7.812,-33.203,-43.457,0.000
1714025226.054,-36.621,-9.766,-34.180,-51.758,0.000
1714025226.058,-36.621,-11.230,-33.691,-41.992,0.000
1714025226.062,-34.180,-15.625,-38.086,-34.668,0.000
1714025226.066,-31.250,-19.043,-33.203,-30.273,0.000
1714025226.070,-33.203,-19.043,-29.785,-36.133,0.000
1714025226.074,-35.645,-16.113,-28.809,-44.922,0.000
1714025226.077,-31.738,-18.555,-21.973,-34.668,0.000
1714025226.080,-31.738,-21.973,-20.996,-38.086,0.000
1714025226.084,-29.297,-20.996,-26.367,-44.922,0.000
1714025226.088,-28.320,-19.043,-32.227,-39.551,0.000
1714025226.092,-28.320,-21.973,-32.227,-32.227,0.000
1714025226.096,-30.762,-20.996,-28.809,-29.785,0.000
1714025226.100,-27.832,-19.043,-27.832,-24.902,0.000
1714025226.104,-21.484,-24.414,-32.715,-20.996,0.000
1714025226.108,-30.273,-27.344,-31.738,-29.297,0.000
1714025226.112,-34.180,-31.250,-32.715,-36.621,0.000
1714025226.116,-27.832,-30.762,-35.645,-28.320,0.000
1714025226.120,-25.879,-28.320,-27.344,-26.367,0.000
1714025226.122,-32.227,-30.762,-30.762,-38.086,0.000
1714025226.126,-39.062,-36.621,-44.434,-45.898,0.000
1714025226.130,-39.062,-32.715,-42.480,-41.992,0.000
1714025226.134,-33.691,-23.438,-31.738,-42.480,0.000
1714025226.138,-31.250,-26.855,-32.227,-43.457,0.000
1714025226.141,-34.180,-28.320,-32.715,-46.387,0.000
1714025226.145,-33.203,-20.996,-32.715,-34.180,0.000
1714025226.149,-33.691,-21.973,-32.227,-28.809,0.000
1714025226.153,-33.691,-26.855,-22.949,-38.086,0.000
1714025226.157,-24.902,-26.855,-20.996,-32.227,0.000
1714025226.161,-19.043,-24.902,-21.484,-31.250,0.000
1714025226.165,-17.578,-22.949,-16.113,-32.227,0.000
1714025226.167,-16.113,-23.438,-20.996,-29.297,0.000
1714025226.171,-20.996,-27.344,-28.809,-35.156,0.000
1714025226.175,-25.391,-30.273,-29.785,-34.180,0.000
1714025226.179,-23.926,-25.391,-27.344,-22.461,0.000
1714025226.183,-28.809,-24.902,-25.879,-21.973,0.000
1714025226.187,-31.738,-28.809,-28.320,-30.273,0.000
1714025226.191,-23.926,-28.809,-26.855,-18.066,0.000
1714025226.194,-18.066,-24.902,-22.949,-14.160,0.000
1714025226.198,-18.555,-23.926,-18.555,-25.879,0.000
1714025226.202,-25.391,-26.367,-21.973,-27.344,0.000
1714025226.206,-24.414,-25.391,-19.043,-25.879,0.000
1714025226.210,-20.020,-22.949,-9.766,-19.531,0.000
1714025226.212,-21.484,-22.461,-18.066,-14.160,0.000
1714025226.216,-23.438,-29.297,-30.762,-23.438,0.000
1714025226.220,-20.508,-27.344,-23.438,-22.461,0.000
1714025226.224,-20.996,-23.926,-17.090,-21.973,0.000
1714025226.228,-34.668,-31.250,-13.672,-36.133,0.000
1714025226.232,-44.434,-36.133,-18.066,-37.109,0.000
1714025226.236,-48.828,-37.109,-25.391,-41.016,0.000
1714025226.240,-40.039,-38.086,-24.902,-36.621,0.000
1714025226.244,-29.785,-34.668,-21.484,-25.879,0.000
1714025226.248,-27.344,-33.203,-23.438,-30.273,0.000
1714025226.251,-30.273,-35.645,-20.020,-32.227,0.000
1714025226.255,-31.738,-34.668,-21.484,-23.438,0.000
1714025226.261,-31.738,-39.062,-23.438,-24.902,0.000
1714025226.265,-34.668,-38.574,-24.414,-24.902,0.000
1714025226.269,-42.480,-39.551,-29.297,-33.203,0.000
1714025226.273,-37.109,-42.969,-30.273,-31.738,0.000
1714025226.276,-28.809,-41.016,-30.273,-18.066,0.000
1714025226.280,-27.832,-40.527,-35.645,-20.508,0.000
1714025226.284,-27.832,-40.039,-28.809,-25.391,0.000
1714025226.288,-25.879,-34.180,-21.973,-20.508,0.000
1714025226.292,-20.996,-35.645,-26.367,-13.184,0.000
1714025226.296,-23.438,-40.527,-30.273,-16.602,0.000
1714025226.300,-33.203,-39.062,-33.691,-35.156,0.000
1714025226.304,-31.738,-34.668,-37.109,-36.621,0.000
1714025226.309,-21.484,-34.668,-33.203,-25.391,0.000
1714025226.312,-20.996,-33.691,-29.297,-22.461,0.000
1714025226.316,-26.367,-35.156,-30.762,-28.320,0.000
1714025226.320,-28.809,-36.621,-28.809,-25.391,0.000
1714025226.324,-29.785,-35.156,-33.691,-22.949,0.000
1714025226.328,-30.273,-31.738,-36.133,-30.762,0.000
1714025226.332,-35.156,-33.691,-32.715,-32.715,0.000
1714025226.336,-31.738,-33.203,-35.156,-30.762,0.000
1714025226.340,-30.762,-29.785,-35.645,-30.273,0.000
1714025226.344,-29.297,-27.344,-32.227,-24.414,0.000
1714025226.348,-29.297,-26.855,-31.738,-27.832,0.000
1714025226.352,-30.762,-25.879,-31.250,-36.133,0.000
1714025226.356,-27.832,-26.855,-26.367,-26.855,0.000
1714025226.359,-35.645,-30.762,-24.902,-20.996,0.000
1714025226.363,-37.109,-35.156,-24.902,-22.949,0.000
1714025226.367,-29.785,-36.621,-24.414,-22.949,0.000
1714025226.371,-31.738,-29.785,-30.273,-26.855,0.000
1714025226.375,-34.668,-28.320,-33.203,-26.367,0.000
1714025226.379,-32.227,-27.344,-27.832,-25.391,0.000
1714025226.383,-31.250,-26.367,-25.391,-22.461,0.000
1714025226.387,-31.250,-29.297,-27.344,-15.137,0.000
1714025226.391,-31.738,-29.785,-26.855,-12.695,0.000
1714025226.395,-27.344,-27.344,-24.414,-16.113,0.000
1714025226.399,-30.273,-26.367,-21.973,-20.508,0.000
1714025226.402,-32.715,-25.879,-19.043,-17.090,0.000
1714025226.406,-29.785,-28.809,-21.973,-19.043,0.000
1714025226.410,-29.297,-32.227,-20.508,-19.531,0.000
1714025226.414,-27.832,-30.273,-15.137,-16.113,0.000
1714025226.418,-26.855,-28.320,-17.578,-25.391,0.000
1714025226.422,-30.762,-26.855,-27.344,-32.227,0.000
1714025226.426,-29.785,-24.414,-27.344,-27.344,0.000
1714025226.430,-24.902,-22.949,-27.344,-19.043,0.000
1714025226.433,-22.949,-22.949,-32.715,-24.902,0.000
1714025226.437,-26.855,-21.484,-25.879,-31.250,0.000
1714025226.441,-28.809,-24.902,-20.996,-28.320,0.000
1714025226.445,-28.320,-24.414,-24.414,-24.902,0.000
1714025226.449,-28.320,-27.344,-23.438,-28.320,0.000
1714025226.453,-24.414,-27.344,-20.508,-36.133,0.000
1714025226.457,-26.367,-26.367,-22.461,-37.598,0.000
1714025226.460,-26.855,-25.391,-21.973,-27.344,0.000
1714025226.464,-27.344,-22.461,-21.484,-23.438,0.000
1714025226.468,-33.203,-23.438,-26.855,-40.039,0.000
1714025226.472,-32.715,-24.902,-32.715,-46.875,0.000
1714025226.476,-21.973,-29.785,-33.691,-25.879,0.000
1714025226.480,-12.695,-30.762,-26.367,-16.113,0.000
1714025226.484,-19.043,-33.203,-25.879,-21.484,0.000
1714025226.488,-37.109,-39.062,-23.926,-29.785,0.000
1714025226.492,-41.992,-39.551,-20.020,-38.086,0.000
1714025226.494,-41.016,-38.574,-23.926,-35.156,0.000
1714025226.498,-33.691,-37.109,-26.367,-25.391,0.000
1714025226.502,-30.762,-36.133,-30.762,-31.738,0.000
1714025226.506,-36.133,-34.180,-29.297,-41.504,0.000
1714025226.510,-34.180,-34.180,-22.949,-34.668,0.000
1714025226.514,-34.180,-34.668,-28.320,-36.133,0.000
1714025226.518,-39.062,-31.250,-35.645,-41.992,0.000
1714025226.522,-38.574,-27.832,-32.227,-34.668,0.000
1714025226.526,-38.086,-27.344,-24.414,-30.273,0.000
1714025226.530,-41.504,-29.785,-24.902,-33.691,0.000
1714025226.533,-39.551,-32.715,-26.367,-35.156,0.000
1714025226.537,-35.156,-29.785,-25.879,-37.109,0.000
1714025226.540,-34.180,-26.855,-26.855,-37.598,0.000
1714025226.544,-34.180,-27.344,-26.855,-30.762,0.000
1714025226.548,-33.691,-29.297,-29.785,-34.180,0.000
1714025226.552,-34.180,-29.297,-24.902,-35.156,0.000
1714025226.556,-37.598,-26.367,-28.320,-34.180,0.000
1714025226.560,-41.016,-29.297,-37.109,-41.504,0.000
1714025226.564,-38.574,-35.645,-36.621,-40.039,0.000
1714025226.568,-41.016,-36.621,-36.621,-39.551,0.000
1714025226.572,-41.504,-35.156,-38.086,-32.227,0.000
1714025226.576,-36.621,-36.621,-33.691,-24.414,0.000
1714025226.579,-40.039,-38.574,-34.668,-31.250,0.000
1714025226.583,-40.527,-36.133,-41.992,-36.621,0.000
1714025226.589,-36.133,-33.203,-42.480,-34.180,0.000
1714025226.593,-34.180,-32.715,-41.504,-25.879,0.000
1714025226.597,-35.645,-34.180,-36.133,-20.020,0.000
1714025226.601,-37.598,-28.320,-29.785,-17.578,0.000
1714025226.605,-33.691,-20.508,-28.809,-20.508,0.000
1714025226.609,-26.855,-20.020,-28.809,-17.090,0.000
1714025226.613,-22.949,-20.996,-25.391,-9.277,0.000
1714025226.617,-21.973,-26.855,-21.484,-20.020,0.000
1714025226.621,-23.438,-25.391,-26.855,-32.715,0.000
1714025226.625,-26.855,-23.438,-33.691,-35.156,0.000
1714025226.628,-33.691,-31.738,-29.785,-34.668,0.000
1714025226.632,-35.156,-30.762,-22.461,-33.691,0.000
1714025226.637,-26.367,-30.273,-20.508,-35.156,0.000
1714025226.641,-22.461,-30.273,-18.555,-28.320,0.000
1714025226.645,-22.949,-25.879,-21.973,-23.438,0.000
1714025226.649,-20.508,-21.973,-19.531,-22.461,0.000
1714025226.653,-24.414,-20.020,-14.648,-21.484,0.000
1714025226.657,-20.996,-23.438,-20.996,-30.273,0.000
1714025226.661,-22.461,-23.438,-26.855,-41.504,0.000
1714025226.665,-26.367,-21.973,-26.855,-35.645,0.000
1714025226.669,-26.855,-26.367,-25.879,-30.762,0.000
1714025226.673,-29.297,-29.785,-33.203,-34.668,0.000
1714025226.677,-30.273,-24.902,-26.367,-33.691,0.000
1714025226.680,-29.785,-23.926,-20.020,-25.879,0.000
1714025226.685,-28.320,-25.879,-26.367,-30.762,0.000
1714025226.689,-24.414,-26.367,-36.133,-41.504,0.000
1714025226.693,-19.531,-26.367,-38.086,-38.574,0.000
1714025226.697,-12.695,-26.367,-37.598,-24.902,0.000
1714025226.700,-7.324,-22.461,-36.621,-25.879,0.000
1714025226.704,-3.906,-19.043,-34.180,-35.645,0.000
1714025226.708,-0.977,-20.020,-33.691,-44.922,0.000
1714025226.712,-4.395,-22.461,-38.574,-42.480,0.000
1714025226.716,-14.160,-26.855,-43.945,-38.574,0.000
1714025226.720,-15.625,-26.855,-34.180,-39.062,0.000
1714025226.724,-20.996,-23.438,-23.438,-38.574,0.000
1714025226.728,-28.320,-25.879,-24.414,-30.273,0.000
1714025226.732,-25.879,-21.484,-25.879,-31.250,0.000
1714025226.736,-24.902,-16.602,-25.879,-39.062,0.000
1714025226.739,-25.391,-20.508,-33.691,-44.434,0.000
1714025226.743,-28.320,-30.273,-41.992,-41.992,0.000
1714025226.747,-37.109,-39.551,-45.898,-36.621,0.000
1714025226.751,-36.133,-44.434,-52.734,-37.109,0.000
1714025226.755,-33.691,-43.945,-53.711,-37.598,0.000
1714025226.759,-39.062,-47.852,-58.594,-30.273,0.000
1714025226.763,-29.785,-52.246,-63.477,-14.160,0.000
1714025226.767,-25.391,-52.734,-58.105,-18.555,0.000
1714025226.771,-34.668,-50.293,-59.082,-34.180,0.000
1714025226.775,-30.762,-46.387,-64.453,-35.156,0.000
1714025226.778,-29.785,-46.875,-61.035,-34.180,0.000
1714025226.782,-32.715,-46.875,-55.664,-34.668,0.000
1714025226.786,-32.227,-51.758,-54.199,-31.250,0.000
1714025226.790,-32.715,-51.758,-53.223,-34.668,0.000
1714025226.794,-34.668,-46.875,-44.922,-32.715,0.000
1714025226.798,-41.016,-47.363,-44.434,-36.621,0.000
1714025226.801,-37.598,-49.316,-43.945,-39.551,0.000
1714025226.805,-33.203,-47.852,-40.039,-29.785,0.000
1714025226.809,-32.715,-45.410,-42.480,-30.273,0.000
1714025226.813,-36.133,-45.898,-39.551,-44.922,0.000
1714025226.817,-36.621,-49.316,-36.133,-40.039,0.000
1714025226.821,-36.133,-45.898,-37.598,-36.621,0.000
1714025226.824,-38.086,-39.551,-32.227,-48.828,0.000
1714025226.828,-33.691,-34.668,-27.344,-49.805,0.000
1714025226.832,-24.902,-34.180,-23.926,-43.945,0.000
1714025226.836,-25.879,-34.180,-18.066,-44.434,0.000
1714025226.840,-26.855,-31.738,-11.230,-37.598,0.000
1714025226.844,-23.438,-27.832,-8.301,-21.973,0.000
1714025226.847,-25.391,-25.879,-4.883,-20.996,0.000
1714025226.851,-23.438,-21.484,-7.324,-16.113,0.000
1714025226.855,-20.020,-9.277,-6.348,-11.230,0.000
1714025226.859,-13.184,-7.812,-5.859,-13.672,0.000
1714025226.863,-11.719,-15.625,-11.230,-18.066,0.000
1714025226.867,-18.066,-14.648,-10.254,-20.508,0.000
1714025226.870,-20.996,-17.578,-15.625,-22.949,0.000
1714025226.874,-19.043,-15.137,-17.090,-17.578,0.000
1714025226.878,-17.090,-10.254,-10.254,-15.137,0.000
1714025226.882,-19.043,-13.184,-17.090,-28.809,0.000
1714025226.886,-22.949,-13.672,-20.996,-28.809,0.000
1714025226.889,-27.344,-13.672,-16.113,-25.391,0.000
1714025226.893,-25.391,-13.184,-14.648,-24.414,0.000
1714025226.897,-17.578,-7.812,-14.648,-18.555,0.000
1714025226.901,-25.879,-15.625,-15.137,-29.297,0.000
1714025226.905,-29.785,-21.484,-23.438,-32.715,0.000
1714025226.909,-22.461,-17.090,-24.902,-25.391,0.000
1714025226.913,-25.391,-15.625,-16.113,-17.090,0.000
1714025226.916,-23.926,-14.160,-16.113,-19.043,0.000
1714025226.920,-20.020,-11.719,-17.090,-20.996,0.000
1714025226.924,-26.367,-16.113,-24.414,-28.809,0.000
1714025226.927,-32.227,-19.531,-30.273,-41.504,0.000
1714025226.931,-29.785,-14.648,-28.320,-41.504,0.000
1714025226.935,-20.996,-11.230,-25.391,-43.945,0.000
1714025226.939,-20.020,-15.625,-23.438,-34.180,0.000
1714025226.943,-24.902,-17.578,-19.531,-29.785,0.000
1714025226.947,-27.344,-18.555,-17.578,-36.133,0.000
1714025226.951,-20.996,-16.602,-20.020,-38.086,0.000
1714025226.955,-24.414,-19.043,-22.461,-43.945,0.000
1714025226.959,-30.762,-25.391,-19.531,-47.363,0.000
1714025226.961,-19.043,-22.949,-17.578,-36.133,0.000
1714025226.965,-15.625,-22.949,-20.020,-30.762,0.000
1714025226.969,-20.020,-22.461,-18.066,-30.762,0.000
1714025226.973,-21.484,-20.996,-19.531,-26.367,0.000
1714025226.977,-21.484,-20.020,-19.531,-29.297,0.000
1714025226.981,-16.602,-17.578,-15.625,-35.156,0.000
1714025226.985,-19.043,-21.484,-11.230,-33.203,0.000
1714025226.989,-24.902,-21.973,-11.230,-29.297,0.000
1714025226.992,-24.414,-21.484,-18.066,-25.879,0.000
1714025226.996,-20.020,-28.320,-20.020,-24.414,0.000
1714025227.000,-24.414,-33.203,-18.555,-26.855,0.000
1714025227.004,-31.250,-34.668,-24.902,-36.621,0.000
1714025227.010,-33.203,-35.156,-24.414,-32.715,0.000
1714025227.014,-29.297,-37.109,-21.484,-29.297,0.000
1714025227.018,-30.273,-33.691,-23.926,-37.598,0.000
1714025227.022,-30.762,-28.320,-19.531,-33.691,0.000
1714025227.025,-21.973,-29.297,-20.996,-27.344,0.000
1714025227.029,-24.902,-31.250,-21.973,-30.273,0.000
1714025227.033,-33.691,-30.273,-21.484,-38.086,0.000
1714025227.037,-38.574,-27.832,-24.902,-38.574,0.000
1714025227.041,-42.480,-28.809,-26.855,-43.457,0.000
1714025227.045,-39.062,-32.227,-29.297,-36.621,0.000
1714025227.049,-34.180,-33.203,-27.344,-27.344,0.000
1714025227.053,-30.273,-32.227,-28.320,-31.738,0.000
1714025227.058,-32.715,-32.715,-21.484,-29.297,0.000
1714025227.062,-37.109,-36.621,-18.555,-32.227,0.000
1714025227.066,-39.062,-37.109,-22.461,-30.762,0.000
1714025227.070,-35.156,-32.715,-22.461,-27.344,0.000
1714025227.073,-31.250,-32.715,-20.508,-30.273,0.000
1714025227.077,-35.645,-34.180,-21.973,-34.668,0.000
1714025227.081,-32.227,-29.785,-18.066,-38.574,0.000
1714025227.085,-27.832,-24.414,-20.508,-38.086,0.000
1714025227.089,-31.738,-30.273,-36.133,-43.945,0.000
1714025227.093,-30.762,-31.738,-32.227,-37.598,0.000
1714025227.097,-26.367,-25.391,-24.902,-37.109,0.000
1714025227.101,-22.949,-35.645,-30.273,-42.969,0.000
1714025227.105,-16.602,-40.039,-31.738,-45.410,0.000
1714025227.109,-29.297,-36.621,-32.227,-44.434,0.000
1714025227.113,-33.691,-40.527,-34.668,-42.969,0.000
1714025227.117,-26.367,-33.691,-29.785,-41.504,0.000
1714025227.121,-25.879,-39.062,-23.926,-32.715,0.000
1714025227.125,-22.461,-38.574,-24.414,-20.020,0.000
1714025227.128,-19.043,-14.648,-22.949,-15.625,0.000
1714025227.132,-18.555,-17.090,-20.996,-22.461,0.000
1714025227.136,-25.391,-32.227,-26.855,-27.832,0.000
1714025227.140,-32.715,-29.297,-29.297,-34.180,0.000
1714025227.144,-29.297,-26.367,-29.297,-30.273,0.000
1714025227.148,-22.949,-30.273,-25.879,-26.367,0.000
1714025227.152,-21.484,-30.273,-21.484,-31.250,0.000
1714025227.156,-28.809,-26.855,-22.949,-33.691,0.000
1714025227.160,-29.785,-27.344,-26.367,-28.809,0.000
1714025227.164,-21.484,-30.762,-27.344,-25.391,0.000
1714025227.167,-24.902,-32.715,-30.762,-36.621,0.000
1714025227.171,-27.344,-29.297,-31.738,-37.109,0.000
1714025227.175,-24.902,-29.297,-26.367,-27.344,0.000
1714025227.179,-22.949,-26.367,-29.785,-27.832,0.000
1714025227.183,-21.484,-24.414,-34.180,-30.273,0.000
1714025227.187,-23.438,-26.855,-30.762,-39.062,0.000
1714025227.191,-24.902,-29.785,-31.738,-33.203,0.000
1714025227.195,-25.391,-32.715,-37.109,-21.484,0.000
1714025227.198,-27.344,-32.227,-33.203,-32.227,0.000
1714025227.202,-34.668,-35.645,-29.785,-41.504,0.000
1714025227.206,-29.297,-40.527,-33.203,-32.227,0.000
1714025227.210,-18.066,-34.180,-29.297,-28.809,0.000
1714025227.214,-17.090,-27.832,-22.949,-28.809,0.000
1714025227.218,-16.113,-30.273,-22.949,-25.879,0.000
1714025227.222,-13.184,-28.809,-24.414,-23.926,0.000
1714025227.226,-17.578,-28.809,-28.809,-22.949,0.000
1714025227.229,-24.414,-34.668,-31.738,-26.367,0.000
1714025227.233,-26.855,-40.039,-31.738,-36.133,0.000
1714025227.237,-28.809,-37.598,-38.574,-39.062,0.000
1714025227.241,-20.996,-30.273,-36.133,-27.344,0.000
1714025227.244,-20.996,-30.273,-32.227,-27.832,0.000
1714025227.248,-30.273,-30.762,-29.785,-34.668,0.000
1714025227.252,-27.344,-30.273,-31.250,-27.344,0.000
1714025227.256,-23.926,-27.832,-30.273,-27.344,0.000
1714025227.260,-26.367,-24.414,-30.762,-37.598,0.000
1714025227.264,-26.367,-27.344,-33.203,-33.691,0.000
1714025227.268,-23.926,-32.227,-30.762,-33.203,0.000
1714025227.272,-25.879,-29.297,-29.297,-30.273,0.000
1714025227.275,-26.855,-23.438,-22.949,-31.738,0.000
1714025227.279,-21.973,-21.973,-23.926,-38.086,0.000
1714025227.283,-22.461,-21.484,-33.203,-37.598,0.000
1714025227.287,-22.461,-27.832,-33.691,-33.203,0.000
1714025227.290,-17.578,-25.391,-35.645,-26.367,0.000
1714025227.294,-17.090,-19.531,-35.645,-26.367,0.000
1714025227.298,-19.043,-25.879,-38.574,-33.691,0.000
1714025227.302,-21.484,-26.367,-37.598,-39.551,0.000
1714025227.306,-23.438,-20.996,-31.738,-42.969,0.000
1714025227.309,-15.625,-21.484,-31.738,-40.039,0.000
1714025227.313,-15.137,-25.879,-33.691,-28.809,0.000
1714025227.317,-27.344,-24.414,-28.809,-29.785,0.000
1714025227.321,-31.738,-17.090,-28.809,-39.062,0.000
1714025227.325,-26.855,-18.066,-33.203,-39.551,0.000
1714025227.329,-21.973,-20.020,-31.738,-34.180,0.000
1714025227.333,-23.438,-21.484,-29.785,-36.621,0.000
1714025227.336,-26.367,-22.949,-31.250,-36.621,0.000
1714025227.339,-28.809,-20.020,-31.738,-31.250,0.000
1714025227.343,-29.785,-20.508,-31.250,-34.668,0.000
1714025227.347,-28.809,-20.996,-29.297,-39.062,0.000
1714025227.351,-29.785,-18.066,-27.344,-36.621,0.000
1714025227.355,-35.156,-18.555,-30.273,-30.762,0.000
1714025227.359,-35.156,-23.438,-32.227,-31.250,0.000
1714025227.363,-34.668,-26.367,-27.344,-40.527,0.000
1714025227.367,-35.156,-30.762,-28.320,-41.016,0.000
1714025227.371,-37.109,-35.645,-30.762,-36.621,0.000
1714025227.375,-37.598,-31.250,-26.367,-26.855,0.000
1714025227.379,-38.086,-25.391,-25.879,-29.297,0.000
1714025227.384,-34.180,-24.414,-27.344,-35.645,0.000
1714025227.388,-29.785,-21.973,-31.250,-40.039,0.000
1714025227.392,-22.461,-18.555,-30.273,-29.297,0.000
1714025227.396,-15.137,-18.066,-26.855,-23.438,0.000
1714025227.400,-22.949,-24.414,-30.273,-36.133,0.000
1714025227.404,-28.320,-20.996,-33.203,-40.527,0.000
1714025227.408,-26.855,-14.648,-25.879,-25.879,0.000
1714025227.412,-32.227,-21.973,-20.996,-19.531,0.000
1714025227.416,-32.715,-28.809,-27.344,-27.832,0.000
1714025227.420,-23.438,-25.879,-36.133,-21.484,0.000
1714025227.423,-26.367,-23.438,-27.832,-23.926,0.000
1714025227.427,-25.391,-24.414,-18.555,-33.203,0.000
1714025227.432,-19.531,-20.996,-18.555,-33.203,0.000
1714025227.436,-20.020,-20.508,-24.902,-36.621,0.000
1714025227.440,-16.113,-18.555,-25.391,-39.062,0.000
1714025227.444,-15.137,-18.555,-21.973,-32.715,0.000
1714025227.448,-11.230,-21.973,-26.367,-31.250,0.000
1714025227.452,-8.301,-23.926,-26.855,-33.203,0.000
1714025227.456,-11.230,-26.855,-23.438,-27.832,0.000
1714025227.460,-12.207,-25.879,-23.438,-27.344,0.000
1714025227.463,-15.137,-21.484,-25.391,-22.949,0.000
1714025227.467,-21.973,-26.367,-28.809,-18.555,0.000
1714025227.471,-30.273,-30.762,-24.902,-20.508,0.000
1714025227.475,-31.738,-28.320,-20.996,-14.648,0.000
1714025227.480,-26.855,-30.762,-22.461,-5.859,0.000
1714025227.484,-28.809,-37.109,-20.996,-17.578,0.000
1714025227.487,-20.996,-36.133,-19.531,-24.414,0.000
1714025227.491,-17.090,-28.809,-20.996,-9.277,0.000
1714025227.495,-23.438,-22.949,-17.578,-5.859,0.000
1714025227.499,-25.879,-27.344,-14.160,-14.160,0.000
1714025227.503,-31.738,-29.785,-20.508,-20.996,0.000
1714025227.507,-29.785,-24.902,-20.996,-21.484,0.000
1714025227.511,-23.926,-25.879,-20.020,-15.625,0.000
1714025227.515,-29.785,-26.367,-19.531,-30.273,0.000
1714025227.519,-31.250,-23.438,-22.461,-40.527,0.000
1714025227.523,-24.414,-20.996,-24.414,-32.227,0.000
1714025227.527,-21.484,-16.113,-24.414,-19.043,0.000
1714025227.530,-23.926,-16.602,-26.855,-25.879,0.000
1714025227.534,-27.344,-17.090,-22.461,-36.133,0.000
1714025227.538,-27.832,-15.625,-19.043,-27.832,0.000
1714025227.542,-28.809,-21.484,-21.973,-27.832,0.000
1714025227.546,-25.879,-25.879,-31.738,-33.203,0.000
1714025227.550,-26.367,-27.832,-36.621,-44.434,0.000
1714025227.554,-27.832,-28.809,-30.273,-43.457,0.000
1714025227.558,-24.902,-24.902,-27.344,-22.949,0.000
1714025227.562,-32.715,-31.738,-28.320,-26.367,0.000
1714025227.566,-42.969,-33.203,-32.227,-40.039,0.000
1714025227.569,-41.992,-30.273,-37.598,-45.898,0.000
1714025227.573,-36.621,-32.715,-34.180,-46.875,0.000
1714025227.577,-34.180,-27.832,-28.809,-35.645,0.000
1714025227.581,-30.762,-19.043,-27.344,-32.715,0.000
1714025227.585,-35.156,-18.555,-26.367,-41.016,0.000
1714025227.588,-42.969,-26.367,-24.414,-43.457,0.000
1714025227.592,-33.203,-22.461,-26.367,-41.504,0.000
1714025227.596,-32.227,-23.926,-31.250,-41.016,0.000
1714025227.600,-41.504,-32.227,-29.297,-33.203,0.000
1714025227.604,-35.645,-27.344,-28.320,-32.227,0.000
1714025227.608,-28.809,-24.414,-28.809,-39.551,0.000
1714025227.612,-34.180,-29.297,-24.902,-33.691,0.000
1714025227.616,-39.551,-31.738,-20.508,-29.297,0.000
1714025227.619,-39.551,-31.250,-23.438,-37.109,0.000
1714025227.623,-37.109,-32.715,-25.879,-32.227,0.000
1714025227.627,-38.574,-33.691,-23.438,-24.902,0.000
1714025227.631,-35.645,-29.785,-18.555,-29.297,0.000
1714025227.635,-29.297,-29.297,-22.949,-33.203,0.000
1714025227.638,-33.691,-30.273,-31.738,-40.039,0.000
1714025227.642,-33.203,-35.645,-33.203,-36.133,0.000
1714025227.646,-34.180,-39.551,-33.691,-36.133,0.000
1714025227.650,-32.227,-28.809,-28.809,-41.504,0.000
1714025227.654,-26.367,-26.855,-23.926,-45.410,0.000
1714025227.658,-24.414,-30.762,-26.855,-44.922,0.000
1714025227.662,-20.996,-33.203,-24.902,-37.598,0.000
1714025227.665,-17.578,-26.855,-19.043,-32.715,0.000
1714025227.669,-16.602,-22.949,-24.902,-27.832,0.000
1714025227.673,-16.113,-26.367,-26.855,-23.926,0.000
1714025227.677,-23.438,-28.320,-24.902,-33.203,0.000
1714025227.681,-31.250,-27.344,-22.949,-38.574,0.000
1714025227.684,-30.762,-29.785,-25.879,-34.668,0.000
1714025227.688,-30.762,-31.250,-30.273,-28.320,0.000
1714025227.692,-31.250,-30.762,-28.320,-29.785,0.000
1714025227.696,-29.297,-28.809,-25.391,-38.086,0.000
1714025227.700,-31.738,-28.320,-26.855,-37.109,0.000
1714025227.704,-29.297,-27.832,-27.344,-30.273,0.000
1714025227.708,-25.879,-25.879,-23.926,-29.297,0.000
1714025227.711,-26.855,-31.250,-27.344,-36.621,0.000
1714025227.715,-27.832,-29.297,-29.297,-37.598,0.000
1714025227.718,-28.809,-27.344,-24.414,-36.133,0.000
1714025227.722,-29.785,-25.391,-28.809,-27.832,0.000
1714025227.726,-33.203,-25.879,-33.203,-31.738,0.000
1714025227.730,-28.809,-29.297,-30.762,-33.691,0.000
1714025227.734,-31.250,-27.832,-28.809,-29.785,0.000
1714025227.738,-37.109,-31.250,-28.320,-32.227,0.000
1714025227.742,-38.574,-31.250,-27.344,-28.320,0.000
1714025227.746,-39.551,-29.785,-26.855,-30.273,0.000
1714025227.750,-39.062,-31.738,-29.297,-31.250,0.000
1714025227.754,-35.645,-32.715,-28.320,-25.879,0.000
1714025227.760,-28.320,-30.762,-17.090,-20.508,0.000
1714025227.764,-26.367,-30.273,-15.137,-20.020,0.000
1714025227.767,-26.855,-22.949,-21.973,-21.484,0.000
1714025227.771,-26.855,-20.508,-24.414,-23.438,0.000
1714025227.775,-30.762,-24.902,-25.879,-25.879,0.000
1714025227.779,-32.715,-26.855,-27.344,-20.508,0.000
1714025227.783,-33.203,-25.391,-23.438,-22.949,0.000
1714025227.787,-30.273,-20.508,-21.484,-27.832,0.000
1714025227.791,-25.391,-26.367,-20.996,-24.414,0.000
1714025227.795,-25.391,-32.715,-21.973,-27.344,0.000
1714025227.799,-29.297,-23.438,-13.672,-32.227,0.000
1714025227.803,-25.879,-16.602,-12.695,-31.250,0.000
1714025227.807,-24.414,-23.926,-18.555,-29.785,0.000
1714025227.811,-21.484,-27.344,-21.484,-29.297,0.000
1714025227.815,-22.949,-25.391,-24.902,-35.645,0.000
1714025227.819,-22.461,-25.879,-29.785,-38.574,0.000
1714025227.823,-20.020,-27.344,-29.297,-34.668,0.000
1714025227.827,-27.832,-30.762,-24.902,-33.691,0.000
1714025227.831,-30.762,-33.203,-22.949,-39.062,0.000
1714025227.835,-28.320,-33.203,-23.926,-42.480,0.000
1714025227.839,-25.879,-35.645,-25.879,-37.109,0.000
1714025227.843,-21.484,-33.203,-19.531,-24.902,0.000
1714025227.846,-27.832,-32.715,-13.184,-35.156,0.000
1714025227.850,-30.762,-34.668,-24.414,-41.504,0.000
1714025227.855,-24.414,-28.809,-31.250,-35.156,0.000
1714025227.859,-22.949,-28.320,-31.738,-28.320,0.000
1714025227.863,-20.996,-29.785,-32.715,-30.273,0.000
1714025227.867,-24.902,-33.691,-32.715,-38.086,0.000
1714025227.870,-29.785,-34.180,-32.227,-37.598,0.000
1714025227.874,-30.273,-26.367,-29.785,-32.715,0.000
1714025227.878,-25.879,-19.043,-24.414,-26.855,0.000
1714025227.882,-25.391,-15.625,-20.996,-34.180,0.000
1714025227.886,-28.809,-23.926,-22.949,-34.668,0.000
1714025227.890,-29.297,-26.367,-20.020,-30.762,0.000
1714025227.894,-32.227,-22.949,-18.066,-32.227,0.000
1714025227.898,-31.738,-20.996,-18.555,-31.250,0.000
1714025227.902,-31.250,-21.484,-25.391,-31.738,0.000
1714025227.906,-32.227,-24.414,-29.785,-38.086,0.000
1714025227.909,-35.156,-29.297,-29.785,-41.016,0.000
