timestamps,TP9,AF7,AF8,TP10,Right AUX
1714026088.111,-12.695,-18.555,-38.086,-33.203,0.000
1714026088.114,-19.531,-21.973,-37.598,-33.203,0.000
1714026088.118,-14.160,-30.273,-41.016,-28.320,0.000
1714026088.122,-11.230,-31.738,-39.551,-26.367,0.000
1714026088.126,-11.230,-23.438,-33.203,-25.879,0.000
1714026088.130,-14.160,-25.391,-33.203,-25.879,0.000
1714026088.134,-19.043,-32.227,-37.598,-21.973,0.000
1714026088.138,-16.113,-30.273,-35.156,-16.113,0.000
1714026088.142,-13.672,-29.785,-28.320,-20.020,0.000
1714026088.146,-19.043,-29.297,-31.738,-18.555,0.000
1714026088.150,-22.461,-22.949,-40.039,-19.531,0.000
1714026088.154,-26.855,-20.508,-30.273,-25.879,0.000
1714026088.154,-26.855,-20.508,-30.273,-25.879,0.000
1714026088.156,-27.344,-22.949,-17.578,-24.902,0.000
1714026088.160,-30.762,-29.297,-14.648,-26.855,0.000
1714026088.164,-26.855,-35.645,-12.207,-19.531,0.000
1714026088.168,-7.324,-33.691,-18.066,0.488,0.000
1714026088.172,-11.719,-26.367,-27.832,-13.184,0.000
1714026088.175,-37.109,-22.461,-29.785,-47.363,0.000
1714026088.179,-33.691,-19.043,-30.762,-41.016,0.000
1714026088.183,-22.461,-17.090,-31.250,-31.250,0.000
1714026088.187,-22.949,-9.277,-35.156,-37.598,0.000
1714026088.191,-25.879,-2.930,-45.898,-45.898,0.000
1714026088.195,-31.738,-8.301,-50.781,-52.734,0.000
1714026088.199,-28.809,-9.766,-49.805,-48.828,0.000
1714026088.201,-18.066,-10.254,-43.945,-31.738,0.000
1714026088.205,-15.625,-15.625,-35.156,-23.438,0.000
1714026088.209,-20.020,-15.625,-38.086,-31.250,0.000
1714026088.213,-19.531,-14.648,-40.527,-33.203,0.000
1714026088.216,-17.578,-21.484,-41.504,-31.738,0.000
1714026088.220,-22.949,-23.438,-46.387,-32.715,0.000
1714026088.224,-28.809,-19.531,-44.434,-30.762,0.000
1714026088.228,-25.879,-15.625,-39.062,-28.809,0.000
1714026088.232,-23.926,-16.602,-37.598,-28.809,0.000
1714026088.236,-19.043,-19.531,-33.691,-20.508,0.000
1714026088.240,-16.113,-25.391,-28.809,-23.438,0.000
1714026088.244,-9.277,-25.391,-27.344,-34.180,0.000
1714026088.252,-1.465,-22.949,-34.180,-31.738,0.000
1714026088.256,-1.465,-22.461,-35.645,-33.691,0.000
1714026088.260,0.488,-17.090,-32.227,-37.109,0.000
1714026088.264,2.930,-17.578,-33.691,-36.133,0.000
1714026088.268,-5.859,-21.484,-31.250,-31.738,0.000
1714026088.272,-9.277,-20.996,-35.645,-20.996,0.000
1714026088.276,-16.602,-28.320,-39.062,-23.438,0.000
1714026088.279,-23.926,-31.738,-33.691,-29.785,0.000
1714026088.283,-22.461,-29.297,-38.574,-24.414,0.000
1714026088.287,-23.926,-28.809,-42.480,-21.484,0.000
1714026088.291,-18.555,-25.879,-30.273,-23.926,0.000
1714026088.295,-21.484,-26.855,-23.926,-30.273,0.000
1714026088.301,-22.949,-25.879,-34.668,-28.320,0.000
1714026088.305,-24.414,-26.855,-44.922,-26.855,0.000
1714026088.309,-33.691,-30.273,-40.039,-33.203,0.000
1714026088.312,-28.320,-27.832,-35.156,-31.250,0.000
1714026088.316,-26.855,-34.668,-32.715,-25.879,0.000
1714026088.320,-29.785,-38.086,-35.156,-22.461,0.000
1714026088.324,-27.832,-29.785,-39.551,-22.461,0.000
1714026088.328,-21.484,-24.414,-35.156,-26.855,0.000
1714026088.332,-14.160,-25.879,-39.062,-22.949,0.000
1714026088.336,-18.066,-28.320,-41.504,-20.996,0.000
1714026088.340,-22.461,-27.344,-34.180,-25.391,0.000
1714026088.344,-19.531,-26.855,-40.039,-26.855,0.000
1714026088.348,-15.625,-28.320,-39.551,-31.738,0.000
1714026088.352,-21.484,-32.715,-38.574,-39.062,0.000
1714026088.356,-22.949,-35.156,-43.945,-40.527,0.000
1714026088.360,-18.555,-34.668,-38.574,-44.434,0.000
1714026088.364,-20.996,-35.645,-33.691,-39.551,0.000
1714026088.368,-20.020,-31.738,-27.832,-30.273,0.000
1714026088.372,-25.391,-31.250,-29.297,-32.227,0.000
1714026088.376,-25.879,-30.273,-31.250,-39.551,0.000
1714026088.380,-22.949,-27.344,-31.250,-32.715,0.000
1714026088.384,-25.391,-26.855,-32.227,-25.879,0.000
1714026088.387,-22.949,-23.926,-26.367,-29.785,0.000
1714026088.391,-19.043,-26.367,-26.855,-23.926,0.000
1714026088.395,-18.555,-30.273,-30.762,-19.043,0.000
1714026088.399,-19.043,-26.367,-34.668,-25.879,0.000
1714026088.402,-20.996,-25.391,-34.180,-26.855,0.000
1714026088.406,-19.043,-25.879,-28.320,-19.043,0.000
1714026088.410,-18.555,-22.461,-28.809,-23.438,0.000
1714026088.414,-23.926,-23.438,-34.180,-29.297,0.000
1714026088.418,-27.344,-31.250,-31.250,-31.738,0.000
1714026088.422,-14.160,-35.645,-20.020,-16.113,0.000
1714026088.426,-4.395,-24.902,-15.625,-2.441,0.000
1714026088.430,-19.043,-14.648,-20.020,-29.785,0.000
1714026088.434,-23.438,-18.066,-28.809,-35.156,0.000
1714026088.438,-22.461,-21.484,-29.297,-25.879,0.000
1714026088.440,-25.391,-18.066,-25.879,-29.785,0.000
1714026088.444,-27.344,-19.043,-30.762,-37.109,0.000
1714026088.448,-28.320,-20.996,-33.203,-45.898,0.000
1714026088.452,-23.926,-20.996,-30.762,-35.156,0.000
1714026088.456,-26.367,-24.414,-30.273,-30.762,0.000
1714026088.460,-29.297,-24.902,-30.762,-38.086,0.000
1714026088.464,-28.809,-24.414,-31.250,-41.504,0.000
1714026088.468,-31.250,-28.320,-36.133,-42.480,0.000
1714026088.472,-24.902,-21.973,-32.715,-35.645,0.000
1714026088.475,-17.578,-13.184,-22.949,-31.738,0.000
1714026088.479,-16.602,-12.207,-21.484,-32.227,0.000
1714026088.483,-16.113,-18.555,-20.996,-30.762,0.000
1714026088.486,-10.254,-19.043,-17.090,-19.043,0.000
1714026088.490,-9.766,-20.020,-20.996,-20.996,0.000
1714026088.494,-16.113,-24.902,-24.414,-24.902,0.000
1714026088.497,-17.090,-18.066,-15.625,-23.926,0.000
1714026088.501,-14.160,-17.578,-6.836,-23.926,0.000
1714026088.505,-12.207,-20.996,-9.277,-21.973,0.000
1714026088.509,-14.648,-21.484,-16.113,-21.484,0.000
1714026088.513,-14.160,-23.438,-17.090,-23.438,0.000
1714026088.517,-14.648,-20.020,-16.113,-29.297,0.000
1714026088.521,-18.555,-20.020,-23.438,-30.273,0.000
1714026088.525,-20.996,-22.461,-28.320,-34.180,0.000
1714026088.529,-24.902,-23.438,-24.902,-30.762,0.000
1714026088.531,-30.762,-25.391,-20.020,-27.344,0.000
1714026088.535,-28.320,-30.273,-20.508,-24.902,0.000
1714026088.539,-25.879,-31.250,-29.785,-24.414,0.000
1714026088.543,-27.832,-27.344,-33.691,-30.273,0.000
1714026088.547,-28.320,-27.832,-27.344,-28.809,0.000
1714026088.551,-26.367,-28.320,-27.344,-25.879,0.000
1714026088.555,-26.855,-27.344,-35.645,-25.879,0.000
1714026088.559,-26.367,-25.391,-32.715,-27.344,0.000
1714026088.562,-25.879,-22.461,-20.508,-31.738,0.000
1714026088.566,-29.297,-20.508,-21.484,-29.297,0.000
1714026088.570,-29.297,-22.461,-21.484,-28.320,0.000
1714026088.574,-31.738,-26.367,-20.020,-35.156,0.000
1714026088.582,-31.738,-24.902,-19.531,-33.203,0.000
1714026088.586,-28.320,-19.531,-20.020,-25.391,0.000
1714026088.590,-30.762,-21.973,-18.066,-32.227,0.000
1714026088.594,-26.367,-24.902,-17.090,-39.062,0.000
1714026088.598,-23.438,-26.367,-25.879,-39.551,0.000
1714026088.602,-28.320,-32.227,-33.203,-37.598,0.000
1714026088.606,-28.320,-31.250,-28.809,-28.320,0.000
1714026088.610,-23.438,-27.832,-25.391,-28.809,0.000
1714026088.613,-20.996,-29.785,-25.391,-30.762,0.000
1714026088.617,-25.879,-32.227,-23.438,-28.809,0.000
1714026088.621,-27.344,-30.762,-25.391,-30.762,0.000
1714026088.625,-27.832,-29.785,-25.879,-29.785,0.000
1714026088.631,-29.785,-32.227,-25.391,-26.855,0.000
1714026088.635,-36.133,-33.691,-30.273,-31.738,0.000
1714026088.639,-34.668,-26.855,-25.391,-28.809,0.000
1714026088.643,-30.273,-24.414,-25.391,-27.832,0.000
1714026088.647,-32.715,-30.273,-30.273,-37.109,0.000
1714026088.650,-41.016,-27.832,-31.250,-39.551,0.000
1714026088.654,-41.992,-24.414,-24.414,-30.762,0.000
1714026088.658,-34.668,-21.973,-16.113,-27.832,0.000
1714026088.662,-34.180,-20.508,-14.160,-30.762,0.000
1714026088.666,-36.621,-22.949,-21.484,-25.879,0.000
1714026088.670,-36.621,-22.949,-22.949,-25.391,0.000
1714026088.674,-30.762,-21.484,-17.090,-20.508,0.000
1714026088.678,-29.785,-26.855,-19.043,-20.996,0.000
1714026088.682,-33.691,-32.227,-20.996,-26.367,0.000
1714026088.686,-36.133,-33.691,-23.438,-26.367,0.000
1714026088.689,-28.809,-27.832,-24.902,-20.996,0.000
1714026088.693,-17.578,-16.602,-21.484,-15.625,0.000
1714026088.697,-16.602,-12.695,-17.578,-22.461,0.000
1714026088.701,-23.438,-13.184,-17.578,-28.809,0.000
1714026088.705,-31.250,-14.160,-18.555,-28.320,0.000
1714026088.709,-28.809,-16.602,-23.438,-17.090,0.000
1714026088.713,-26.367,-19.531,-24.414,-20.020,0.000
1714026088.717,-25.879,-18.066,-21.484,-27.344,0.000
1714026088.721,-20.020,-19.043,-21.973,-22.461,0.000
1714026088.724,-18.555,-20.020,-25.879,-22.461,0.000
1714026088.728,-15.625,-23.438,-25.391,-22.461,0.000
1714026088.732,-17.090,-24.414,-18.555,-30.273,0.000
1714026088.736,-20.508,-18.066,-19.043,-28.809,0.000
1714026088.740,-22.461,-21.973,-20.996,-23.926,0.000
1714026088.744,-21.973,-24.902,-19.531,-25.391,0.000
1714026088.748,-23.438,-22.461,-20.020,-34.668,0.000
1714026088.752,-31.250,-23.438,-21.484,-37.598,0.000
1714026088.755,-31.250,-25.391,-28.809,-24.414,0.000
1714026088.759,-25.879,-22.949,-31.250,-24.414,0.000
1714026088.763,-25.879,-22.949,-30.273,-33.691,0.000
1714026088.767,-28.809,-25.391,-30.273,-35.645,0.000
1714026088.770,-32.715,-25.879,-30.273,-31.738,0.000
1714026088.774,-28.809,-23.926,-23.438,-25.391,0.000
1714026088.778,-26.367,-20.020,-19.531,-26.855,0.000
1714026088.782,-28.320,-15.625,-16.602,-29.297,0.000
1714026088.786,-27.832,-17.090,-20.508,-26.367,0.000
1714026088.790,-26.855,-19.531,-24.902,-24.902,0.000
1714026088.793,-24.902,-19.043,-21.973,-29.297,0.000
1714026088.797,-26.855,-23.926,-28.809,-34.668,0.000
1714026088.801,-35.156,-30.273,-33.691,-37.598,0.000
1714026088.805,-35.156,-29.297,-28.809,-41.016,0.000
1714026088.809,-34.668,-31.738,-29.785,-38.086,0.000
1714026088.813,-37.598,-29.785,-36.133,-32.227,0.000
1714026088.816,-32.715,-25.391,-36.133,-29.297,0.000
1714026088.820,-36.133,-27.344,-28.320,-30.273,0.000
1714026088.824,-41.504,-26.855,-29.785,-32.715,0.000
1714026088.827,-34.668,-25.391,-32.715,-31.250,0.000
1714026088.831,-33.691,-27.344,-25.391,-34.180,0.000
1714026088.835,-32.227,-24.902,-21.973,-35.156,0.000
1714026088.839,-21.973,-15.625,-24.414,-24.414,0.000
1714026088.843,-21.484,-13.672,-22.461,-22.461,0.000
1714026088.847,-28.320,-17.578,-20.508,-31.738,0.000
1714026088.851,-29.785,-22.949,-30.273,-35.156,0.000
1714026088.855,-25.391,-25.391,-28.320,-29.297,0.000
1714026088.859,-22.461,-20.020,-19.531,-22.461,0.000
1714026088.861,-25.879,-18.555,-23.438,-23.926,0.000
1714026088.865,-30.273,-22.461,-30.762,-25.879,0.000
1714026088.869,-26.367,-23.438,-33.691,-21.973,0.000
1714026088.873,-27.344,-26.367,-34.180,-27.832,0.000
1714026088.877,-28.809,-24.414,-31.738,-35.156,0.000
1714026088.881,-26.855,-27.832,-32.715,-33.691,0.000
1714026088.884,-27.344,-31.738,-33.203,-25.879,0.000
1714026088.888,-29.297,-33.203,-29.297,-25.391,0.000
1714026088.892,-23.926,-29.785,-28.320,-27.344,0.000
1714026088.896,-24.414,-26.855,-26.367,-26.855,0.000
1714026088.900,-23.926,-25.391,-19.531,-25.879,0.000
1714026088.904,-23.926,-27.344,-19.043,-22.949,0.000
1714026088.906,-27.344,-26.855,-26.855,-27.344,0.000
1714026088.910,-26.855,-23.438,-27.832,-29.785,0.000
1714026088.914,-29.785,-28.320,-23.926,-25.879,0.000
1714026088.918,-29.785,-33.203,-25.391,-21.973,0.000
1714026088.922,-27.832,-32.227,-22.949,-27.344,0.000
1714026088.926,-31.250,-31.250,-21.484,-30.762,0.000
1714026088.930,-35.645,-35.156,-25.879,-29.297,0.000
1714026088.934,-31.738,-36.133,-35.156,-26.855,0.000
1714026088.937,-32.227,-31.738,-33.691,-27.832,0.000
1714026088.941,-34.180,-28.809,-25.879,-32.227,0.000
1714026088.945,-29.297,-26.855,-28.809,-32.227,0.000
1714026088.949,-27.832,-27.832,-26.367,-30.762,0.000
1714026088.951,-29.785,-25.879,-21.484,-36.621,0.000
1714026088.955,-29.785,-20.508,-25.879,-37.109,0.000
1714026088.959,-31.250,-24.414,-29.297,-33.203,0.000
1714026088.963,-37.109,-29.785,-28.320,-31.250,0.000
1714026088.967,-33.203,-29.785,-29.785,-33.691,0.000
1714026088.971,-23.926,-28.809,-28.320,-33.203,0.000
1714026088.975,-23.926,-26.367,-24.414,-27.344,0.000
1714026088.979,-28.320,-25.879,-26.855,-27.832,0.000
1714026088.982,-30.762,-26.367,-31.738,-22.949,0.000
1714026088.986,-32.227,-24.902,-26.855,-19.043,0.000
1714026088.990,-37.109,-27.832,-23.926,-27.832,0.000
1714026088.994,-35.156,-24.902,-23.926,-29.297,0.000
1714026089.002,-31.738,-22.949,-22.949,-24.902,0.000
1714026089.006,-31.250,-26.367,-23.926,-26.855,0.000
1714026089.010,-21.973,-20.020,-23.438,-19.531,0.000
1714026089.014,-24.414,-17.090,-27.832,-22.949,0.000
1714026089.018,-29.785,-22.461,-32.227,-35.156,0.000
1714026089.022,-27.832,-28.320,-28.809,-32.227,0.000
1714026089.026,-26.367,-29.297,-27.832,-30.762,0.000
1714026089.030,-23.926,-27.832,-30.273,-31.738,0.000
1714026089.034,-25.391,-27.832,-32.715,-30.762,0.000
1714026089.038,-30.273,-25.391,-35.645,-24.902,0.000
1714026089.041,-27.832,-22.461,-29.297,-24.414,0.000
1714026089.045,-27.344,-21.484,-23.926,-34.668,0.000
1714026089.051,-32.227,-23.926,-26.855,-34.180,0.000
1714026089.055,-33.691,-25.391,-26.367,-24.902,0.000
1714026089.059,-33.691,-24.902,-21.484,-20.508,0.000
1714026089.063,-40.527,-26.367,-24.414,-26.367,0.000
1714026089.067,-39.062,-22.949,-24.902,-26.367,0.000
1714026089.071,-35.156,-27.344,-23.926,-26.367,0.000
1714026089.075,-36.621,-32.715,-27.344,-31.738,0.000
1714026089.078,-34.668,-28.809,-20.020,-27.832,0.000
1714026089.082,-37.598,-29.297,-20.020,-24.414,0.000
1714026089.086,-41.504,-33.203,-26.367,-27.832,0.000
1714026089.090,-41.992,-34.180,-23.438,-23.926,0.000
1714026089.094,-36.621,-34.180,-25.391,-20.508,0.000
1714026089.098,-39.551,-32.715,-29.297,-34.180,0.000
1714026089.102,-42.480,-28.320,-28.320,-37.109,0.000
1714026089.106,-39.551,-29.297,-23.926,-33.203,0.000
1714026089.110,-40.039,-30.762,-26.367,-37.109,0.000
1714026089.114,-40.527,-26.367,-26.367,-33.691,0.000
1714026089.118,-43.457,-23.926,-26.855,-28.320,0.000
1714026089.122,-43.457,-29.297,-25.879,-27.832,0.000
1714026089.126,-36.133,-21.973,-22.461,-25.879,0.000
1714026089.130,-32.715,-15.625,-23.926,-20.020,0.000
1714026089.133,-32.715,-15.625,-25.391,-21.973,0.000
1714026089.137,-33.203,-12.207,-23.438,-23.438,0.000
1714026089.141,-29.785,-11.230,-19.531,-24.414,0.000
1714026089.145,-21.973,-9.766,-20.508,-31.250,0.000
1714026089.149,-23.926,-12.207,-21.484,-34.668,0.000
1714026089.152,-29.785,-17.578,-20.020,-35.156,0.000
1714026089.156,-26.855,-19.043,-20.508,-34.180,0.000
1714026089.160,-20.996,-13.672,-20.996,-35.645,0.000
1714026089.164,-20.020,-14.160,-19.531,-37.109,0.000
1714026089.168,-18.066,-15.625,-14.648,-37.109,0.000
1714026089.172,-3.418,-11.230,-16.113,-26.855,0.000
1714026089.176,2.930,-11.230,-23.438,-22.949,0.000
1714026089.180,-4.883,-12.695,-20.996,-29.297,0.000
1714026089.184,-11.230,-17.090,-25.391,-25.391,0.000
1714026089.188,-15.625,-15.625,-30.762,-22.949,0.000
1714026089.190,-19.043,-14.648,-27.832,-20.020,0.000
1714026089.194,-26.855,-19.043,-28.809,-21.973,0.000
1714026089.198,-32.715,-20.508,-28.320,-28.809,0.000
1714026089.202,-23.926,-19.043,-27.344,-22.461,0.000
1714026089.206,-5.859,-17.578,-25.879,-4.395,0.000
1714026089.210,-9.766,-20.020,-20.508,-3.906,0.000
1714026089.213,-38.574,-21.973,-17.578,-27.832,0.000
1714026089.217,-45.898,-25.879,-21.484,-23.438,0.000
1714026089.221,-34.668,-26.367,-21.484,-12.695,0.000
1714026089.225,-32.715,-34.668,-22.461,-20.508,0.000
1714026089.229,-30.762,-40.039,-19.531,-24.414,0.000
1714026089.233,-24.414,-32.227,-19.043,-17.090,0.000
1714026089.236,-26.367,-34.180,-17.090,-16.113,0.000
1714026089.240,-33.691,-36.621,-11.719,-25.879,0.000
1714026089.244,-34.180,-32.227,-14.648,-27.344,0.000
1714026089.248,-34.180,-31.738,-15.137,-26.367,0.000
1714026089.252,-33.691,-34.668,-14.160,-24.902,0.000
1714026089.255,-30.273,-33.203,-16.113,-23.926,0.000
1714026089.259,-30.273,-29.297,-15.625,-27.344,0.000
1714026089.263,-34.668,-28.320,-13.184,-29.785,0.000
1714026089.267,-33.203,-30.273,-8.301,-25.391,0.000
1714026089.271,-32.715,-32.227,-13.184,-22.949,0.000
1714026089.275,-39.062,-29.785,-20.996,-23.438,0.000
1714026089.279,-39.062,-28.809,-19.043,-20.020,0.000
1714026089.281,-40.527,-28.809,-23.438,-21.973,0.000
1714026089.285,-37.598,-27.344,-30.273,-21.973,0.000
1714026089.289,-33.691,-30.762,-28.320,-19.531,0.000
1714026089.293,-36.133,-35.645,-25.879,-17.578,0.000
1714026089.297,-36.133,-30.762,-25.879,-16.602,0.000
1714026089.301,-32.715,-26.367,-23.926,-18.066,0.000
1714026089.305,-30.762,-24.902,-24.414,-21.484,0.000
1714026089.308,-33.203,-21.484,-21.484,-27.832,0.000
1714026089.312,-36.133,-22.461,-21.484,-33.691,0.000
1714026089.316,-32.227,-28.809,-20.996,-32.227,0.000
1714026089.320,-27.344,-27.344,-15.625,-31.250,0.000
1714026089.324,-28.809,-26.855,-14.648,-34.180,0.000
1714026089.326,-30.762,-27.832,-13.672,-33.691,0.000
1714026089.330,-30.273,-24.902,-10.742,-29.297,0.000
1714026089.334,-27.832,-21.973,-14.160,-26.367,0.000
1714026089.338,-30.762,-21.973,-20.020,-26.855,0.000
1714026089.342,-30.762,-27.344,-18.066,-22.949,0.000
1714026089.346,-26.367,-29.297,-16.113,-17.090,0.000
1714026089.350,-31.250,-30.273,-22.461,-18.555,0.000
1714026089.354,-34.668,-28.320,-21.484,-28.809,0.000
1714026089.358,-32.227,-27.832,-20.508,-29.785,0.000
1714026089.361,-30.273,-29.297,-21.484,-20.996,0.000
1714026089.365,-31.250,-27.344,-17.578,-19.043,0.000
1714026089.369,-28.809,-28.320,-20.996,-20.508,0.000
1714026089.377,-28.809,-28.320,-26.855,-29.785,0.000
1714026089.381,-30.762,-29.297,-26.855,-37.598,0.000
1714026089.385,-24.902,-25.391,-22.461,-25.391,0.000
1714026089.389,-23.438,-19.043,-18.555,-16.602,0.000
1714026089.393,-23.438,-21.973,-21.973,-20.020,0.000
1714026089.397,-30.273,-27.832,-21.484,-25.391,0.000
1714026089.401,-37.109,-29.785,-28.809,-28.809,0.000
1714026089.405,-28.809,-27.344,-32.227,-23.438,0.000
1714026089.409,-26.855,-33.203,-25.879,-23.438,0.000
1714026089.413,-33.203,-40.039,-29.297,-27.344,0.000
1714026089.416,-31.738,-35.156,-26.855,-25.879,0.000
1714026089.420,-25.391,-27.344,-25.391,-24.902,0.000
1714026089.426,-30.273,-27.832,-25.879,-26.855,0.000
1714026089.430,-34.668,-27.344,-29.297,-25.879,0.000
1714026089.434,-26.367,-23.438,-37.598,-23.926,0.000
1714026089.438,-20.996,-22.461,-35.156,-23.926,0.000
1714026089.442,-18.066,-23.438,-28.809,-20.020,0.000
1714026089.445,-20.508,-26.367,-32.227,-21.484,0.000
1714026089.449,-25.879,-24.902,-27.832,-32.227,0.000
1714026089.453,-23.926,-23.438,-22.949,-25.391,0.000
1714026089.457,-25.879,-23.926,-27.344,-13.184,0.000
1714026089.461,-32.715,-27.344,-25.879,-28.320,0.000
1714026089.465,-33.203,-26.367,-19.531,-35.645,0.000
1714026089.469,-32.227,-20.996,-21.484,-30.762,0.000
1714026089.473,-36.621,-25.879,-27.832,-36.621,0.000
1714026089.477,-35.645,-28.320,-22.461,-35.156,0.000
1714026089.481,-35.645,-23.926,-18.066,-34.180,0.000
1714026089.485,-37.598,-20.508,-18.555,-32.715,0.000
1714026089.489,-38.086,-19.531,-23.926,-30.273,0.000
1714026089.493,-40.039,-24.414,-30.762,-34.180,0.000
1714026089.497,-37.109,-24.902,-27.832,-36.133,0.000
1714026089.501,-32.715,-23.438,-23.926,-34.668,0.000
1714026089.504,-28.809,-22.949,-29.297,-28.809,0.000
1714026089.508,-32.715,-18.066,-25.391,-32.715,0.000
1714026089.512,-36.621,-21.973,-20.508,-37.598,0.000
1714026089.516,-34.668,-28.809,-27.832,-31.738,0.000
1714026089.519,-31.738,-28.809,-24.902,-28.809,0.000
1714026089.523,-35.156,-30.762,-27.832,-34.180,0.000
1714026089.527,-41.504,-37.598,-36.133,-43.457,0.000
1714026089.531,-36.621,-36.133,-32.715,-39.551,0.000
1714026089.535,-21.484,-28.320,-28.809,-20.996,0.000
1714026089.539,-25.879,-22.949,-30.273,-27.832,0.000
1714026089.543,-40.527,-22.461,-35.645,-45.410,0.000
1714026089.547,-40.039,-23.926,-41.504,-41.016,0.000
1714026089.550,-35.156,-20.508,-42.969,-32.715,0.000
1714026089.554,-27.832,-13.184,-44.434,-34.180,0.000
1714026089.558,-31.738,-16.113,-45.898,-39.551,0.000
1714026089.562,-31.738,-19.531,-47.852,-39.551,0.000
1714026089.565,-24.414,-20.996,-46.387,-35.645,0.000
1714026089.569,-23.926,-19.043,-41.504,-31.738,0.000
1714026089.573,-22.949,-17.090,-40.527,-29.297,0.000
1714026089.577,-22.949,-18.066,-37.598,-24.902,0.000
1714026089.581,-23.926,-20.020,-37.598,-25.391,0.000
1714026089.584,-18.555,-19.043,-34.668,-29.297,0.000
1714026089.588,-18.555,-22.949,-28.809,-29.785,0.000
1714026089.592,-20.508,-28.809,-34.180,-26.855,0.000
1714026089.596,-22.949,-24.414,-37.598,-30.762,0.000
1714026089.600,-24.414,-25.391,-37.109,-33.691,0.000
1714026089.604,-17.578,-27.832,-33.203,-20.996,0.000
1714026089.608,-11.719,-21.484,-26.855,-15.625,0.000
1714026089.610,-8.789,-20.020,-25.879,-19.531,0.000
1714026089.614,-9.766,-22.461,-29.785,-21.484,0.000
1714026089.618,-11.719,-24.414,-32.715,-16.602,0.000
1714026089.622,-18.555,-31.738,-31.738,-20.020,0.000
1714026089.626,-21.484,-31.738,-30.762,-28.809,0.000
1714026089.630,-20.508,-30.273,-32.227,-28.320,0.000
1714026089.634,-20.996,-29.297,-35.645,-22.949,0.000
1714026089.638,-17.090,-24.902,-35.156,-20.020,0.000
1714026089.641,-20.508,-22.461,-29.297,-29.785,0.000
1714026089.645,-20.996,-20.996,-30.273,-31.738,0.000
1714026089.649,-20.020,-26.855,-37.598,-23.926,0.000
1714026089.653,-23.926,-30.273,-36.133,-20.508,0.000
1714026089.656,-25.391,-27.832,-34.180,-21.484,0.000
1714026089.660,-32.227,-29.785,-39.062,-31.738,0.000
1714026089.664,-37.109,-31.250,-37.109,-35.156,0.000
1714026089.667,-30.762,-32.227,-32.227,-23.438,0.000
1714026089.671,-24.902,-28.809,-19.531,-24.414,0.000
1714026089.675,-26.855,-25.879,-20.020,-33.691,0.000
1714026089.679,-31.250,-27.344,-34.180,-24.902,0.000
1714026089.683,-27.344,-23.926,-29.785,-23.926,0.000
1714026089.687,-22.949,-22.461,-21.973,-37.598,0.000
1714026089.691,-21.484,-22.461,-26.855,-41.016,0.000
1714026089.695,-22.461,-22.949,-27.832,-41.504,0.000
1714026089.699,-29.297,-24.902,-27.344,-39.551,0.000
1714026089.701,-25.879,-23.438,-20.508,-31.250,0.000
1714026089.705,-23.926,-24.902,-22.949,-29.785,0.000
1714026089.709,-29.297,-26.855,-27.344,-33.691,0.000
1714026089.713,-29.785,-26.367,-26.855,-26.855,0.000
1714026089.716,-26.367,-21.484,-27.832,-24.414,0.000
1714026089.720,-27.832,-20.996,-29.297,-29.297,0.000
1714026089.724,-29.785,-20.020,-27.344,-26.855,0.000
1714026089.728,-34.668,-14.648,-27.832,-27.832,0.000
1714026089.732,-38.086,-19.043,-27.832,-31.250,0.000
1714026089.736,-23.926,-20.508,-26.855,-26.367,0.000
1714026089.740,-4.395,-16.602,-26.367,-13.184,0.000
1714026089.744,-22.461,-23.438,-20.020,-22.949,0.000
1714026089.752,-46.387,-31.738,-15.137,-42.480,0.000
1714026089.756,-40.527,-34.668,-17.578,-40.527,0.000
1714026089.760,-35.156,-36.621,-16.113,-31.250,0.000
1714026089.764,-35.156,-35.645,-14.160,-23.926,0.000
1714026089.768,-29.297,-40.527,-10.254,-15.137,0.000
1714026089.772,-36.133,-45.410,-6.348,-17.578,0.000
1714026089.775,-41.016,-45.898,-6.836,-20.508,0.000
1714026089.779,-39.551,-42.480,-0.977,-19.043,0.000
1714026089.783,-28.320,-38.086,3.418,-9.766,0.000
1714026089.787,-26.855,-38.086,-0.977,-1.953,0.000
1714026089.791,-35.645,-36.133,-9.277,-14.648,0.000
1714026089.795,-29.785,-33.691,-6.836,-18.555,0.000
1714026089.800,-29.297,-36.133,-4.395,-16.113,0.000
1714026089.804,-28.320,-35.156,-0.488,-12.207,0.000
1714026089.808,-27.832,-33.691,0.977,-14.160,0.000
1714026089.812,-32.227,-36.621,-7.812,-25.391,0.000
1714026089.816,-33.691,-36.133,-14.648,-23.926,0.000
1714026089.820,-30.273,-33.691,-13.672,-14.648,0.000
1714026089.824,-25.879,-30.762,-6.836,-9.277,0.000
1714026089.828,-25.391,-26.367,-4.395,-13.184,0.000
1714026089.832,-25.879,-24.414,-13.672,-13.184,0.000
1714026089.836,-28.320,-23.438,-19.043,-12.207,0.000
1714026089.840,-27.344,-27.832,-13.672,-18.555,0.000
1714026089.843,-25.391,-36.621,-13.184,-20.996,0.000
1714026089.848,-29.785,-37.598,-18.555,-25.879,0.000
1714026089.852,-29.297,-34.668,-20.020,-25.879,0.000
1714026089.856,-22.461,-31.738,-15.625,-19.531,0.000
1714026089.859,-25.879,-31.250,-14.160,-20.020,0.000
1714026089.863,-26.367,-29.785,-14.648,-22.949,0.000
1714026089.867,-25.879,-23.438,-18.066,-20.020,0.000
1714026089.871,-31.738,-21.484,-21.973,-16.113,0.000
1714026089.875,-36.621,-23.926,-25.391,-21.484,0.000
1714026089.879,-41.992,-27.344,-28.809,-24.902,0.000
1714026089.883,-43.457,-31.250,-28.809,-26.367,0.000
1714026089.887,-39.551,-31.738,-25.391,-20.996,0.000
1714026089.891,-36.621,-32.227,-25.879,-22.949,0.000
1714026089.894,-33.691,-32.227,-25.879,-27.832,0.000
1714026089.898,-30.273,-30.273,-20.020,-21.484,0.000
1714026089.902,-27.832,-29.785,-19.531,-15.625,0.000
1714026089.906,-25.391,-26.855,-19.043,-11.230,0.000
1714026089.910,-26.367,-22.949,-15.625,-18.066,0.000
1714026089.914,-27.832,-26.367,-18.555,-19.531,0.000
1714026089.918,-34.668,-35.156,-26.367,-22.461,0.000
1714026089.922,-36.133,-36.621,-33.691,-26.855,0.000
1714026089.925,-36.621,-35.156,-32.715,-23.926,0.000
1714026089.929,-40.527,-36.133,-30.762,-23.438,0.000
1714026089.933,-37.598,-29.297,-35.156,-20.508,0.000
1714026089.937,-44.434,-29.785,-39.062,-25.879,0.000
1714026089.940,-43.457,-33.203,-32.715,-28.809,0.000
1714026089.944,-41.016,-32.227,-22.949,-28.320,0.000
1714026089.948,-45.898,-33.203,-24.902,-33.203,0.000
1714026089.952,-40.039,-27.344,-21.973,-29.297,0.000
1714026089.956,-39.062,-28.809,-19.531,-29.297,0.000
1714026089.960,-42.480,-34.668,-25.879,-41.504,0.000
1714026089.964,-39.062,-32.715,-28.320,-37.109,0.000
1714026089.967,-32.715,-28.320,-26.367,-20.508,0.000
1714026089.971,-30.273,-29.785,-21.484,-22.461,0.000
1714026089.975,-31.250,-33.691,-19.043,-27.832,0.000
1714026089.979,-31.250,-30.762,-24.414,-31.738,0.000
1714026089.983,-33.691,-31.250,-23.438,-34.668,0.000
1714026089.986,-32.715,-29.785,-18.555,-26.367,0.000
1714026089.990,-27.344,-26.367,-19.043,-27.832,0.000
1714026089.994,-27.344,-31.250,-24.902,-33.203,0.000
1714026089.997,-36.621,-34.668,-30.762,-35.645,0.000
1714026090.001,-36.133,-30.762,-32.715,-29.785,0.000
1714026090.005,-31.250,-31.738,-27.344,-24.902,0.000
1714026090.009,-29.297,-34.668,-22.949,-28.320,0.000
1714026090.013,-28.809,-32.227,-24.902,-25.391,0.000
1714026090.017,-31.738,-30.762,-27.832,-28.320,0.000
1714026090.021,-27.344,-28.809,-31.738,-30.762,0.000
1714026090.025,-24.414,-26.855,-34.668,-39.062,0.000
1714026090.029,-22.461,-22.461,-32.715,-46.387,0.000
1714026090.031,-16.113,-20.508,-33.203,-38.574,0.000
1714026090.035,-13.184,-25.391,-33.691,-29.785,0.000
1714026090.039,-9.277,-28.320,-30.762,-30.273,0.000
1714026090.043,-16.113,-26.367,-28.320,-31.250,0.000
1714026090.047,-20.996,-29.785,-22.949,-29.785,0.000
1714026090.050,-17.578,-25.879,-22.461,-23.438,0.000
1714026090.054,-27.344,-24.414,-29.297,-16.602,0.000
1714026090.058,-39.062,-26.855,-31.738,-29.297,0.000
1714026090.062,-39.062,-26.855,-24.902,-34.668,0.000
1714026090.066,-30.273,-21.973,-21.973,-25.879,0.000
1714026090.070,-23.926,-15.625,-25.391,-30.762,0.000
1714026090.074,-28.809,-20.996,-27.832,-35.156,0.000
1714026090.076,-34.180,-26.855,-33.203,-36.133,0.000
1714026090.080,-28.809,-26.855,-31.250,-29.785,0.000
1714026090.084,-21.973,-25.391,-21.484,-20.996,0.000
1714026090.088,-25.879,-25.879,-21.484,-27.832,0.000
1714026090.091,-27.344,-21.484,-24.414,-32.227,0.000
1714026090.095,-22.949,-20.020,-20.996,-26.367,0.000
1714026090.099,-28.809,-23.926,-27.832,-20.020,0.000
1714026090.103,-34.668,-22.461,-33.203,-23.438,0.000
1714026090.107,-36.133,-22.949,-35.156,-27.344,0.000
1714026090.111,-30.273,-23.438,-31.250,-24.414,0.000
1714026090.115,-24.414,-19.531,-20.508,-20.996,0.000
1714026090.119,-19.043,-20.508,-19.531,-20.508,0.000
1714026090.127,-19.043,-20.508,-18.555,-21.973,0.000
1714026090.131,-23.926,-20.508,-16.113,-20.508,0.000
1714026090.135,-25.879,-22.461,-20.508,-18.555,0.000
1714026090.138,-18.555,-23.438,-26.367,-15.137,0.000
1714026090.142,-11.230,-24.414,-30.762,-13.184,0.000
1714026090.146,-19.531,-24.902,-34.180,-21.484,0.000
1714026090.150,-34.668,-25.391,-36.621,-34.668,0.000
1714026090.154,-35.156,-23.926,-34.668,-37.109,0.000
1714026090.158,-29.297,-27.344,-31.250,-35.645,0.000
1714026090.162,-31.738,-28.320,-38.086,-33.691,0.000
1714026090.166,-29.297,-19.531,-34.180,-29.297,0.000
1714026090.170,-27.344,-22.461,-28.809,-27.344,0.000
1714026090.175,-26.855,-29.785,-31.738,-23.926,0.000
1714026090.179,-24.414,-32.715,-30.762,-21.484,0.000
1714026090.183,-25.391,-34.668,-28.809,-27.832,0.000
1714026090.187,-22.949,-36.621,-25.391,-23.438,0.000
1714026090.191,-22.461,-33.203,-28.809,-14.648,0.000
1714026090.195,-26.367,-27.832,-35.645,-21.973,0.000
1714026090.199,-27.832,-26.855,-31.738,-28.809,0.000
1714026090.203,-25.879,-24.414,-28.320,-23.926,0.000
1714026090.207,-24.902,-21.973,-35.156,-19.043,0.000
1714026090.211,-24.902,-22.461,-31.738,-21.484,0.000
1714026090.215,-29.785,-26.367,-34.180,-31.250,0.000
1714026090.218,-33.203,-30.762,-37.598,-32.227,0.000
1714026090.223,-31.250,-28.320,-30.273,-27.344,0.000
1714026090.227,-33.203,-22.461,-26.855,-27.344,0.000
1714026090.231,-29.297,-23.926,-24.414,-32.227,0.000
1714026090.234,-21.484,-25.391,-23.926,-26.367,0.000
1714026090.238,-28.320,-26.367,-27.832,-24.902,0.000
1714026090.242,-30.273,-20.020,-31.250,-22.949,0.000
1714026090.246,-24.902,-13.672,-24.902,-12.207,0.000
1714026090.250,-30.762,-16.113,-17.090,-17.578,0.000
1714026090.254,-34.180,-18.066,-27.832,-22.461,0.000
1714026090.258,-25.879,-9.766,-24.414,-21.484,0.000
1714026090.262,-30.273,-17.578,-18.555,-28.809,0.000
1714026090.266,-42.480,-36.621,-25.879,-36.133,0.000
1714026090.269,-60.059,-36.133,-23.926,-49.316,0.000
1714026090.273,-77.148,-33.691,-16.602,-62.012,0.000
1714026090.277,-77.148,-32.227,-8.789,-64.453,0.000
1714026090.281,-87.891,-21.484,-11.230,-78.125,0.000
1714026090.285,-112.305,-23.926,-13.184,-100.098,0.000
1714026090.289,-141.113,-36.621,-8.301,-129.883,0.000
1714026090.293,-164.062,-40.039,-0.488,-153.809,0.000
1714026090.297,-171.875,-36.621,-1.465,-157.715,0.000
1714026090.301,-184.082,-30.762,8.789,-168.945,0.000
1714026090.304,-197.266,-28.809,25.391,-185.059,0.000
1714026090.308,-200.684,-20.996,26.855,-195.801,0.000
1714026090.312,-208.008,-18.066,25.879,-204.102,0.000
1714026090.315,-209.961,-26.855,21.484,-202.637,0.000
1714026090.319,-203.125,-36.621,12.207,-193.848,0.000
1714026090.323,-204.590,-28.320,19.043,-195.801,0.000
1714026090.327,-207.520,-21.973,18.066,-204.590,0.000
1714026090.331,-196.289,-28.320,10.254,-196.289,0.000
1714026090.335,-187.500,-32.227,6.836,-187.012,0.000
1714026090.339,-178.223,-25.879,5.371,-175.781,0.000
1714026090.343,-166.016,-12.207,6.836,-159.668,0.000
1714026090.346,-154.297,-3.906,3.418,-155.273,0.000
1714026090.350,-146.973,-14.648,-2.441,-151.367,0.000
1714026090.354,-143.066,-23.438,-15.137,-138.184,0.000
1714026090.358,-129.395,-27.344,-27.344,-124.023,0.000
1714026090.367,-117.676,-25.391,-32.715,-121.582,0.000
1714026090.371,-115.234,-18.555,-36.133,-119.629,0.000
1714026090.374,-102.051,-21.484,-35.645,-102.051,0.000
1714026090.378,-86.914,-22.461,-37.598,-93.262,0.000
1714026090.382,-79.590,-17.578,-43.457,-92.285,0.000
1714026090.386,-71.777,-17.090,-43.457,-76.172,0.000
1714026090.390,-65.918,-17.578,-48.340,-59.082,0.000
1714026090.394,-61.035,-20.508,-54.688,-49.805,0.000
1714026090.398,-56.152,-25.391,-49.316,-52.246,0.000
1714026090.402,-51.270,-25.391,-47.363,-54.199,0.000
1714026090.406,-45.410,-23.926,-48.828,-46.875,0.000
1714026090.410,-30.273,-27.832,-54.199,-34.180,0.000
1714026090.409,-23.926,-26.855,-56.152,-30.273,0.000
1714026090.413,-24.902,-22.949,-58.105,-32.715,0.000
1714026090.417,-13.184,-23.926,-58.105,-20.020,0.000
1714026090.421,-3.418,-17.090,-50.781,-6.348,0.000
1714026090.425,1.465,-14.648,-53.711,-6.348,0.000
1714026090.429,-0.488,-23.438,-62.988,-10.742,0.000
1714026090.433,-5.859,-27.344,-57.617,-11.230,0.000
1714026090.437,-1.465,-23.926,-44.922,-9.766,0.000
1714026090.441,2.441,-18.066,-41.016,-0.977,0.000
1714026090.445,3.418,-17.578,-44.434,1.953,0.000
1714026090.448,4.395,-20.508,-49.316,3.906,0.000
1714026090.452,4.883,-16.602,-44.434,11.230,0.000
1714026090.453,5.859,-20.020,-42.480,10.254,0.000
1714026090.457,2.441,-29.297,-47.852,1.465,0.000
1714026090.461,4.395,-20.996,-51.758,-5.859,0.000
1714026090.465,6.836,-15.625,-47.852,-0.488,0.000
1714026090.469,8.301,-28.320,-43.945,-1.953,0.000
1714026090.473,9.277,-35.645,-50.293,-1.953,0.000
1714026090.477,-0.488,-25.879,-56.641,-3.418,0.000
1714026090.481,-3.418,-22.949,-54.688,-6.836,0.000
1714026090.485,-2.441,-22.461,-51.758,-3.418,0.000
1714026090.488,0.488,-18.066,-51.270,1.953,0.000
1714026090.492,0.977,-18.066,-47.363,-2.930,0.000
1714026090.496,-1.953,-19.531,-50.293,-4.883,0.000
1714026090.503,5.371,-20.020,-47.363,3.906,0.000
1714026090.507,7.812,-19.531,-39.062,4.883,0.000
1714026090.511,3.418,-22.461,-42.480,7.324,0.000
1714026090.515,-5.859,-28.320,-45.410,1.465,0.000
1714026090.519,-5.371,-27.832,-38.086,0.000,0.000
1714026090.523,4.883,-22.461,-37.109,6.348,0.000
1714026090.527,-2.930,-21.973,-39.551,1.953,0.000
1714026090.531,-12.207,-27.344,-41.504,-7.812,0.000
1714026090.535,-13.184,-30.273,-46.875,-4.883,0.000
1714026090.539,-10.742,-29.297,-43.945,3.418,0.000
1714026090.543,-7.812,-27.832,-35.156,-1.465,0.000
1714026090.546,-10.254,-25.879,-33.691,-2.441,0.000
1714026090.552,-13.672,-22.461,-36.133,-3.906,0.000
1714026090.556,-10.254,-20.020,-41.016,-11.230,0.000
1714026090.559,-7.324,-19.531,-39.551,-8.789,0.000
1714026090.563,-7.812,-26.855,-35.645,-9.766,0.000
1714026090.567,-7.812,-34.180,-39.551,-6.348,0.000
1714026090.571,-10.742,-30.762,-40.039,0.000,0.000
1714026090.575,-12.207,-32.715,-30.273,-2.930,0.000
1714026090.579,-9.277,-32.227,-30.273,-14.648,0.000
1714026090.583,-15.137,-30.273,-40.039,-19.531,0.000
1714026090.587,-22.461,-25.391,-38.086,-6.348,0.000
1714026090.591,-17.090,-19.531,-28.320,-5.859,0.000
1714026090.595,-15.625,-25.391,-31.250,-14.648,0.000
1714026090.598,-17.578,-27.832,-38.086,-16.602,0.000
1714026090.602,-14.160,-19.531,-40.039,-15.137,0.000
1714026090.606,-17.090,-20.508,-36.133,-13.184,0.000
1714026090.610,-25.391,-23.926,-30.762,-15.137,0.000
1714026090.614,-27.344,-25.391,-28.320,-15.137,0.000
1714026090.618,-23.438,-30.273,-30.762,-14.648,0.000
1714026090.622,-19.531,-25.879,-27.344,-17.090,0.000
1714026090.626,-19.043,-16.113,-25.879,-15.137,0.000
1714026090.630,-17.578,-19.043,-25.391,-11.230,0.000
1714026090.634,-20.508,-21.973,-20.996,-13.184,0.000
1714026090.638,-32.227,-19.043,-20.996,-22.949,0.000
1714026090.641,-36.621,-20.508,-25.879,-29.785,0.000
1714026090.645,-31.738,-20.996,-24.902,-26.367,0.000
1714026090.649,-30.273,-23.926,-23.926,-29.785,0.000
1714026090.652,-29.785,-23.438,-24.414,-27.344,0.000
1714026090.656,-27.344,-17.090,-24.414,-16.113,0.000
1714026090.660,-22.949,-15.137,-23.438,-18.066,0.000
1714026090.664,-22.949,-16.602,-20.020,-25.391,0.000
1714026090.668,-24.902,-23.438,-17.090,-27.832,0.000
1714026090.672,-28.320,-22.949,-21.973,-23.926,0.000
1714026090.676,-28.809,-23.438,-25.391,-22.461,0.000
1714026090.680,-29.785,-29.297,-20.996,-27.344,0.000
1714026090.684,-31.250,-24.414,-24.414,-22.461,0.000
1714026090.688,-23.438,-21.973,-23.438,-13.184,0.000
1714026090.690,-19.043,-26.367,-15.625,-12.207,0.000
1714026090.694,-21.484,-24.902,-16.113,-19.531,0.000
1714026090.698,-22.461,-23.438,-17.090,-23.926,0.000
1714026090.702,-22.949,-26.367,-15.625,-20.996,0.000
1714026090.706,-25.879,-25.879,-16.602,-23.438,0.000
1714026090.710,-23.438,-20.020,-24.414,-30.273,0.000
1714026090.714,-11.230,-16.602,-24.902,-18.066,0.000
1714026090.718,-13.672,-20.996,-23.438,-7.812,0.000
1714026090.722,-32.715,-24.414,-20.996,-24.414,0.000
1714026090.726,-32.227,-23.438,-17.090,-24.414,0.000
1714026090.729,-30.762,-23.438,-23.438,-20.508,0.000
1714026090.733,-40.039,-21.973,-24.902,-32.227,0.000
1714026090.736,-45.410,-21.973,-25.879,-39.551,0.000
1714026090.740,-44.434,-24.902,-29.297,-41.992,0.000
1714026090.743,-39.551,-27.832,-32.715,-42.480,0.000
1714026090.747,-44.434,-23.438,-36.133,-41.992,0.000
1714026090.751,-43.945,-25.391,-30.273,-37.109,0.000
1714026090.755,-41.992,-36.621,-30.273,-35.645,0.000
1714026090.759,-41.504,-36.133,-39.551,-32.715,0.000
1714026090.763,-38.086,-34.180,-34.668,-24.902,0.000
1714026090.767,-33.203,-25.391,-28.320,-24.902,0.000
1714026090.771,-27.832,-21.484,-30.273,-26.855,0.000
1714026090.775,-27.344,-19.043,-24.414,-30.273,0.000
1714026090.779,-26.855,-11.719,-28.320,-33.203,0.000
1714026090.781,-33.691,-17.578,-32.715,-29.785,0.000
1714026090.785,-36.621,-24.902,-29.297,-27.832,0.000
1714026090.789,-36.621,-28.320,-30.273,-33.691,0.000
1714026090.793,-36.621,-28.809,-31.738,-31.250,0.000
1714026090.797,-32.715,-29.297,-30.762,-32.715,0.000
1714026090.800,-33.691,-32.715,-35.645,-35.645,0.000
1714026090.804,-29.785,-28.320,-32.227,-22.949,0.000
1714026090.808,-20.020,-19.043,-12.695,-17.090,0.000
1714026090.812,-12.695,-17.578,-14.648,-23.926,0.000
1714026090.816,-11.719,-24.902,-28.809,-24.902,0.000
1714026090.820,-11.719,-27.344,-33.203,-26.367,0.000
1714026090.824,-7.324,-25.391,-33.691,-25.391,0.000
1714026090.827,-4.883,-25.879,-30.762,-24.902,0.000
1714026090.830,-2.930,-19.531,-27.832,-20.020,0.000
1714026090.834,-6.836,-23.438,-24.414,-17.090,0.000
1714026090.838,-14.648,-26.367,-25.391,-20.508,0.000
1714026090.842,-16.602,-15.137,-24.414,-15.137,0.000
1714026090.846,-20.508,-13.672,-20.020,0.977,0.000
1714026090.850,-24.414,-18.555,-23.438,-0.977,0.000
1714026090.854,-26.855,-21.484,-22.949,-13.184,0.000
1714026090.858,-24.414,-18.555,-22.461,-16.602,0.000
1714026090.862,-22.461,-12.207,-22.949,-15.137,0.000
1714026090.866,-26.855,-16.113,-17.090,-14.160,0.000
1714026090.870,-30.762,-21.973,-14.648,-21.973,0.000
1714026090.883,-32.227,-27.344,-20.020,-23.438,0.000
1714026090.887,-32.715,-29.297,-20.020,-24.902,0.000
1714026090.891,-31.250,-28.809,-19.531,-24.902,0.000
1714026090.895,-28.320,-26.367,-26.367,-23.926,0.000
1714026090.899,-29.297,-23.438,-25.879,-25.879,0.000
1714026090.903,-33.691,-23.926,-33.203,-27.344,0.000
1714026090.907,-31.738,-19.531,-37.598,-27.832,0.000
1714026090.911,-33.691,-20.996,-26.367,-29.297,0.000
1714026090.914,-36.133,-29.785,-28.320,-31.250,0.000
1714026090.918,-37.598,-27.832,-25.879,-33.203,0.000
1714026090.922,-37.109,-23.438,-13.672,-30.762,0.000
1714026090.926,-27.832,-23.438,-16.113,-22.949,0.000
1714026090.930,-25.391,-26.367,-22.461,-24.902,0.000
1714026090.933,-30.762,-29.785,-22.461,-28.320,0.000
1714026090.937,-32.227,-25.391,-16.113,-23.926,0.000
1714026090.941,-20.020,-19.531,-15.625,-19.531,0.000
1714026090.945,-20.996,-20.020,-19.043,-20.020,0.000
1714026090.949,-41.504,-27.832,-17.578,-31.250,0.000
1714026090.953,-48.828,-27.832,-12.695,-35.645,0.000
1714026090.957,-39.062,-29.297,-9.766,-29.785,0.000
1714026090.961,-37.109,-33.203,-12.207,-34.180,0.000
1714026090.965,-41.992,-29.785,-15.625,-42.480,0.000
1714026090.969,-39.062,-27.344,-28.320,-35.156,0.000
1714026090.973,-35.645,-29.785,-28.809,-28.809,0.000
1714026090.975,-33.203,-35.645,-22.461,-23.926,0.000
1714026090.979,-29.297,-34.668,-16.602,-19.043,0.000
1714026090.983,-29.785,-26.855,-9.277,-26.367,0.000
1714026090.987,-31.738,-26.367,-14.648,-25.879,0.000
1714026090.991,-33.691,-29.297,-22.461,-24.414,0.000
1714026090.995,-40.527,-28.809,-30.762,-30.762,0.000
1714026090.999,-44.922,-28.809,-26.855,-31.250,0.000
1714026091.003,-40.527,-26.855,-27.344,-31.250,0.000
1714026091.007,-41.016,-28.320,-29.297,-30.762,0.000
1714026091.011,-37.109,-27.344,-20.508,-29.297,0.000
1714026091.015,-33.691,-19.531,-20.508,-27.344,0.000
1714026091.018,-35.645,-21.484,-20.996,-28.320,0.000
1714026091.021,-32.227,-27.832,-20.020,-26.855,0.000
1714026091.025,-28.320,-25.391,-20.508,-17.090,0.000
1714026091.029,-26.367,-24.902,-13.184,-19.043,0.000
1714026091.032,-27.832,-30.762,-11.719,-22.461,0.000
1714026091.036,-22.949,-25.879,-12.695,-15.625,0.000
1714026091.040,-20.020,-19.043,-14.160,-11.719,0.000
1714026091.044,-24.902,-16.602,-19.043,-16.602,0.000
1714026091.048,-28.320,-14.648,-20.020,-20.996,0.000
1714026091.052,-25.391,-20.020,-15.625,-13.184,0.000
1714026091.056,-18.555,-23.926,-11.230,-8.301,0.000
1714026091.060,-17.578,-16.113,-10.742,-13.184,0.000
1714026091.064,-22.949,-18.555,-14.160,-17.578,0.000
1714026091.066,-23.926,-27.344,-13.672,-18.066,0.000
1714026091.070,-30.273,-33.203,-10.742,-24.902,0.000
1714026091.074,-35.156,-33.691,-20.020,-32.715,0.000
1714026091.078,-35.156,-28.320,-22.461,-30.273,0.000
1714026091.082,-38.086,-29.297,-18.555,-31.250,0.000
1714026091.086,-35.156,-29.785,-22.461,-34.180,0.000
1714026091.089,-29.785,-22.461,-30.273,-36.621,0.000
1714026091.093,-35.645,-25.879,-38.086,-41.992,0.000
1714026091.097,-43.945,-30.273,-35.645,-42.480,0.000
1714026091.101,-37.109,-28.320,-32.227,-39.551,0.000
1714026091.105,-33.691,-28.320,-29.785,-41.504,0.000
1714026091.109,-35.645,-25.391,-31.738,-40.527,0.000
1714026091.111,-34.668,-28.320,-32.227,-36.621,0.000
1714026091.115,-34.668,-30.273,-27.344,-44.922,0.000
1714026091.119,-32.715,-30.273,-30.273,-42.480,0.000
1714026091.123,-29.297,-33.203,-30.273,-36.621,0.000
1714026091.127,-28.809,-26.855,-18.555,-34.180,0.000
1714026091.131,-33.203,-29.297,-14.160,-36.133,0.000
1714026091.135,-36.133,-36.133,-26.367,-34.668,0.000
1714026091.139,-35.645,-33.203,-33.691,-24.902,0.000
1714026091.143,-36.133,-29.297,-36.133,-38.086,0.000
1714026091.146,-30.273,-25.879,-37.109,-45.410,0.000
1714026091.150,-20.020,-22.949,-37.598,-31.738,0.000
1714026091.154,-20.508,-20.508,-34.668,-24.414,0.000
1714026091.156,-25.879,-22.461,-30.762,-30.762,0.000
1714026091.160,-20.508,-23.926,-17.090,-32.227,0.000
1714026091.164,-22.461,-24.414,-16.113,-24.902,0.000
1714026091.168,-25.879,-25.391,-31.250,-20.996,0.000
1714026091.172,-25.879,-23.926,-34.668,-20.020,0.000
1714026091.176,-29.297,-22.949,-39.551,-27.832,0.000
1714026091.180,-32.227,-29.297,-37.598,-28.809,0.000
1714026091.184,-32.227,-30.762,-28.320,-26.367,0.000
1714026091.188,-33.203,-19.043,-19.043,-31.738,0.000
1714026091.191,-33.691,-20.508,-19.531,-30.762,0.000
1714026091.195,-31.738,-27.832,-27.344,-24.414,0.000
1714026091.199,-32.227,-22.461,-29.297,-20.508,0.000
1714026091.201,-29.785,-26.855,-34.668,-20.508,0.000
1714026091.205,-29.297,-25.879,-35.156,-21.973,0.000
1714026091.209,-36.621,-20.508,-27.344,-22.949,0.000
1714026091.213,-35.645,-24.414,-22.461,-17.090,0.000
1714026091.217,-34.668,-25.391,-22.461,-15.137,0.000
1714026091.221,-36.133,-27.832,-23.926,-18.555,0.000
1714026091.225,-37.109,-26.855,-33.203,-25.879,0.000
1714026091.228,-44.434,-24.902,-42.480,-32.715,0.000
1714026091.232,-42.480,-24.902,-31.250,-31.250,0.000
1714026091.236,-42.969,-28.320,-24.902,-34.180,0.000
1714026091.240,-47.363,-29.785,-22.461,-41.992,0.000
1714026091.244,-40.527,-20.996,-8.789,-44.922,0.000
1714026091.252,-46.875,-24.902,-17.578,-45.898,0.000
1714026091.256,-58.594,-40.527,-26.855,-50.781,0.000
1714026091.260,-65.430,-41.016,-29.297,-62.988,0.000
1714026091.263,-69.824,-30.762,-25.391,-74.707,0.000
1714026091.267,-65.430,-26.367,-22.949,-66.895,0.000
1714026091.271,-70.312,-29.297,-23.438,-66.406,0.000
1714026091.275,-86.914,-30.762,-17.090,-83.496,0.000
1714026091.279,-100.098,-28.320,-16.113,-97.656,0.000
1714026091.283,-112.305,-27.344,-11.719,-106.445,0.000
1714026091.287,-120.605,-31.250,-10.742,-104.980,0.000
1714026091.291,-114.746,-33.691,-8.301,-109.863,0.000
1714026091.295,-119.629,-32.227,-5.859,-120.605,0.000
1714026091.300,-119.629,-26.367,0.488,-113.770,0.000
1714026091.304,-107.422,-24.414,0.000,-102.051,0.000
1714026091.308,-109.375,-25.391,1.465,-107.422,0.000
1714026091.312,-112.793,-26.855,3.906,-111.816,0.000
1714026091.316,-106.934,-24.414,0.977,-99.609,0.000
1714026091.320,-98.633,-26.855,5.859,-92.773,0.000
1714026091.324,-88.867,-29.785,0.488,-91.309,0.000
1714026091.328,-83.008,-28.320,-5.371,-87.402,0.000
1714026091.332,-83.496,-31.738,-8.789,-82.520,0.000
1714026091.336,-75.684,-26.367,-13.184,-71.777,0.000
1714026091.340,-66.895,-23.926,-12.207,-67.383,0.000
1714026091.343,-63.965,-31.738,-10.254,-73.242,0.000
1714026091.348,-63.965,-33.203,-18.066,-64.453,0.000
1714026091.352,-56.641,-27.344,-23.438,-54.688,0.000
1714026091.356,-43.945,-20.996,-15.625,-48.828,0.000
1714026091.359,-34.180,-18.555,-10.742,-34.180,0.000
1714026091.363,-35.156,-26.855,-21.484,-30.273,0.000
1714026091.367,-41.016,-40.039,-35.156,-30.273,0.000
1714026091.371,-32.715,-41.504,-31.738,-24.414,0.000
1714026091.375,-24.414,-41.504,-32.227,-24.902,0.000
1714026091.379,-22.949,-34.668,-41.992,-25.879,0.000
1714026091.383,-16.602,-26.855,-34.180,-19.531,0.000
1714026091.387,-13.672,-31.250,-24.414,-19.043,0.000
1714026091.391,-14.648,-30.762,-31.738,-15.137,0.000
1714026091.394,-10.254,-28.320,-29.785,-10.742,0.000
1714026091.398,-11.719,-27.344,-26.855,-16.113,0.000
1714026091.402,-9.766,-28.320,-34.668,-3.418,0.000
1714026091.406,-2.441,-28.809,-33.691,9.277,0.000
1714026091.410,0.488,-21.973,-30.273,8.301,0.000
1714026091.414,0.977,-18.555,-29.297,11.719,0.000
1714026091.418,-5.371,-21.484,-31.738,4.883,0.000
1714026091.422,-7.812,-30.273,-42.480,2.441,0.000
1714026091.426,6.836,-29.297,-43.945,13.184,0.000
1714026091.429,6.836,-26.367,-36.133,6.836,0.000
1714026091.433,-2.441,-30.762,-35.156,3.906,0.000
1714026091.437,1.953,-28.809,-40.039,9.766,0.000
1714026091.440,3.418,-28.809,-41.504,6.348,0.000
1714026091.444,-1.953,-28.320,-38.086,-7.324,0.000
1714026091.448,-3.418,-25.391,-43.945,-7.324,0.000
1714026091.452,-1.953,-32.227,-42.969,5.371,0.000
1714026091.456,-5.859,-35.645,-41.504,3.418,0.000
1714026091.460,-2.441,-27.832,-45.410,-1.465,0.000
1714026091.463,2.930,-19.043,-37.109,3.906,0.000
1714026091.467,0.977,-17.090,-38.086,13.672,0.000
1714026091.471,2.441,-16.113,-38.574,9.277,0.000
1714026091.475,-1.953,-19.043,-27.344,2.441,0.000
1714026091.479,-1.465,-13.672,-23.438,3.906,0.000
1714026091.483,-3.906,-8.789,-35.645,-3.906,0.000
1714026091.486,-2.441,-10.742,-37.598,-1.465,0.000
1714026091.489,-0.977,-18.066,-36.133,4.395,0.000
1714026091.493,-7.812,-23.926,-45.410,0.488,0.000
1714026091.497,-5.859,-16.113,-35.156,5.859,0.000
1714026091.501,-6.348,-19.043,-31.250,4.395,0.000
1714026091.505,-2.930,-20.508,-39.551,-1.953,0.000
1714026091.509,-4.395,-19.531,-36.621,-0.488,0.000
1714026091.513,-10.742,-18.555,-38.086,1.465,0.000
1714026091.517,-4.395,-13.672,-38.574,2.930,0.000
1714026091.521,-3.906,-21.484,-24.414,7.324,0.000
1714026091.525,-8.301,-21.484,-27.344,0.488,0.000
1714026091.528,-8.789,-16.602,-36.621,-6.836,0.000
1714026091.531,-9.766,-18.066,-25.879,-5.859,0.000
1714026091.535,-9.766,-16.113,-21.973,-0.488,0.000
1714026091.539,-12.695,-14.160,-24.414,0.977,0.000
1714026091.543,-19.043,-20.020,-23.438,-2.441,0.000
1714026091.547,-21.484,-20.996,-27.832,-1.953,0.000
1714026091.551,-18.066,-17.090,-29.297,-0.977,0.000
1714026091.554,-18.066,-25.879,-36.621,0.488,0.000
1714026091.558,-19.043,-26.855,-32.715,-5.859,0.000
1714026091.562,-20.996,-20.996,-22.949,-7.324,0.000
1714026091.566,-22.949,-21.973,-27.344,-3.906,0.000
1714026091.570,-26.367,-23.926,-28.809,-12.695,0.000
1714026091.574,-23.438,-25.879,-27.344,-11.719,0.000
1714026091.576,-22.461,-25.391,-25.391,-6.836,0.000
1714026091.580,-31.738,-29.785,-25.879,-3.906,0.000
1714026091.584,-26.367,-30.273,-30.273,-5.371,0.000
1714026091.588,-28.809,-32.715,-28.809,-19.531,0.000
1714026091.592,-41.016,-38.574,-30.762,-26.367,0.000
1714026091.596,-40.527,-35.156,-33.203,-24.414,0.000
1714026091.600,-37.109,-30.762,-34.180,-23.438,0.000
1714026091.604,-28.320,-28.320,-28.320,-19.043,0.000
1714026091.607,-25.391,-30.273,-21.484,-20.996,0.000
1714026091.611,-32.715,-30.762,-28.320,-22.949,0.000
1714026091.615,-37.109,-30.762,-27.832,-21.484,0.000
1714026091.619,-34.180,-36.621,-24.902,-29.297,0.000
1714026091.627,-29.785,-34.668,-34.668,-26.855,0.000
1714026091.631,-37.598,-26.367,-43.457,-20.020,0.000
1714026091.635,-37.109,-27.344,-38.086,-20.508,0.000
1714026091.639,-33.691,-30.273,-40.527,-23.926,0.000
1714026091.643,-29.785,-34.180,-42.969,-20.020,0.000
1714026091.647,-26.855,-31.738,-30.762,-8.301,0.000
1714026091.651,-30.762,-22.949,-30.273,-6.348,0.000
1714026091.655,-27.344,-21.484,-37.598,-14.648,0.000
1714026091.658,-24.902,-23.926,-40.039,-23.926,0.000
1714026091.662,-18.066,-20.020,-41.016,-29.785,0.000
1714026091.666,-12.207,-15.137,-34.668,-27.832,0.000
1714026091.670,-12.695,-16.602,-33.691,-18.066,0.000
1714026091.676,-7.812,-21.973,-38.086,-15.137,0.000
1714026091.679,-4.883,-23.926,-36.133,-24.414,0.000
1714026091.683,-9.277,-21.484,-35.156,-21.484,0.000
1714026091.687,-12.207,-24.414,-36.621,-13.672,0.000
1714026091.691,-13.184,-24.902,-39.551,-20.020,0.000
1714026091.695,-20.020,-26.855,-32.227,-26.855,0.000
1714026091.699,-24.414,-27.832,-28.809,-20.508,0.000
1714026091.703,-23.438,-21.973,-32.227,-14.648,0.000
1714026091.707,-22.949,-22.461,-28.809,-12.695,0.000
1714026091.711,-27.832,-28.320,-24.414,-13.672,0.000
1714026091.715,-34.180,-27.344,-28.320,-21.973,0.000
1714026091.719,-35.156,-20.996,-42.480,-15.137,0.000
1714026091.723,-33.203,-23.926,-44.922,-12.695,0.000
1714026091.727,-30.762,-28.320,-34.180,-25.391,0.000
1714026091.731,-27.832,-25.879,-24.902,-28.320,0.000
1714026091.735,-26.855,-29.785,-14.160,-15.625,0.000
1714026091.739,-27.832,-37.109,-22.949,-14.648,0.000
1714026091.743,-29.785,-37.109,-31.250,-18.555,0.000
1714026091.746,-28.809,-32.227,-25.391,-16.602,0.000
1714026091.750,-24.902,-23.926,-26.367,-13.672,0.000
1714026091.754,-21.973,-20.996,-21.484,-7.324,0.000
1714026091.758,-24.902,-25.879,-16.602,-5.859,0.000
1714026091.762,-23.926,-21.484,-22.461,-7.324,0.000
1714026091.766,-23.438,-20.020,-26.367,-5.859,0.000
1714026091.769,-28.809,-20.996,-27.344,-13.184,0.000
1714026091.773,-28.320,-19.043,-19.531,-16.602,0.000
1714026091.777,-24.902,-24.902,-20.020,-20.508,0.000
1714026091.781,-21.973,-22.949,-25.391,-23.438,0.000
1714026091.785,-24.414,-22.461,-14.160,-20.020,0.000
1714026091.789,-23.926,-26.855,-19.531,-15.625,0.000
1714026091.793,-20.508,-24.414,-30.273,-17.578,0.000
1714026091.797,-24.902,-29.297,-32.227,-22.949,0.000
1714026091.800,-31.250,-40.527,-27.832,-24.902,0.000
1714026091.804,-23.926,-36.621,-20.508,-23.438,0.000
1714026091.808,-22.461,-27.344,-17.578,-19.531,0.000
1714026091.812,-25.879,-22.461,-17.090,-19.531,0.000
1714026091.815,-20.508,-23.438,-30.762,-17.090,0.000
1714026091.819,-24.414,-25.879,-35.156,-16.113,0.000
1714026091.823,-33.203,-29.785,-31.738,-22.949,0.000
1714026091.827,-30.273,-37.598,-29.297,-28.320,0.000
1714026091.831,-27.344,-34.668,-31.250,-26.855,0.000
1714026091.835,-25.391,-22.949,-22.949,-21.973,0.000
1714026091.839,-20.020,-21.484,-8.301,-22.461,0.000
1714026091.843,-20.508,-26.367,-19.531,-19.043,0.000
1714026091.846,-27.832,-29.785,-42.480,-30.273,0.000
1714026091.850,-28.320,-29.785,-36.621,-39.062,0.000
1714026091.854,-26.855,-27.344,-20.508,-29.785,0.000
1714026091.858,-29.785,-31.738,-23.438,-33.203,0.000
1714026091.861,-29.297,-28.320,-26.367,-30.762,0.000
1714026091.865,-22.461,-18.066,-23.926,-23.926,0.000
1714026091.869,-22.949,-20.508,-22.461,-22.461,0.000
1714026091.873,-27.344,-26.367,-20.020,-23.926,0.000
1714026091.877,-22.949,-23.926,-18.555,-23.438,0.000
1714026091.881,-19.531,-17.090,-23.438,-22.949,0.000
1714026091.885,-19.531,-16.113,-27.344,-18.066,0.000
1714026091.888,-18.555,-23.438,-26.367,-18.066,0.000
1714026091.892,-18.066,-25.391,-21.973,-29.785,0.000
1714026091.896,-24.414,-27.832,-20.020,-36.133,0.000
1714026091.900,-28.320,-28.809,-28.320,-37.598,0.000
1714026091.904,-25.879,-20.996,-25.879,-32.715,0.000
1714026091.906,-24.902,-22.949,-13.672,-32.227,0.000
1714026091.910,-24.902,-22.949,-14.160,-31.250,0.000
1714026091.914,-23.438,-15.137,-22.949,-27.832,0.000
1714026091.918,-23.926,-12.207,-27.344,-30.762,0.000
1714026091.922,-21.484,-17.090,-28.320,-30.762,0.000
1714026091.926,-20.020,-22.461,-25.391,-29.785,0.000
1714026091.930,-22.461,-23.438,-22.461,-24.902,0.000
1714026091.934,-23.926,-24.902,-18.066,-23.926,0.000
1714026091.938,-23.438,-20.996,-20.508,-29.785,0.000
1714026091.941,-22.949,-18.555,-25.879,-30.273,0.000
1714026091.945,-23.926,-22.461,-20.508,-34.180,0.000
1714026091.949,-21.484,-22.949,-15.625,-33.691,0.000
1714026091.951,-22.949,-22.949,-16.602,-30.762,0.000
1714026091.955,-23.438,-26.855,-17.578,-30.762,0.000
1714026091.959,-25.879,-28.809,-22.461,-30.273,0.000
1714026091.963,-26.855,-30.762,-15.625,-25.879,0.000
1714026091.967,-28.809,-29.785,-9.766,-26.367,0.000
1714026091.971,-29.297,-30.762,-14.648,-25.879,0.000
1714026091.975,-30.762,-29.785,-17.578,-24.414,0.000
1714026091.979,-30.273,-19.531,-26.855,-25.391,0.000
1714026091.983,-26.855,-16.602,-27.344,-23.926,0.000
1714026091.986,-27.344,-22.461,-28.809,-27.344,0.000
1714026091.990,-30.762,-23.926,-33.203,-28.809,0.000
1714026091.994,-31.738,-21.484,-28.320,-27.344,0.000
1714026092.002,-19.043,-22.461,-28.320,-15.137,0.000
1714026092.006,-18.066,-21.484,-13.672,-4.883,0.000
1714026092.010,-35.156,-20.996,-11.230,-23.926,0.000
1714026092.014,-50.293,-25.391,-28.809,-40.527,0.000
1714026092.018,-44.922,-33.203,-28.320,-30.762,0.000
1714026092.022,-37.109,-37.598,-26.855,-20.996,0.000
1714026092.026,-38.086,-32.715,-36.621,-22.461,0.000
1714026092.030,-32.715,-36.133,-34.668,-26.367,0.000
1714026092.033,-31.250,-38.086,-19.531,-22.949,0.000
1714026092.037,-31.250,-35.645,-21.973,-14.160,0.000
1714026092.041,-29.785,-26.855,-33.203,-15.137,0.000
1714026092.045,-26.855,-17.578,-30.762,-20.020,0.000
1714026092.051,-27.344,-25.391,-30.762,-20.508,0.000
1714026092.055,-21.484,-25.879,-26.855,-14.160,0.000
1714026092.059,-16.113,-19.043,-21.484,-9.277,0.000
1714026092.063,-21.484,-22.949,-19.531,-16.113,0.000
1714026092.066,-26.855,-26.855,-31.738,-20.508,0.000
1714026092.070,-24.902,-26.855,-38.574,-19.531,0.000
1714026092.074,-27.832,-32.715,-32.227,-30.273,0.000
1714026092.078,-33.691,-35.156,-43.945,-35.156,0.000
1714026092.082,-32.715,-31.738,-43.457,-29.297,0.000
1714026092.086,-31.738,-29.297,-24.414,-23.438,0.000
1714026092.090,-32.715,-29.297,-20.996,-25.391,0.000
1714026092.094,-34.180,-31.738,-29.785,-23.438,0.000
1714026092.098,-34.180,-32.227,-32.227,-24.414,0.000
1714026092.102,-31.738,-31.250,-26.855,-21.973,0.000
1714026092.106,-30.273,-33.691,-24.414,-12.695,0.000
1714026092.110,-32.715,-32.227,-25.391,-11.719,0.000
1714026092.114,-27.344,-26.855,-27.832,-15.137,0.000
1714026092.118,-20.508,-33.203,-23.926,-15.625,0.000
1714026092.122,-19.043,-37.109,-22.461,-14.648,0.000
1714026092.125,-27.832,-30.762,-33.203,-21.484,0.000
1714026092.129,-32.715,-26.855,-32.227,-22.949,0.000
1714026092.133,-27.344,-29.297,-23.926,-20.020,0.000
1714026092.137,-28.809,-38.086,-28.809,-27.832,0.000
1714026092.141,-21.484,-31.250,-30.762,-25.391,0.000
1714026092.145,-20.508,-25.879,-22.461,-26.855,0.000
1714026092.149,-27.832,-27.832,-21.484,-33.203,0.000
1714026092.153,-22.949,-24.414,-20.508,-27.344,0.000
1714026092.157,-16.113,-26.855,-24.902,-22.949,0.000
1714026092.160,-15.625,-27.344,-28.320,-31.250,0.000
1714026092.164,-20.996,-21.973,-23.438,-36.133,0.000
1714026092.168,-20.996,-20.996,-21.973,-31.250,0.000
1714026092.172,-20.996,-26.855,-28.320,-30.273,0.000
1714026092.176,-26.367,-23.438,-32.227,-28.809,0.000
1714026092.180,-27.344,-18.066,-29.785,-30.762,0.000
1714026092.184,-26.855,-27.832,-28.320,-29.785,0.000
1714026092.188,-27.344,-30.273,-35.156,-27.344,0.000
1714026092.190,-25.391,-21.973,-43.457,-23.438,0.000
1714026092.194,-25.879,-20.508,-38.574,-27.344,0.000
1714026092.198,-22.949,-24.414,-35.156,-31.738,0.000
1714026092.202,-22.461,-27.832,-34.180,-32.227,0.000
1714026092.206,-25.879,-25.879,-27.344,-32.715,0.000
1714026092.210,-25.879,-25.391,-27.344,-33.691,0.000
1714026092.214,-21.484,-28.320,-29.785,-32.715,0.000
1714026092.218,-18.066,-27.832,-31.250,-18.555,0.000
1714026092.222,-17.090,-25.879,-21.973,-10.254,0.000
1714026092.226,-15.137,-26.367,-16.602,-21.484,0.000
1714026092.230,-20.508,-20.020,-16.113,-22.461,0.000
1714026092.233,-24.902,-16.602,-18.066,-21.973,0.000
1714026092.236,-24.902,-23.926,-29.785,-23.438,0.000
1714026092.240,-24.902,-28.809,-31.738,-24.902,0.000
1714026092.244,-22.949,-26.367,-26.855,-28.320,0.000
1714026092.248,-26.855,-23.438,-22.461,-23.438,0.000
1714026092.252,-25.879,-19.531,-23.926,-11.719,0.000
1714026092.255,-21.973,-22.461,-28.320,-10.254,0.000
1714026092.259,-26.367,-30.762,-23.926,-14.160,0.000
1714026092.263,-26.367,-34.180,-27.344,-14.160,0.000
1714026092.267,-26.855,-25.391,-35.156,-20.020,0.000
1714026092.271,-29.297,-17.090,-29.297,-20.996,0.000
1714026092.275,-29.785,-21.484,-26.367,-25.879,0.000
1714026092.279,-25.879,-18.066,-29.297,-28.809,0.000
1714026092.281,-28.809,-16.602,-27.344,-23.926,0.000
1714026092.285,-36.621,-24.902,-24.414,-24.902,0.000
1714026092.289,-36.133,-24.414,-29.297,-30.762,0.000
1714026092.293,-36.621,-19.531,-36.621,-30.762,0.000
1714026092.297,-38.574,-20.508,-38.574,-30.762,0.000
1714026092.301,-29.785,-20.508,-32.715,-25.391,0.000
1714026092.305,-21.973,-21.484,-33.691,-18.066,0.000
1714026092.309,-24.902,-14.648,-35.156,-17.578,0.000
1714026092.313,-25.391,-5.371,-22.949,-21.973,0.000
1714026092.316,-21.484,-11.230,-25.879,-22.461,0.000
1714026092.320,-22.461,-23.926,-35.156,-21.973,0.000
1714026092.324,-30.273,-34.180,-29.297,-25.879,0.000
1714026092.326,-32.715,-36.621,-31.738,-34.180,0.000
1714026092.330,-26.367,-32.227,-39.062,-30.762,0.000
1714026092.334,-22.461,-21.973,-29.785,-24.414,0.000
1714026092.338,-22.949,-17.578,-18.066,-28.320,0.000
1714026092.342,-21.484,-21.973,-15.625,-25.391,0.000
1714026092.346,-23.438,-24.902,-20.996,-15.625,0.000
1714026092.350,-32.227,-27.832,-32.715,-20.020,0.000
1714026092.354,-33.203,-26.855,-33.691,-25.879,0.000
1714026092.357,-33.203,-28.320,-37.109,-26.367,0.000
1714026092.361,-33.203,-28.809,-35.156,-28.320,0.000
1714026092.365,-29.785,-32.715,-29.297,-28.809,0.000
1714026092.369,-23.438,-39.062,-25.879,-23.926,0.000
1714026092.377,-20.020,-28.809,-19.043,-18.066,0.000
1714026092.381,-21.973,-21.973,-20.508,-24.902,0.000
1714026092.385,-22.949,-22.461,-36.133,-27.344,0.000
1714026092.389,-30.762,-25.879,-41.016,-23.438,0.000
1714026092.393,-32.715,-38.086,-34.668,-24.902,0.000
1714026092.397,-32.715,-40.039,-30.273,-23.926,0.000
1714026092.401,-28.809,-31.250,-34.180,-22.949,0.000
1714026092.405,-21.484,-25.879,-25.879,-21.484,0.000
1714026092.408,-25.391,-26.855,-22.461,-24.414,0.000
1714026092.412,-31.250,-30.762,-36.621,-25.879,0.000
1714026092.416,-32.715,-25.879,-35.156,-22.949,0.000
1714026092.420,-29.297,-26.367,-32.227,-23.438,0.000
1714026092.426,-22.461,-27.832,-31.250,-20.020,0.000
1714026092.430,-25.391,-29.297,-26.855,-24.414,0.000
1714026092.433,-28.320,-30.273,-25.879,-22.949,0.000
1714026092.437,-29.785,-31.250,-30.762,-19.043,0.000
1714026092.441,-24.902,-22.461,-21.484,-21.484,0.000
1714026092.445,-23.438,-20.996,-23.438,-22.949,0.000
1714026092.449,-31.250,-30.762,-45.898,-26.367,0.000
1714026092.453,-25.879,-25.879,-43.945,-22.461,0.000
1714026092.457,-17.578,-23.926,-30.762,-14.648,0.000
1714026092.461,-22.949,-32.715,-29.297,-18.066,0.000
1714026092.465,-23.926,-39.551,-29.297,-26.855,0.000
1714026092.469,-19.531,-35.645,-27.344,-20.508,0.000
1714026092.473,-20.996,-26.855,-22.949,-20.020,0.000
1714026092.477,-20.508,-24.414,-27.344,-23.438,0.000
1714026092.481,-21.973,-27.832,-39.551,-24.902,0.000
1714026092.485,-22.949,-27.832,-45.410,-25.879,0.000
1714026092.489,-19.043,-27.344,-37.598,-16.602,0.000
1714026092.493,-22.949,-33.203,-37.598,-14.160,0.000
1714026092.497,-20.996,-30.273,-42.480,-18.066,0.000
1714026092.500,-16.113,-26.855,-23.926,-18.555,0.000
1714026092.504,-22.461,-27.832,-15.137,-17.578,0.000
1714026092.508,-26.367,-33.691,-19.531,-22.461,0.000
1714026092.512,-29.785,-35.156,-31.250,-33.203,0.000
1714026092.516,-30.762,-30.273,-36.133,-32.715,0.000
1714026092.519,-25.879,-25.391,-34.180,-29.785,0.000
1714026092.523,-22.461,-21.973,-34.180,-31.250,0.000
1714026092.527,-20.508,-25.879,-24.902,-27.832,0.000
1714026092.531,-19.043,-29.297,-21.973,-21.973,0.000
1714026092.535,-23.438,-26.855,-22.461,-23.926,0.000
1714026092.539,-22.949,-19.531,-14.160,-17.578,0.000
1714026092.543,-18.066,-16.602,-14.160,-10.254,0.000
1714026092.547,-24.902,-17.578,-25.879,-16.602,0.000
1714026092.551,-30.762,-19.043,-28.809,-13.672,0.000
1714026092.554,-29.785,-20.508,-21.973,-14.648,0.000
1714026092.558,-26.367,-25.391,-17.578,-22.949,0.000
1714026092.562,-24.414,-29.297,-21.484,-25.391,0.000
1714026092.565,-25.391,-19.043,-27.344,-23.438,0.000
1714026092.569,-19.531,-15.137,-17.578,-20.508,0.000
1714026092.573,-9.766,-19.043,-15.137,-22.949,0.000
1714026092.577,-2.441,-23.926,-22.949,-27.344,0.000
1714026092.581,-6.348,-28.809,-23.926,-23.926,0.000
1714026092.584,-8.789,-24.902,-28.320,-22.949,0.000
1714026092.588,-3.906,-21.973,-37.109,-27.344,0.000
1714026092.592,-14.160,-29.297,-36.133,-22.461,0.000
1714026092.596,-21.973,-34.180,-32.715,-19.531,0.000
1714026092.600,-7.812,-39.551,-33.691,-7.812,0.000
1714026092.604,-2.930,-30.762,-17.578,8.301,0.000
1714026092.608,-23.438,-20.996,-12.695,-13.672,0.000
1714026092.611,-32.227,-15.137,-26.855,-28.320,0.000
1714026092.615,-33.691,-17.090,-25.879,-29.297,0.000
1714026092.618,-34.668,-26.855,-30.273,-28.809,0.000
1714026092.622,-30.762,-22.461,-35.156,-33.691,0.000
1714026092.626,-27.344,-13.184,-28.809,-34.180,0.000
1714026092.630,-26.367,-17.578,-27.832,-30.762,0.000
1714026092.634,-32.227,-21.973,-32.715,-30.273,0.000
1714026092.638,-29.785,-26.367,-34.668,-19.531,0.000
1714026092.642,-22.949,-30.273,-33.691,-21.973,0.000
1714026092.646,-21.484,-33.691,-29.785,-31.250,0.000
1714026092.650,-19.531,-29.785,-32.715,-26.855,0.000
1714026092.654,-15.625,-20.508,-38.086,-20.508,0.000
1714026092.656,-20.020,-26.367,-30.273,-28.320,0.000
1714026092.660,-25.391,-29.785,-25.391,-33.691,0.000
1714026092.664,-24.902,-22.949,-25.391,-32.227,0.000
1714026092.668,-27.344,-26.367,-23.926,-32.227,0.000
1714026092.672,-26.367,-28.320,-31.250,-37.109,0.000
1714026092.675,-24.414,-23.926,-34.668,-45.410,0.000
1714026092.679,-26.855,-25.879,-34.668,-40.527,0.000
1714026092.683,-26.855,-24.414,-30.273,-33.691,0.000
1714026092.687,-26.855,-19.531,-24.902,-41.016,0.000
1714026092.691,-26.855,-15.625,-26.855,-43.457,0.000
1714026092.695,-28.809,-19.043,-33.203,-39.062,0.000
1714026092.699,-24.414,-18.555,-24.414,-32.227,0.000
1714026092.701,-24.414,-23.438,-16.113,-31.738,0.000
1714026092.705,-29.785,-27.832,-21.484,-38.574,0.000
1714026092.709,-30.762,-17.090,-26.367,-39.551,0.000
1714026092.713,-29.297,-13.672,-23.438,-33.203,0.000
1714026092.717,-25.879,-15.625,-22.461,-36.133,0.000
1714026092.721,-17.578,-18.066,-28.809,-26.855,0.000
1714026092.725,-21.973,-24.414,-29.785,-21.484,0.000
1714026092.729,-43.457,-22.949,-26.367,-34.668,0.000
1714026092.732,-57.129,-20.996,-18.066,-45.898,0.000
1714026092.736,-61.035,-25.391,-18.066,-52.734,0.000
1714026092.740,-49.805,-28.320,-25.391,-39.551,0.000
1714026092.744,-52.734,-25.391,-21.484,-34.668,0.000
1714026092.752,-68.359,-28.320,-13.672,-43.457,0.000
1714026092.756,-73.730,-31.738,-6.348,-50.293,0.000
1714026092.760,-80.566,-30.273,2.441,-60.547,0.000
1714026092.764,-70.312,-34.180,1.953,-56.641,0.000
1714026092.768,-58.105,-36.133,-8.301,-46.387,0.000
1714026092.772,-70.312,-30.273,-12.207,-61.523,0.000
1714026092.775,-72.754,-22.949,-9.766,-72.266,0.000
1714026092.779,-70.312,-24.414,-5.859,-66.895,0.000
1714026092.783,-65.430,-34.668,-4.395,-50.293,0.000
1714026092.787,-61.523,-36.621,-9.766,-45.898,0.000
1714026092.791,-55.176,-28.320,-9.766,-47.852,0.000
1714026092.795,-34.668,-21.484,-10.742,-28.809,0.000
1714026092.801,-33.203,-20.996,-14.160,-19.531,0.000
1714026092.805,-41.992,-30.273,-11.719,-21.973,0.000
1714026092.809,-24.902,-36.621,-16.602,-8.301,0.000
1714026092.813,-6.836,-43.945,-30.273,-2.930,0.000
1714026092.817,-0.977,-45.410,-35.156,-1.465,0.000
1714026092.820,6.836,-41.016,-35.156,7.324,0.000
1714026092.824,12.695,-43.457,-37.598,16.602,0.000
1714026092.828,23.438,-42.969,-37.598,28.809,0.000
1714026092.832,33.691,-43.945,-34.668,37.109,0.000
1714026092.836,44.434,-43.945,-33.691,51.270,0.000
1714026092.840,49.316,-44.434,-30.762,53.711,0.000
1714026092.844,47.852,-42.480,-33.691,47.852,0.000
1714026092.848,46.875,-41.992,-36.133,46.875,0.000
1714026092.852,49.805,-44.922,-34.180,48.340,0.000
1714026092.856,55.176,-44.434,-32.227,54.688,0.000
1714026092.860,57.129,-45.410,-36.621,50.293,0.000
1714026092.864,58.105,-38.086,-39.062,46.387,0.000
1714026092.868,51.758,-34.180,-35.156,45.898,0.000
1714026092.872,44.434,-39.062,-37.109,43.945,0.000
1714026092.876,42.969,-39.551,-38.574,39.551,0.000
1714026092.880,43.945,-47.363,-39.551,42.480,0.000
1714026092.884,43.457,-43.457,-40.527,46.875,0.000
1714026092.887,44.434,-32.715,-41.504,41.504,0.000
1714026092.891,42.480,-33.691,-32.715,44.434,0.000
1714026092.895,41.504,-35.645,-29.785,42.480,0.000
1714026092.898,34.180,-43.457,-38.574,32.227,0.000
1714026092.902,28.809,-48.828,-42.480,27.344,0.000
1714026092.906,30.762,-46.387,-41.504,21.973,0.000
1714026092.910,25.391,-42.480,-41.504,15.625,0.000
1714026092.914,17.090,-41.504,-41.016,8.789,0.000
1714026092.918,11.719,-46.387,-39.062,11.230,0.000
1714026092.922,10.742,-44.922,-43.945,16.113,0.000
1714026092.926,11.230,-41.992,-45.410,16.113,0.000
1714026092.930,7.812,-39.062,-42.969,6.836,0.000
1714026092.934,4.395,-33.691,-45.410,0.488,0.000
1714026092.938,3.418,-34.668,-38.086,2.930,0.000
1714026092.941,5.371,-35.156,-27.832,4.395,0.000
1714026092.944,-0.488,-37.598,-35.156,-2.441,0.000
1714026092.948,-4.883,-45.410,-45.898,-7.324,0.000
1714026092.952,-4.883,-45.898,-44.922,-2.930,0.000
1714026092.956,-6.348,-41.504,-40.527,-0.977,0.000
1714026092.960,-6.836,-41.992,-46.875,-5.371,0.000
1714026092.964,-5.859,-45.410,-48.828,-11.230,0.000
1714026092.968,-5.371,-44.922,-47.363,-11.230,0.000
1714026092.972,-4.883,-40.527,-41.992,-11.719,0.000
1714026092.976,-5.859,-36.621,-31.250,-12.695,0.000
1714026092.980,-11.230,-39.062,-38.574,-19.531,0.000
1714026092.984,-15.625,-40.527,-41.992,-21.484,0.000
1714026092.986,-14.648,-34.668,-36.133,-11.230,0.000
1714026092.990,-12.207,-28.320,-43.457,-13.184,0.000
1714026092.994,-19.043,-30.273,-53.223,-20.508,0.000
1714026092.998,-25.879,-36.621,-48.828,-20.508,0.000
1714026093.002,-22.461,-37.598,-39.551,-20.020,0.000
1714026093.006,-20.996,-32.227,-38.086,-22.461,0.000
1714026093.009,-28.320,-32.715,-40.039,-28.320,0.000
1714026093.013,-31.738,-32.227,-47.852,-30.273,0.000
1714026093.017,-28.320,-30.273,-42.969,-21.973,0.000
1714026093.021,-23.438,-32.715,-35.645,-19.531,0.000
1714026093.025,-24.902,-32.715,-40.527,-26.367,0.000
1714026093.029,-23.926,-32.227,-45.898,-24.902,0.000
1714026093.031,-22.461,-40.039,-50.781,-30.273,0.000
1714026093.035,-21.973,-41.016,-54.199,-31.250,0.000
1714026093.039,-23.926,-34.668,-55.176,-28.809,0.000
1714026093.043,-25.879,-34.668,-49.805,-25.391,0.000
1714026093.047,-22.949,-38.086,-48.828,-18.555,0.000
1714026093.051,-27.344,-39.551,-50.781,-17.578,0.000
1714026093.055,-33.691,-45.898,-45.898,-12.695,0.000
1714026093.058,-32.227,-45.410,-44.922,-19.043,0.000
1714026093.062,-29.785,-41.504,-41.504,-23.926,0.000
1714026093.066,-31.250,-42.969,-42.480,-14.160,0.000
1714026093.070,-38.086,-45.410,-53.223,-19.043,0.000
1714026093.074,-41.016,-48.340,-61.035,-28.809,0.000
1714026093.076,-36.621,-48.828,-60.059,-31.738,0.000
1714026093.080,-33.691,-47.363,-55.176,-26.367,0.000
1714026093.084,-34.180,-45.410,-55.176,-22.949,0.000
1714026093.088,-37.598,-44.434,-52.246,-25.879,0.000
1714026093.092,-37.598,-41.992,-53.711,-25.879,0.000
1714026093.096,-32.715,-37.109,-46.875,-17.090,0.000
1714026093.100,-32.715,-30.762,-41.992,-10.254,0.000
1714026093.104,-32.227,-32.227,-45.410,-21.484,0.000
1714026093.108,-38.574,-42.480,-55.664,-37.598,0.000
1714026093.111,-41.016,-43.457,-57.129,-30.762,0.000
1714026093.115,-34.180,-38.086,-51.758,-21.973,0.000
1714026093.119,-28.320,-36.621,-49.805,-23.926,0.000
1714026093.128,-25.879,-34.180,-44.434,-20.996,0.000
1714026093.131,-27.832,-32.715,-43.945,-20.508,0.000
1714026093.135,-26.367,-35.156,-49.805,-25.391,0.000
1714026093.139,-25.879,-34.668,-55.664,-28.809,0.000
1714026093.143,-29.297,-34.668,-48.828,-34.180,0.000
1714026093.147,-28.320,-32.715,-39.062,-32.715,0.000
1714026093.151,-28.809,-25.391,-34.668,-23.926,0.000
1714026093.155,-23.926,-23.926,-36.621,-27.832,0.000
1714026093.159,-22.461,-31.250,-45.898,-36.133,0.000
1714026093.163,-23.926,-39.551,-46.875,-28.809,0.000
1714026093.167,-28.320,-39.551,-35.156,-27.344,0.000
1714026093.171,-34.668,-39.062,-32.227,-27.344,0.000
1714026093.171,-34.668,-39.062,-32.227,-27.344,0.000
1714026093.176,-34.668,-38.574,-42.480,-24.414,0.000
1714026093.180,-31.250,-34.180,-47.363,-31.250,0.000
1714026093.184,-25.879,-37.598,-43.457,-25.879,0.000
1714026093.188,-24.902,-44.434,-39.062,-20.996,0.000
1714026093.192,-30.762,-45.410,-49.316,-32.227,0.000
1714026093.196,-34.180,-41.016,-53.711,-45.898,0.000
1714026093.200,-30.762,-38.086,-40.039,-45.410,0.000
1714026093.204,-29.297,-39.551,-36.133,-36.621,0.000
1714026093.207,-24.902,-40.039,-40.527,-26.855,0.000
1714026093.211,-27.344,-41.992,-47.363,-23.926,0.000
1714026093.215,-28.809,-40.527,-36.621,-27.832,0.000
1714026093.219,-23.926,-40.527,-32.715,-24.414,0.000
1714026093.223,-26.855,-42.969,-41.992,-26.367,0.000
1714026093.227,-30.762,-43.945,-47.363,-33.691,0.000
1714026093.231,-28.809,-47.363,-46.387,-30.762,0.000
1714026093.235,-31.738,-54.688,-40.527,-25.879,0.000
1714026093.239,-27.832,-51.270,-39.551,-28.320,0.000
1714026093.243,-27.344,-43.945,-40.527,-29.785,0.000
1714026093.247,-33.691,-47.363,-34.668,-30.273,0.000
1714026093.251,-35.645,-49.316,-29.785,-28.320,0.000
1714026093.255,-37.109,-51.758,-39.062,-16.602,0.000
1714026093.258,-33.203,-51.758,-41.504,-14.648,0.000
1714026093.262,-30.273,-47.363,-32.227,-22.949,0.000
1714026093.266,-33.691,-45.410,-33.203,-22.949,0.000
1714026093.276,-31.738,-44.922,-32.715,-18.555,0.000
1714026093.279,-26.855,-43.457,-27.832,-17.578,0.000
1714026093.283,-29.297,-44.922,-21.973,-28.320,0.000
1714026093.287,-30.273,-49.316,-19.043,-31.738,0.000
1714026093.291,-31.738,-48.340,-25.879,-24.902,0.000
1714026093.295,-35.156,-39.062,-31.738,-24.414,0.000
1714026093.299,-37.598,-40.039,-26.855,-27.344,0.000
1714026093.303,-28.320,-46.387,-28.809,-21.484,0.000
1714026093.307,-22.949,-46.875,-39.551,-13.672,0.000
1714026093.311,-36.133,-43.457,-43.457,-30.762,0.000
1714026093.315,-39.062,-41.504,-42.480,-37.598,0.000
1714026093.318,-29.297,-42.480,-44.434,-29.297,0.000
1714026093.319,-20.508,-37.598,-43.945,-22.461,0.000
1714026093.323,-21.973,-34.180,-39.551,-22.949,0.000
1714026093.327,-22.949,-34.668,-41.992,-31.250,0.000
1714026093.331,-20.020,-28.320,-45.410,-38.574,0.000
1714026093.335,-18.066,-25.879,-45.410,-39.062,0.000
1714026093.339,-20.020,-34.180,-51.270,-32.715,0.000
1714026093.342,-18.066,-34.668,-47.852,-28.320,0.000
1714026093.346,-14.648,-31.250,-41.992,-25.879,0.000
1714026093.350,-25.879,-35.645,-48.340,-34.668,0.000
1714026093.354,-24.414,-35.645,-52.246,-37.109,0.000
1714026093.358,-15.625,-32.227,-54.199,-35.645,0.000
1714026093.362,-16.602,-32.715,-55.176,-29.297,0.000
1714026093.363,-22.461,-32.715,-47.852,-31.738,0.000
1714026093.367,-19.531,-25.879,-40.039,-32.715,0.000
1714026093.371,-18.555,-29.297,-43.945,-23.926,0.000
1714026093.375,-21.973,-36.133,-52.246,-31.738,0.000
1714026093.379,-18.555,-28.809,-46.387,-32.715,0.000
1714026093.383,-19.043,-27.344,-41.992,-31.250,0.000
1714026093.386,-13.672,-31.250,-45.898,-26.367,0.000
1714026093.390,-11.719,-32.227,-43.457,-25.879,0.000
1714026093.394,-12.207,-29.785,-42.969,-37.109,0.000
1714026093.398,-9.766,-26.855,-43.945,-34.180,0.000
1714026093.402,-11.230,-26.855,-39.551,-28.809,0.000
1714026093.406,-17.090,-31.250,-34.668,-29.785,0.000
1714026093.407,-20.996,-31.738,-32.715,-29.785,0.000
1714026093.411,-18.555,-28.809,-39.551,-26.855,0.000
1714026093.415,-18.555,-28.320,-48.340,-26.367,0.000
1714026093.419,-20.020,-31.250,-48.828,-25.391,0.000
1714026093.423,-22.461,-33.691,-47.852,-29.297,0.000
1714026093.427,-26.855,-35.156,-44.434,-35.156,0.000
1714026093.431,-22.949,-36.133,-41.016,-28.320,0.000
1714026093.435,-17.090,-36.133,-41.992,-22.461,0.000
1714026093.439,-19.043,-33.203,-32.715,-24.414,0.000
1714026093.443,-18.066,-29.785,-24.902,-20.996,0.000
1714026093.447,-15.625,-30.273,-36.621,-19.531,0.000
1714026093.450,-17.090,-29.785,-45.410,-25.391,0.000
1714026093.452,-16.113,-29.297,-41.504,-30.273,0.000
1714026093.456,-12.207,-32.227,-45.410,-29.785,0.000
1714026093.460,-12.695,-40.527,-47.852,-28.809,0.000
1714026093.464,-15.137,-44.922,-43.945,-39.062,0.000
1714026093.468,-6.348,-39.551,-43.457,-43.457,0.000
1714026093.472,0.000,-32.715,-44.922,-25.879,0.000
1714026093.476,-8.301,-31.738,-41.504,-22.461,0.000
1714026093.480,-19.531,-34.180,-34.180,-25.391,0.000
1714026093.484,-20.020,-38.086,-32.715,-23.438,0.000
1714026093.487,-17.578,-38.574,-30.762,-23.438,0.000
1714026093.491,-26.367,-38.086,-38.086,-25.879,0.000
1714026093.495,-33.691,-40.039,-44.922,-27.832,0.000
1714026093.503,-28.320,-35.156,-40.527,-22.949,0.000
1714026093.507,-22.461,-32.715,-36.621,-18.066,0.000
1714026093.511,-25.391,-38.574,-42.480,-27.832,0.000
1714026093.515,-29.785,-42.480,-44.434,-33.203,0.000
1714026093.519,-34.668,-48.340,-40.527,-25.879,0.000
1714026093.523,-31.250,-45.898,-44.434,-21.484,0.000
1714026093.527,-28.320,-40.527,-36.621,-20.508,0.000
1714026093.531,-26.855,-42.480,-24.902,-22.461,0.000
1714026093.534,-26.367,-40.039,-32.715,-23.926,0.000
1714026093.538,-23.926,-37.598,-40.527,-21.973,0.000
1714026093.542,-24.902,-39.062,-32.715,-24.414,0.000
1714026093.546,-32.715,-39.551,-32.227,-26.367,0.000
1714026093.551,-31.738,-40.039,-42.969,-26.855,0.000
1714026093.555,-27.344,-42.480,-49.805,-29.785,0.000
1714026093.559,-30.273,-41.504,-39.551,-33.203,0.000
1714026093.563,-35.156,-41.504,-36.133,-38.574,0.000
1714026093.567,-31.738,-41.992,-43.457,-32.227,0.000
1714026093.571,-30.273,-42.480,-45.410,-20.020,0.000
1714026093.575,-29.297,-43.457,-38.086,-20.996,0.000
1714026093.579,-27.344,-40.039,-34.668,-26.367,0.000
1714026093.583,-28.809,-34.180,-49.316,-23.438,0.000
1714026093.587,-33.203,-36.621,-41.504,-22.949,0.000
1714026093.590,-37.598,-44.434,-31.738,-31.250,0.000
1714026093.594,-36.133,-40.527,-38.086,-36.133,0.000
1714026093.598,-30.762,-33.691,-37.109,-35.156,0.000
1714026093.602,-27.832,-33.691,-29.785,-30.273,0.000
1714026093.606,-31.738,-38.574,-25.391,-30.273,0.000
1714026093.610,-27.344,-44.922,-25.391,-22.461,0.000
1714026093.614,-21.484,-40.527,-21.973,-18.555,0.000
1714026093.618,-33.203,-40.039,-22.461,-33.203,0.000
1714026093.622,-32.715,-38.574,-36.621,-33.203,0.000
1714026093.626,-23.926,-32.715,-44.434,-23.926,0.000
1714026093.630,-25.879,-33.691,-41.016,-21.484,0.000
1714026093.633,-35.645,-41.504,-45.898,-33.691,0.000
1714026093.637,-36.133,-37.109,-50.781,-34.180,0.000
1714026093.641,-26.855,-25.879,-42.969,-26.855,0.000
1714026093.645,-24.414,-29.785,-33.203,-30.762,0.000
1714026093.649,-25.879,-30.273,-29.785,-31.250,0.000
1714026093.653,-25.879,-24.414,-29.297,-31.250,0.000
1714026093.656,-23.438,-25.391,-35.645,-30.273,0.000
1714026093.660,-22.461,-23.926,-36.133,-26.855,0.000
1714026093.664,-23.438,-21.484,-29.297,-27.344,0.000
1714026093.668,-21.484,-24.902,-25.391,-24.414,0.000
1714026093.672,-23.926,-29.297,-26.855,-15.137,0.000
1714026093.676,-24.902,-34.180,-32.715,-16.113,0.000
1714026093.680,-28.320,-36.621,-31.250,-26.855,0.000
1714026093.684,-32.227,-37.598,-32.715,-32.227,0.000
1714026093.688,-30.762,-37.598,-35.645,-28.320,0.000
1714026093.690,-28.320,-36.133,-31.738,-32.227,0.000
1714026093.694,-25.391,-31.250,-33.691,-34.180,0.000
1714026093.698,-22.461,-35.645,-40.039,-33.203,0.000
1714026093.702,-20.020,-35.645,-36.133,-25.879,0.000
1714026093.706,-13.672,-31.250,-31.738,-17.090,0.000
1714026093.710,-10.254,-29.297,-42.969,-19.531,0.000
1714026093.714,-10.742,-25.879,-54.688,-26.367,0.000
1714026093.718,-11.230,-26.855,-46.875,-22.949,0.000
1714026093.722,-13.672,-29.297,-41.504,-22.461,0.000
1714026093.725,-15.137,-31.250,-46.875,-26.855,0.000
1714026093.729,-14.160,-26.855,-48.340,-19.043,0.000
1714026093.733,-8.301,-24.414,-48.340,-16.113,0.000
1714026093.736,-11.719,-27.832,-44.922,-17.090,0.000
1714026093.740,-15.625,-30.762,-49.316,-16.113,0.000
1714026093.744,-16.113,-36.133,-49.805,-21.484,0.000
1714026093.748,-19.043,-28.809,-35.645,-19.043,0.000
1714026093.752,-25.391,-24.902,-30.273,-12.695,0.000
1714026093.755,-25.391,-33.203,-26.367,-17.090,0.000
1714026093.759,-24.414,-35.645,-33.203,-29.297,0.000
1714026093.763,-26.855,-30.273,-47.363,-28.809,0.000
1714026093.767,-25.879,-26.855,-42.480,-32.227,0.000
1714026093.771,-29.297,-29.785,-35.645,-34.180,0.000
1714026093.775,-32.227,-32.227,-34.668,-32.715,0.000
1714026093.779,-33.203,-30.273,-37.109,-37.109,0.000
1714026093.781,-34.180,-27.832,-46.875,-37.598,0.000
1714026093.785,-33.691,-30.762,-44.922,-31.250,0.000
1714026093.789,-35.156,-30.273,-34.180,-26.855,0.000
1714026093.793,-34.180,-24.414,-33.691,-33.203,0.000
1714026093.797,-21.973,-25.391,-26.367,-19.043,0.000
1714026093.801,-12.207,-30.273,-20.508,-4.395,0.000
1714026093.805,-20.996,-30.762,-33.203,-13.184,0.000
1714026093.808,-35.645,-30.273,-38.574,-32.715,0.000
1714026093.812,-41.504,-33.203,-36.133,-48.828,0.000
1714026093.816,-43.457,-37.598,-40.527,-48.828,0.000
1714026093.820,-51.270,-40.039,-36.621,-49.805,0.000
1714026093.824,-57.129,-36.621,-29.297,-57.617,0.000
1714026093.832,-62.500,-34.668,-30.273,-63.477,0.000
1714026093.836,-55.176,-30.762,-29.297,-48.340,0.000
1714026093.840,-46.387,-25.879,-31.250,-44.434,0.000
1714026093.844,-47.852,-26.855,-25.391,-46.875,0.000
1714026093.848,-41.504,-30.762,-21.484,-38.574,0.000
1714026093.852,-41.992,-33.691,-39.551,-40.039,0.000
1714026093.856,-46.875,-33.691,-44.922,-41.504,0.000
1714026093.860,-42.969,-30.762,-40.039,-41.016,0.000
1714026093.864,-42.969,-31.250,-42.480,-45.410,0.000
1714026093.867,-41.016,-29.297,-34.180,-38.574,0.000
1714026093.871,-39.062,-24.902,-20.508,-32.227,0.000
1714026093.875,-40.527,-24.414,-19.531,-38.086,0.000
1714026093.881,-44.434,-28.809,-28.320,-44.434,0.000
1714026093.885,-47.363,-36.621,-35.156,-46.875,0.000
1714026093.889,-39.062,-33.691,-23.438,-40.527,0.000
1714026093.893,-31.738,-29.785,-17.090,-36.133,0.000
1714026093.897,-28.809,-34.668,-23.926,-36.133,0.000
1714026093.901,-30.273,-36.133,-32.227,-40.039,0.000
1714026093.905,-36.133,-32.715,-29.785,-36.621,0.000
1714026093.909,-33.691,-28.320,-19.531,-30.762,0.000
1714026093.912,-26.367,-21.484,-19.043,-27.344,0.000
1714026093.916,-32.227,-23.926,-23.926,-25.879,0.000
1714026093.920,-34.668,-29.785,-19.531,-33.203,0.000
1714026093.924,-23.438,-24.414,-10.742,-33.691,0.000
1714026093.934,-23.926,-22.461,-10.254,-34.668,0.000
1714026093.938,-34.180,-29.297,-13.184,-42.480,0.000
1714026093.942,-37.598,-30.273,-23.926,-42.969,0.000
1714026093.946,-35.156,-31.250,-27.832,-38.574,0.000
1714026093.950,-35.156,-34.180,-26.855,-39.551,0.000
1714026093.954,-32.715,-34.668,-21.973,-43.457,0.000
1714026093.958,-30.762,-32.715,-22.461,-43.945,0.000
1714026093.961,-33.691,-31.738,-32.715,-44.434,0.000
1714026093.965,-32.227,-33.203,-35.645,-35.645,0.000
1714026093.969,-36.621,-32.227,-35.645,-35.645,0.000
1714026093.973,-37.109,-33.691,-30.273,-45.410,0.000
1714026093.977,-30.273,-31.738,-26.855,-35.645,0.000
1714026093.978,-27.832,-27.832,-23.438,-26.367,0.000
1714026093.982,-24.414,-26.855,-17.578,-31.250,0.000
1714026093.986,-26.367,-28.320,-25.879,-33.691,0.000
1714026093.990,-33.691,-32.227,-27.832,-27.344,0.000
1714026093.994,-32.227,-28.320,-23.926,-24.902,0.000
1714026093.998,-29.785,-20.508,-26.367,-30.762,0.000
1714026094.001,-31.738,-20.020,-33.203,-38.574,0.000
1714026094.005,-30.762,-25.391,-37.109,-38.086,0.000
1714026094.009,-31.250,-25.391,-29.297,-32.227,0.000
1714026094.013,-29.785,-25.391,-27.344,-34.668,0.000
1714026094.017,-27.832,-27.344,-30.762,-38.574,0.000
1714026094.021,-33.203,-29.297,-27.832,-36.621,0.000
1714026094.023,-33.203,-30.762,-25.879,-30.762,0.000
1714026094.026,-34.668,-28.809,-24.902,-27.344,0.000
1714026094.030,-33.691,-32.227,-28.809,-30.762,0.000
1714026094.034,-34.180,-38.086,-32.227,-33.203,0.000
1714026094.038,-44.434,-36.621,-35.645,-40.039,0.000
1714026094.042,-46.387,-36.133,-43.945,-41.504,0.000
1714026094.046,-42.480,-38.574,-45.410,-38.574,0.000
1714026094.050,-40.527,-36.621,-37.598,-35.645,0.000
1714026094.054,-46.387,-36.133,-37.109,-32.715,0.000
1714026094.058,-40.039,-34.668,-40.527,-30.762,0.000
1714026094.062,-32.227,-31.250,-33.203,-25.879,0.000
1714026094.065,-31.250,-28.809,-25.879,-26.367,0.000
1714026094.067,-29.297,-34.180,-30.762,-28.809,0.000
1714026094.071,-29.297,-41.504,-30.273,-29.297,0.000
1714026094.075,-22.461,-36.621,-28.320,-26.367,0.000
1714026094.079,-22.949,-31.250,-30.273,-25.391,0.000
1714026094.083,-27.344,-31.738,-32.715,-27.832,0.000
1714026094.087,-21.973,-30.762,-31.738,-26.367,0.000
1714026094.091,-20.996,-28.320,-26.855,-23.438,0.000
1714026094.094,-26.367,-28.809,-29.297,-23.438,0.000
1714026094.098,-29.297,-26.855,-38.574,-29.785,0.000
1714026094.102,-31.250,-26.367,-47.363,-33.203,0.000
1714026094.106,-31.250,-24.414,-41.016,-29.297,0.000
1714026094.110,-27.344,-20.508,-33.203,-27.344,0.000
1714026094.112,-26.855,-25.391,-41.016,-34.668,0.000
1714026094.116,-31.250,-28.320,-46.387,-35.645,0.000
1714026094.120,-26.855,-26.855,-40.039,-23.438,0.000
1714026094.124,-19.043,-27.344,-33.203,-20.020,0.000
1714026094.127,-16.113,-27.344,-31.738,-30.762,0.000
1714026094.131,-20.996,-29.785,-34.668,-40.527,0.000
1714026094.135,-24.414,-32.227,-41.016,-35.645,0.000
1714026094.139,-21.973,-34.668,-41.992,-34.180,0.000
1714026094.143,-30.762,-34.180,-41.504,-49.805,0.000
1714026094.147,-32.715,-32.227,-40.039,-54.688,0.000
1714026094.151,-22.949,-35.156,-35.645,-47.363,0.000
1714026094.155,-20.020,-33.203,-33.203,-37.598,0.000
1714026094.157,-19.043,-29.785,-30.762,-30.762,0.000
1714026094.160,-23.926,-32.715,-35.156,-38.574,0.000
1714026094.164,-30.762,-36.133,-38.086,-45.898,0.000
1714026094.168,-30.273,-40.039,-39.062,-35.156,0.000
1714026094.172,-32.715,-37.109,-36.621,-26.855,0.000
1714026094.176,-35.645,-32.227,-33.203,-29.297,0.000
1714026094.180,-29.785,-34.668,-35.645,-19.531,0.000
1714026094.184,-35.156,-38.086,-40.527,-18.555,0.000
1714026094.188,-40.039,-32.227,-40.527,-30.273,0.000
1714026094.192,-29.297,-30.762,-28.320,-29.785,0.000
1714026094.196,-29.785,-36.133,-22.949,-26.367,0.000
1714026094.200,-35.156,-33.691,-29.785,-19.531,0.000
1714026094.201,-36.621,-33.203,-38.086,-21.484,0.000
1714026094.205,-34.180,-35.156,-42.480,-25.879,0.000
1714026094.209,-32.715,-36.621,-37.109,-22.949,0.000
1714026094.213,-31.738,-32.715,-29.297,-19.043,0.000
1714026094.217,-30.762,-31.738,-33.691,-20.996,0.000
1714026094.221,-29.785,-36.621,-35.645,-24.414,0.000
1714026094.225,-31.250,-36.621,-36.133,-26.367,0.000
1714026094.229,-34.668,-33.203,-36.133,-29.297,0.000
1714026094.233,-31.250,-35.156,-31.250,-29.785,0.000
1714026094.237,-26.855,-31.250,-33.691,-22.949,0.000
1714026094.241,-30.273,-31.738,-33.203,-20.996,0.000
1714026094.244,-38.574,-38.574,-30.762,-29.785,0.000
1714026094.253,-36.621,-38.086,-29.297,-24.902,0.000
1714026094.256,-40.527,-43.457,-30.273,-22.949,0.000
1714026094.260,-40.527,-40.527,-37.598,-27.344,0.000
1714026094.264,-32.227,-34.180,-34.668,-30.273,0.000
1714026094.268,-29.297,-38.574,-28.809,-29.297,0.000
1714026094.272,-22.461,-37.109,-22.461,-24.414,0.000
1714026094.276,-16.602,-31.250,-19.043,-32.715,0.000
1714026094.280,-17.090,-29.785,-28.809,-40.527,0.000
1714026094.284,-14.160,-29.785,-29.785,-38.574,0.000
1714026094.288,-13.672,-31.738,-26.367,-30.273,0.000
1714026094.292,-7.812,-27.832,-25.391,-29.785,0.000
1714026094.295,-3.906,-23.926,-20.508,-30.762,0.000
1714026094.301,-14.160,-29.785,-25.879,-24.414,0.000
1714026094.305,-21.973,-32.227,-37.109,-25.879,0.000
1714026094.309,-21.973,-31.250,-36.133,-21.484,0.000
1714026094.313,-25.391,-31.250,-26.367,-18.555,0.000
1714026094.317,-30.762,-34.180,-26.855,-24.902,0.000
1714026094.321,-31.250,-38.574,-38.086,-25.391,0.000
1714026094.325,-27.344,-35.645,-32.715,-26.367,0.000
1714026094.329,-27.344,-35.156,-27.832,-34.668,0.000
1714026094.333,-25.879,-36.133,-45.410,-35.645,0.000
1714026094.336,-26.855,-37.109,-54.688,-28.320,0.000
1714026094.340,-29.297,-40.527,-48.340,-31.250,0.000
1714026094.344,-26.855,-42.480,-48.828,-31.738,0.000
1714026094.349,-27.832,-39.062,-55.664,-28.809,0.000
1714026094.353,-21.484,-35.156,-43.457,-23.438,0.000
1714026094.356,-12.207,-32.227,-31.738,-11.230,0.000
1714026094.360,-20.996,-29.785,-33.691,-12.207,0.000
1714026094.364,-20.508,-26.855,-37.109,-18.066,0.000
1714026094.368,-29.785,-32.227,-33.203,-31.738,0.000
1714026094.372,-42.480,-41.504,-28.320,-38.086,0.000
1714026094.376,-40.039,-40.527,-29.785,-29.297,0.000
1714026094.380,-43.457,-38.574,-33.691,-32.227,0.000
1714026094.384,-47.852,-39.062,-35.645,-38.086,0.000
1714026094.388,-45.898,-32.715,-35.156,-39.062,0.000
1714026094.392,-36.133,-32.715,-40.039,-38.086,0.000
1714026094.395,-29.297,-35.645,-38.574,-31.250,0.000
1714026094.399,-33.691,-32.227,-37.109,-29.785,0.000
1714026094.403,-36.133,-27.344,-33.691,-32.715,0.000
1714026094.407,-30.273,-24.902,-30.762,-33.203,0.000
1714026094.411,-26.367,-24.902,-26.367,-31.250,0.000
1714026094.414,-25.879,-28.320,-30.273,-30.273,0.000
1714026094.418,-26.367,-33.691,-37.109,-31.250,0.000
1714026094.422,-24.414,-36.133,-36.621,-24.414,0.000
1714026094.426,-19.531,-35.156,-42.969,-14.648,0.000
1714026094.430,-21.973,-26.367,-38.086,-17.578,0.000
1714026094.434,-23.926,-28.320,-23.926,-15.625,0.000
1714026094.438,-23.926,-27.832,-25.391,-12.695,0.000
1714026094.447,-27.344,-22.949,-31.738,-14.648,0.000
1714026094.451,-30.762,-22.949,-26.855,-20.996,0.000
1714026094.455,-26.367,-25.879,-24.414,-23.438,0.000
1714026094.458,-22.949,-30.762,-37.598,-18.066,0.000
1714026094.462,-23.926,-33.203,-38.574,-23.438,0.000
1714026094.466,-24.414,-31.738,-32.715,-30.273,0.000
1714026094.470,-28.320,-36.133,-38.086,-35.645,0.000
1714026094.474,-26.367,-43.457,-45.410,-25.879,0.000
1714026094.478,-18.555,-33.691,-41.504,-18.066,0.000
1714026094.482,-18.555,-22.461,-36.133,-29.297,0.000
1714026094.486,-28.320,-24.902,-43.457,-36.133,0.000
1714026094.490,-29.297,-28.320,-45.898,-29.297,0.000
1714026094.490,-25.391,-26.855,-36.133,-24.414,0.000
1714026094.494,-25.391,-24.414,-36.621,-31.250,0.000
1714026094.498,-28.320,-28.809,-42.969,-34.668,0.000
1714026094.501,-30.762,-33.203,-39.551,-33.203,0.000
1714026094.505,-30.762,-34.180,-38.574,-30.762,0.000
1714026094.509,-19.531,-29.785,-36.621,-26.367,0.000
1714026094.513,-13.672,-29.297,-36.621,-26.855,0.000
1714026094.517,-23.438,-33.203,-35.156,-32.715,0.000
1714026094.521,-24.414,-34.668,-30.273,-31.738,0.000
1714026094.525,-22.461,-38.574,-34.668,-27.344,0.000
1714026094.529,-20.020,-34.668,-35.156,-21.484,0.000
1714026094.533,-13.184,-25.391,-24.902,-18.066,0.000
1714026094.534,-15.625,-24.414,-17.090,-20.020,0.000
1714026094.538,-17.578,-28.320,-27.832,-20.020,0.000
1714026094.542,-16.602,-27.344,-40.527,-27.344,0.000
1714026094.546,-21.973,-27.344,-42.969,-31.250,0.000
1714026094.549,-21.484,-25.879,-39.062,-30.273,0.000
1714026094.553,-10.742,-25.879,-38.086,-19.043,0.000
1714026094.557,-13.672,-26.855,-39.551,-12.695,0.000
1714026094.561,-33.203,-31.738,-34.180,-25.391,0.000
1714026094.565,-28.809,-34.180,-20.020,-19.043,0.000
1714026094.569,-20.508,-35.645,-12.695,-4.883,0.000
1714026094.573,-27.832,-34.180,-17.578,-10.742,0.000
1714026094.577,-28.809,-34.668,-16.113,-13.672,0.000
1714026094.578,-33.203,-38.086,-11.719,-14.648,0.000
1714026094.582,-38.574,-39.062,-20.020,-15.137,0.000
1714026094.586,-33.203,-41.016,-20.996,-11.719,0.000
1714026094.590,-34.180,-41.504,-18.555,-17.090,0.000
1714026094.594,-31.250,-38.086,-25.391,-20.020,0.000
1714026094.597,-31.250,-41.504,-25.391,-16.602,0.000
1714026094.601,-37.598,-46.387,-17.090,-12.695,0.000
1714026094.605,-30.762,-38.574,-12.207,-14.648,0.000
1714026094.609,-21.973,-34.668,-8.789,-13.672,0.000
1714026094.613,-23.926,-40.039,-13.672,-12.695,0.000
1714026094.617,-21.484,-39.551,-24.414,-8.789,0.000
1714026094.621,-14.648,-36.133,-20.020,-6.348,0.000
1714026094.634,-19.043,-35.156,-13.672,-15.137,0.000
1714026094.638,-20.508,-36.621,-14.648,-16.113,0.000
1714026094.642,-21.484,-30.762,-9.277,-12.695,0.000
1714026094.646,-20.020,-24.902,-10.742,-13.672,0.000
1714026094.650,-13.184,-22.949,-18.555,-16.602,0.000
1714026094.654,-14.648,-23.926,-18.066,-14.160,0.000
1714026094.658,-20.996,-25.391,-21.973,-18.066,0.000
1714026094.662,-18.555,-18.066,-26.367,-23.926,0.000
1714026094.666,-16.113,-19.043,-27.344,-26.367,0.000
1714026094.669,-20.508,-21.973,-28.809,-30.762,0.000
1714026094.673,-21.484,-19.043,-27.344,-25.879,0.000
1714026094.677,-20.996,-21.484,-31.250,-25.879,0.000
1714026094.680,-22.949,-20.996,-35.156,-29.297,0.000
1714026094.684,-22.949,-18.066,-29.297,-33.691,0.000
1714026094.688,-25.879,-16.113,-20.508,-31.738,0.000
1714026094.692,-32.227,-19.531,-15.137,-30.273,0.000
1714026094.696,-35.645,-25.879,-15.137,-32.715,0.000
1714026094.700,-36.621,-23.926,-18.066,-33.203,0.000
1714026094.704,-39.551,-19.043,-15.137,-38.086,0.000
1714026094.707,-37.598,-21.484,-11.719,-34.180,0.000
1714026094.711,-34.180,-27.344,-21.484,-25.391,0.000
1714026094.715,-39.062,-29.297,-26.367,-25.879,0.000
1714026094.719,-40.039,-26.367,-25.879,-27.832,0.000
1714026094.723,-31.250,-24.414,-26.855,-32.715,0.000
1714026094.726,-30.273,-27.344,-28.320,-31.250,0.000
1714026094.730,-39.551,-34.668,-30.762,-31.250,0.000
1714026094.733,-45.898,-35.645,-32.715,-44.434,0.000
1714026094.737,-45.410,-32.715,-34.668,-39.551,0.000
1714026094.741,-39.062,-34.180,-29.785,-33.203,0.000
1714026094.745,-32.227,-35.645,-29.297,-31.250,0.000
1714026094.749,-26.367,-37.109,-26.855,-26.855,0.000
1714026094.753,-20.996,-35.645,-19.531,-29.297,0.000
1714026094.757,-21.484,-31.250,-23.438,-22.461,0.000
1714026094.761,-27.344,-29.785,-29.785,-18.066,0.000
1714026094.765,-22.949,-26.367,-25.391,-24.902,0.000
1714026094.769,-20.508,-20.996,-22.949,-35.156,0.000
1714026094.771,-24.902,-23.438,-31.250,-38.574,0.000
1714026094.775,-20.508,-26.855,-28.809,-30.273,0.000
1714026094.779,-17.090,-27.832,-20.508,-27.344,0.000
1714026094.783,-24.414,-32.227,-25.879,-27.832,0.000
1714026094.787,-22.949,-28.809,-28.809,-27.832,0.000
1714026094.791,-20.020,-26.855,-26.367,-27.832,0.000
1714026094.794,-26.855,-34.668,-27.832,-35.156,0.000
1714026094.798,-28.320,-35.645,-31.250,-36.133,0.000
1714026094.802,-29.297,-25.879,-27.832,-26.855,0.000
1714026094.806,-25.879,-19.043,-17.578,-33.691,0.000
1714026094.810,-22.949,-24.414,-20.020,-35.156,0.000
1714026094.814,-31.250,-33.203,-34.180,-33.691,0.000
1714026094.816,-31.250,-28.809,-35.645,-34.668,0.000
1714026094.820,-31.250,-26.367,-22.949,-21.973,0.000
1714026094.824,-35.156,-29.785,-19.531,-18.066,0.000
1714026094.828,-33.691,-21.973,-15.137,-21.973,0.000
1714026094.832,-29.297,-19.531,-11.719,-26.367,0.000
1714026094.836,-29.297,-24.414,-14.648,-28.320,0.000
1714026094.840,-28.320,-23.438,-16.602,-22.461,0.000
1714026094.843,-26.855,-24.902,-17.578,-21.484,0.000
1714026094.847,-34.180,-27.344,-25.879,-25.391,0.000
1714026094.851,-34.180,-24.414,-36.621,-28.320,0.000
1714026094.855,-35.156,-30.273,-33.203,-32.715,0.000
1714026094.859,-36.621,-34.180,-21.973,-35.156,0.000
1714026094.861,-34.668,-31.250,-17.090,-31.738,0.000
1714026094.865,-39.062,-32.227,-15.137,-28.809,0.000
1714026094.869,-40.039,-29.297,-19.531,-31.738,0.000
1714026094.873,-37.598,-24.414,-27.344,-34.668,0.000
1714026094.877,-29.785,-27.832,-32.227,-26.367,0.000
1714026094.881,-20.020,-29.297,-34.668,-15.625,0.000
1714026094.885,-26.855,-25.391,-28.809,-23.926,0.000
1714026094.889,-45.410,-24.414,-27.344,-40.039,0.000
1714026094.893,-54.199,-25.879,-28.320,-52.734,0.000
1714026094.897,-48.340,-31.250,-25.391,-51.758,0.000
1714026094.900,-45.410,-33.203,-24.414,-41.504,0.000
1714026094.904,-47.363,-30.762,-21.973,-42.480,0.000
1714026094.906,-45.410,-31.738,-26.855,-50.781,0.000
1714026094.910,-43.457,-30.762,-35.156,-48.340,0.000
1714026094.914,-44.922,-33.203,-32.715,-41.992,0.000
1714026094.918,-37.598,-32.227,-26.855,-35.156,0.000
1714026094.922,-34.180,-30.273,-25.879,-29.785,0.000
1714026094.926,-32.227,-26.855,-30.762,-31.738,0.000
1714026094.930,-29.297,-20.996,-29.785,-30.273,0.000
1714026094.934,-31.738,-20.508,-22.461,-27.344,0.000
1714026094.938,-25.391,-20.996,-29.297,-32.715,0.000
1714026094.942,-20.996,-25.879,-31.738,-33.691,0.000
1714026094.946,-24.902,-29.297,-23.438,-34.668,0.000
1714026094.949,-24.414,-28.320,-20.996,-34.668,0.000
1714026094.951,-25.391,-29.785,-19.043,-36.133,0.000
1714026094.955,-26.855,-30.273,-22.461,-33.203,0.000
1714026094.959,-22.461,-24.902,-20.508,-25.879,0.000
1714026094.963,-21.484,-25.391,-13.184,-27.832,0.000
1714026094.967,-17.578,-25.879,-14.160,-28.320,0.000
1714026094.971,-14.160,-21.484,-25.391,-22.949,0.000
1714026094.975,-20.996,-23.926,-27.832,-23.438,0.000
1714026094.979,-25.879,-28.809,-23.926,-32.715,0.000
1714026094.983,-21.484,-28.809,-27.832,-33.691,0.000
1714026094.987,-22.461,-28.320,-31.738,-30.762,0.000
1714026094.991,-24.414,-29.297,-30.762,-36.133,0.000
1714026094.994,-29.785,-29.785,-25.391,-37.598,0.000
1714026095.003,-37.109,-32.227,-29.785,-40.039,0.000
1714026095.007,-30.762,-32.715,-37.598,-35.645,0.000
1714026095.010,-29.297,-30.762,-38.574,-34.668,0.000
1714026095.014,-35.645,-33.203,-41.016,-40.527,0.000
1714026095.018,-38.086,-32.227,-41.992,-41.992,0.000
1714026095.022,-35.156,-29.297,-36.621,-41.504,0.000
1714026095.026,-36.133,-32.715,-28.320,-43.457,0.000
1714026095.030,-39.551,-36.621,-32.715,-45.410,0.000
1714026095.034,-40.527,-34.180,-34.668,-38.574,0.000
1714026095.038,-40.527,-29.297,-24.902,-32.227,0.000
1714026095.042,-38.574,-28.320,-28.320,-37.109,0.000
1714026095.046,-33.203,-26.855,-34.668,-38.086,0.000
1714026095.051,-35.645,-26.855,-33.691,-29.785,0.000
1714026095.055,-37.109,-26.855,-35.645,-23.438,0.000
1714026095.059,-34.180,-28.320,-34.180,-25.879,0.000
1714026095.063,-33.691,-27.832,-32.227,-32.227,0.000
1714026095.067,-33.691,-22.949,-34.668,-27.832,0.000
1714026095.071,-37.109,-26.855,-36.621,-23.438,0.000
1714026095.075,-34.668,-29.785,-30.762,-25.391,0.000
1714026095.078,-31.738,-28.809,-25.879,-28.809,0.000
1714026095.082,-30.762,-29.785,-28.809,-24.902,0.000
1714026095.086,-28.809,-32.715,-27.832,-14.648,0.000
1714026095.090,-34.668,-34.668,-33.691,-20.996,0.000
1714026095.094,-36.133,-32.227,-41.016,-28.320,0.000
1714026095.098,-34.668,-31.738,-42.969,-31.738,0.000
1714026095.102,-39.062,-36.133,-39.551,-33.203,0.000
1714026095.106,-43.945,-36.133,-36.133,-30.273,0.000
1714026095.110,-44.922,-23.438,-34.180,-31.738,0.000
1714026095.114,-43.457,-21.484,-28.809,-33.691,0.000
1714026095.118,-37.109,-28.809,-25.879,-30.273,0.000
1714026095.122,-33.203,-28.809,-29.297,-28.320,0.000
1714026095.126,-31.738,-29.785,-38.086,-27.832,0.000
1714026095.130,-30.762,-30.273,-42.480,-26.367,0.000
1714026095.134,-27.832,-27.344,-40.039,-26.367,0.000
1714026095.137,-18.066,-24.414,-40.527,-21.484,0.000
1714026095.141,-15.137,-28.809,-39.062,-11.719,0.000
1714026095.151,-20.996,-29.785,-29.297,-19.531,0.000
1714026095.155,-15.625,-19.531,-23.438,-24.902,0.000
1714026095.158,-7.812,-16.113,-23.438,-9.766,0.000
1714026095.162,-9.277,-17.578,-17.578,-10.254,0.000
1714026095.166,-7.324,-22.949,-17.578,-22.461,0.000
1714026095.170,-9.277,-32.227,-29.785,-33.691,0.000
1714026095.174,-14.648,-31.738,-37.598,-38.574,0.000
1714026095.178,-4.395,-29.785,-33.203,-26.367,0.000
1714026095.182,5.371,-29.297,-28.809,-13.672,0.000
1714026095.186,3.418,-26.855,-33.203,-19.043,0.000
1714026095.190,-6.348,-28.320,-41.016,-20.996,0.000
1714026095.194,-8.789,-30.273,-27.344,-11.719,0.000
1714026095.194,-7.812,-30.273,-11.719,-6.348,0.000
1714026095.198,-15.625,-30.273,-13.184,-13.184,0.000
1714026095.202,-21.973,-36.133,-20.996,-17.578,0.000
1714026095.206,-22.461,-34.180,-29.785,-12.695,0.000
1714026095.209,-20.508,-28.320,-27.832,-13.184,0.000
1714026095.213,-24.414,-34.180,-22.949,-21.484,0.000
1714026095.217,-26.855,-41.504,-29.785,-28.809,0.000
1714026095.221,-23.438,-39.062,-29.297,-25.391,0.000
1714026095.225,-22.949,-33.691,-25.879,-22.949,0.000
1714026095.229,-22.461,-32.715,-25.879,-25.879,0.000
1714026095.233,-23.438,-31.738,-22.461,-25.879,0.000
1714026095.237,-26.367,-32.715,-20.996,-11.230,0.000
1714026095.238,-25.391,-29.297,-25.391,-5.859,0.000
1714026095.242,-26.855,-25.879,-32.227,-19.043,0.000
1714026095.246,-19.043,-28.809,-29.297,-17.578,0.000
1714026095.250,-16.113,-38.086,-26.367,-17.578,0.000
1714026095.253,-22.461,-38.574,-28.320,-19.043,0.000
1714026095.257,-21.484,-33.203,-31.250,-19.043,0.000
1714026095.261,-18.555,-33.691,-32.715,-17.090,0.000
1714026095.265,-23.438,-33.691,-29.297,-17.578,0.000
1714026095.269,-31.250,-34.180,-27.344,-28.809,0.000
1714026095.273,-33.203,-34.180,-29.785,-33.203,0.000
1714026095.277,-30.273,-38.574,-40.039,-33.691,0.000
1714026095.281,-30.762,-36.621,-41.016,-35.645,0.000
1714026095.282,-37.109,-34.180,-30.762,-34.668,0.000
1714026095.286,-29.785,-35.645,-31.250,-28.320,0.000
1714026095.290,-28.320,-33.203,-33.203,-30.273,0.000
1714026095.294,-36.621,-34.668,-32.715,-37.109,0.000
1714026095.298,-32.715,-35.156,-41.992,-29.297,0.000
1714026095.302,-26.367,-34.668,-37.598,-24.414,0.000
1714026095.306,-22.949,-30.273,-28.809,-24.902,0.000
1714026095.310,-20.996,-23.926,-33.691,-22.461,0.000
1714026095.313,-20.508,-25.879,-37.598,-27.832,0.000
1714026095.317,-24.414,-25.391,-32.715,-27.832,0.000
1714026095.321,-24.414,-19.043,-23.926,-26.855,0.000
1714026095.325,-23.438,-17.578,-27.344,-36.133,0.000
1714026095.327,-27.344,-26.855,-31.738,-45.898,0.000
1714026095.331,-19.531,-24.414,-28.320,-40.527,0.000
1714026095.335,-9.766,-18.555,-24.902,-27.344,0.000
1714026095.339,-12.207,-24.414,-24.414,-30.273,0.000
1714026095.342,-18.555,-24.414,-23.926,-36.133,0.000
1714026095.346,-16.113,-21.484,-22.461,-32.227,0.000
1714026095.350,-12.695,-21.973,-20.508,-23.926,0.000
1714026095.354,-22.461,-22.949,-24.414,-25.391,0.000
1714026095.358,-29.297,-23.438,-27.344,-34.668,0.000
1714026095.362,-29.785,-22.949,-25.879,-32.715,0.000
1714026095.366,-28.809,-24.902,-20.996,-25.391,0.000
1714026095.370,-24.902,-29.297,-15.625,-26.367,0.000
1714026095.378,-22.949,-24.902,-20.020,-26.367,0.000
1714026095.382,-24.414,-19.043,-28.320,-24.414,0.000
1714026095.386,-27.344,-21.484,-27.344,-27.832,0.000
1714026095.390,-29.297,-21.973,-30.762,-32.227,0.000
1714026095.394,-32.227,-22.949,-24.902,-36.621,0.000
1714026095.397,-32.715,-22.461,-16.113,-35.645,0.000
1714026095.401,-33.691,-21.484,-20.020,-30.273,0.000
1714026095.405,-34.180,-21.484,-18.066,-28.809,0.000
1714026095.409,-31.250,-19.043,-13.184,-31.738,0.000
1714026095.413,-34.180,-24.414,-21.484,-31.738,0.000
1714026095.417,-35.156,-34.668,-28.809,-31.250,0.000
1714026095.421,-30.273,-31.250,-29.785,-31.250,0.000
1714026095.427,-28.320,-23.926,-29.297,-34.180,0.000
1714026095.431,-32.715,-25.879,-27.832,-39.062,0.000
1714026095.434,-38.086,-29.297,-26.367,-40.039,0.000
1714026095.438,-33.691,-31.738,-26.367,-38.574,0.000
1714026095.442,-26.855,-32.715,-32.227,-36.621,0.000
1714026095.446,-26.855,-28.320,-28.320,-40.527,0.000
1714026095.450,-27.344,-22.949,-20.020,-44.434,0.000
1714026095.454,-25.879,-21.973,-22.949,-38.086,0.000
1714026095.458,-23.926,-24.902,-30.273,-25.391,0.000
1714026095.462,-16.602,-23.438,-29.785,-18.066,0.000
1714026095.466,-19.043,-20.508,-24.902,-26.367,0.000
1714026095.470,-32.227,-28.809,-30.762,-37.598,0.000
1714026095.474,-27.344,-32.227,-29.785,-33.691,0.000
1714026095.477,-18.066,-20.508,-31.738,-30.273,0.000
1714026095.481,-23.926,-17.090,-31.250,-32.715,0.000
1714026095.485,-30.762,-29.785,-20.996,-32.715,0.000
1714026095.489,-28.809,-33.691,-23.926,-27.832,0.000
1714026095.493,-27.344,-25.879,-29.785,-24.902,0.000
1714026095.497,-25.879,-19.531,-25.391,-20.508,0.000
1714026095.501,-22.949,-17.578,-21.973,-19.043,0.000
1714026095.505,-19.531,-18.066,-21.973,-9.766,0.000
1714026095.509,-13.672,-16.113,-16.602,-6.348,0.000
1714026095.513,-18.066,-16.113,-13.672,-20.020,0.000
1714026095.517,-23.438,-18.066,-19.531,-26.367,0.000
1714026095.520,-26.367,-19.043,-23.926,-21.973,0.000
1714026095.524,-29.297,-16.602,-22.461,-20.996,0.000
1714026095.527,-22.949,-18.066,-24.414,-28.320,0.000
1714026095.531,-16.113,-20.508,-29.785,-29.785,0.000
1714026095.535,-20.508,-20.020,-27.832,-24.902,0.000
1714026095.539,-23.438,-20.020,-27.344,-24.902,0.000
1714026095.543,-24.414,-23.926,-29.297,-34.180,0.000
1714026095.547,-23.926,-28.320,-29.785,-34.668,0.000
1714026095.551,-25.879,-24.414,-28.809,-26.855,0.000
1714026095.555,-29.297,-19.043,-23.438,-26.855,0.000
1714026095.559,-30.273,-19.043,-26.367,-37.598,0.000
1714026095.563,-29.785,-21.484,-23.926,-42.480,0.000
1714026095.565,-34.668,-23.438,-20.508,-41.504,0.000
1714026095.569,-35.156,-23.926,-29.785,-40.039,0.000
1714026095.573,-30.273,-28.809,-39.551,-35.645,0.000
1714026095.577,-30.762,-34.668,-36.621,-36.621,0.000
1714026095.581,-33.691,-30.762,-35.156,-41.504,0.000
1714026095.585,-33.203,-29.785,-37.598,-41.504,0.000
1714026095.589,-28.809,-27.832,-31.738,-36.133,0.000
1714026095.593,-30.762,-24.902,-29.785,-33.691,0.000
1714026095.597,-30.273,-29.785,-23.926,-25.879,0.000
1714026095.601,-7.812,-29.297,-20.020,-8.789,0.000
1714026095.604,-7.324,-21.484,-25.879,-14.648,0.000
1714026095.608,-27.344,-19.531,-31.250,-36.621,0.000
1714026095.611,-21.973,-23.438,-27.344,-39.062,0.000
1714026095.615,-22.461,-20.508,-32.227,-34.180,0.000
1714026095.619,-22.949,-20.508,-41.992,-26.855,0.000
1714026095.622,-20.020,-20.996,-44.922,-31.250,0.000
1714026095.626,-32.227,-16.113,-43.945,-43.457,0.000
1714026095.630,-36.621,-19.531,-44.434,-47.852,0.000
1714026095.634,-29.297,-20.020,-48.340,-37.109,0.000
1714026095.638,-26.855,-18.555,-41.992,-25.879,0.000
1714026095.642,-27.344,-19.043,-36.133,-26.855,0.000
1714026095.646,-24.902,-19.531,-36.621,-31.738,0.000
1714026095.650,-18.555,-17.578,-43.457,-32.227,0.000
1714026095.654,-20.020,-17.578,-44.434,-25.879,0.000
1714026095.662,-19.531,-19.531,-37.598,-24.902,0.000
1714026095.666,-14.648,-15.625,-38.086,-29.785,0.000
1714026095.670,-17.578,-20.996,-35.645,-29.785,0.000
1714026095.674,-20.020,-19.043,-33.691,-34.180,0.000
1714026095.678,-17.090,-11.719,-28.320,-41.016,0.000
1714026095.681,-20.996,-18.066,-26.367,-40.039,0.000
1714026095.685,-21.484,-26.367,-28.809,-29.785,0.000
1714026095.689,-18.555,-20.996,-23.438,-20.020,0.000
1714026095.693,-22.461,-14.648,-27.344,-24.414,0.000
1714026095.697,-22.949,-15.625,-39.062,-28.320,0.000
1714026095.701,-21.973,-19.531,-36.133,-31.738,0.000
1714026095.705,-21.973,-18.066,-25.391,-32.715,0.000
1714026095.705,-21.484,-17.090,-30.762,-32.227,0.000
1714026095.709,-25.879,-18.066,-38.574,-37.109,0.000
1714026095.713,-25.879,-16.113,-28.809,-39.062,0.000
1714026095.716,-22.949,-17.090,-21.484,-35.645,0.000
1714026095.720,-22.461,-20.996,-25.391,-35.156,0.000
1714026095.724,-26.367,-27.344,-35.156,-36.621,0.000
1714026095.728,-29.785,-25.879,-41.992,-39.062,0.000
1714026095.732,-28.320,-24.414,-41.504,-35.156,0.000
1714026095.736,-30.273,-23.926,-37.598,-29.297,0.000
1714026095.740,-22.949,-20.508,-32.227,-26.367,0.000
1714026095.744,-20.020,-22.461,-26.855,-26.367,0.000
1714026095.748,-24.414,-22.949,-26.367,-34.180,0.000
1714026095.755,-23.438,-23.926,-31.738,-35.156,0.000
1714026095.758,-21.484,-33.691,-26.855,-29.297,0.000
1714026095.762,-26.855,-40.039,-31.250,-41.016,0.000
1714026095.766,-31.738,-35.156,-47.363,-51.270,0.000
1714026095.770,-23.438,-28.809,-43.457,-44.922,0.000
1714026095.774,-22.461,-28.809,-33.203,-33.691,0.000
1714026095.778,-25.879,-31.738,-30.273,-34.668,0.000
1714026095.782,-26.367,-27.832,-27.832,-46.387,0.000
1714026095.786,-22.461,-21.484,-19.531,-41.016,0.000
1714026095.790,-19.531,-22.461,-17.090,-28.809,0.000
1714026095.794,-23.926,-23.438,-27.832,-25.391,0.000
1714026095.797,-25.879,-23.926,-34.668,-26.367,0.000
1714026095.809,-27.344,-27.832,-37.109,-28.320,0.000
1714026095.812,-28.809,-27.832,-34.180,-27.344,0.000
1714026095.816,-27.832,-27.832,-28.809,-29.785,0.000
1714026095.820,-29.297,-30.762,-34.180,-37.109,0.000
1714026095.824,-29.297,-28.320,-32.715,-34.668,0.000
1714026095.828,-27.832,-23.438,-21.973,-25.879,0.000
1714026095.832,-26.855,-23.926,-20.020,-28.809,0.000
1714026095.836,-26.367,-28.320,-29.297,-40.527,0.000
1714026095.840,-28.809,-32.227,-41.016,-41.992,0.000
1714026095.844,-35.156,-32.715,-45.898,-39.062,0.000
1714026095.848,-34.180,-24.902,-41.992,-32.715,0.000
1714026095.852,-30.273,-24.414,-31.250,-34.668,0.000
1714026095.853,-34.180,-29.785,-25.391,-40.039,0.000
1714026095.857,-33.691,-26.367,-22.949,-34.668,0.000
1714026095.861,-30.273,-23.926,-20.996,-30.762,0.000
1714026095.865,-28.809,-26.367,-14.648,-30.762,0.000
1714026095.868,-30.762,-28.809,-15.625,-35.645,0.000
1714026095.872,-27.344,-26.855,-20.508,-26.367,0.000
1714026095.876,-21.973,-26.367,-21.484,-19.531,0.000
1714026095.880,-25.391,-30.273,-24.902,-24.414,0.000
1714026095.884,-26.367,-30.273,-28.320,-28.809,0.000
1714026095.888,-27.832,-27.344,-28.320,-33.691,0.000
1714026095.892,-28.320,-26.855,-29.297,-35.645,0.000
1714026095.896,-23.926,-26.855,-29.297,-30.762,0.000
1714026095.897,-25.879,-23.438,-27.832,-22.461,0.000
1714026095.901,-30.273,-20.020,-24.414,-21.973,0.000
1714026095.905,-27.344,-21.973,-20.020,-27.832,0.000
1714026095.909,-23.926,-21.973,-19.043,-21.973,0.000
1714026095.913,-23.438,-20.508,-23.926,-18.066,0.000
1714026095.917,-26.367,-17.578,-23.926,-24.414,0.000
1714026095.921,-30.762,-22.461,-24.414,-27.832,0.000
1714026095.925,-31.738,-28.320,-30.273,-29.297,0.000
1714026095.929,-26.855,-22.461,-29.297,-20.996,0.000
1714026095.933,-27.832,-21.973,-26.367,-24.902,0.000
1714026095.936,-32.227,-27.832,-39.551,-34.668,0.000
1714026095.940,-30.273,-26.855,-40.527,-33.203,0.000
1714026095.942,-30.273,-25.879,-27.832,-33.203,0.000
1714026095.946,-21.973,-16.602,-31.738,-38.086,0.000
1714026095.950,-3.906,-19.043,-40.527,-22.461,0.000
1714026095.954,-13.672,-31.738,-40.039,-17.578,0.000
1714026095.958,-34.180,-34.180,-30.273,-30.762,0.000
1714026095.962,-24.414,-34.180,-18.555,-22.461,0.000
1714026095.965,-16.602,-33.691,-20.996,-11.230,0.000
1714026095.969,-23.438,-34.668,-21.484,-10.742,0.000
1714026095.973,-29.785,-36.621,-10.742,-14.160,0.000
1714026095.977,-31.738,-40.039,-8.301,-24.414,0.000
1714026095.981,-39.062,-45.898,-14.160,-29.785,0.000
1714026095.985,-39.551,-46.875,-11.719,-25.879,0.000
1714026095.987,-29.297,-41.016,-11.719,-14.648,0.000
1714026095.991,-31.250,-42.969,-15.137,-18.066,0.000
1714026095.995,-35.645,-42.480,-23.926,-28.809,0.000
1714026095.998,-30.762,-40.039,-24.414,-28.320,0.000
1714026096.002,-31.738,-45.898,-18.555,-25.391,0.000
1714026096.006,-33.203,-46.387,-28.320,-25.391,0.000
1714026096.010,-26.855,-41.504,-29.785,-26.367,0.000
1714026096.014,-27.344,-41.992,-27.832,-23.926,0.000
1714026096.018,-34.668,-44.434,-31.738,-20.996,0.000
1714026096.022,-33.203,-45.410,-26.855,-21.484,0.000
1714026096.026,-33.691,-46.875,-21.484,-22.949,0.000
1714026096.030,-35.156,-45.410,-21.973,-24.414,0.000
1714026096.032,-30.762,-44.434,-23.438,-24.902,0.000
1714026096.036,-26.855,-37.109,-14.648,-17.578,0.000
1714026096.040,-23.926,-39.062,-6.836,-9.277,0.000
1714026096.044,-22.461,-40.039,-22.461,-8.789,0.000
1714026096.048,-29.297,-35.645,-31.250,-14.648,0.000
1714026096.051,-30.762,-37.598,-26.855,-15.625,0.000
1714026096.055,-24.902,-37.109,-24.414,-14.648,0.000
1714026096.059,-23.438,-31.738,-19.531,-19.531,0.000
1714026096.063,-19.531,-29.785,-22.461,-15.625,0.000
1714026096.067,-18.066,-28.809,-21.484,-9.277,0.000
1714026096.071,-17.090,-27.832,-13.184,-11.719,0.000
1714026096.075,-13.672,-35.156,-16.113,-16.602,0.000
1714026096.077,-17.090,-35.156,-25.879,-16.113,0.000
1714026096.081,-19.531,-28.809,-22.461,-12.207,0.000
1714026096.085,-20.020,-27.344,-16.602,-14.160,0.000
1714026096.088,-30.762,-26.855,-23.926,-23.438,0.000
1714026096.092,-32.715,-22.949,-28.320,-25.879,0.000
1714026096.096,-20.996,-20.020,-32.227,-13.672,0.000
1714026096.100,-18.555,-26.367,-35.645,-8.789,0.000
1714026096.104,-20.020,-28.809,-29.785,-19.043,0.000
1714026096.108,-17.090,-29.785,-29.297,-23.438,0.000
1714026096.112,-17.090,-33.203,-33.203,-34.180,0.000
1714026096.116,-8.301,-33.691,-36.133,-37.109,0.000
1714026096.120,-0.488,-33.203,-32.715,-38.086,0.000
1714026096.128,-5.859,-32.715,-32.715,-43.945,0.000
1714026096.132,-15.137,-31.250,-34.668,-39.551,0.000
1714026096.136,-17.578,-33.203,-23.926,-32.227,0.000
1714026096.139,-20.020,-38.086,-22.949,-32.715,0.000
1714026096.143,-31.738,-41.504,-28.809,-36.133,0.000
1714026096.147,-41.992,-41.016,-30.273,-33.203,0.000
1714026096.151,-39.551,-37.598,-26.367,-31.738,0.000
1714026096.155,-35.645,-32.227,-21.973,-30.273,0.000
1714026096.159,-34.668,-26.855,-21.484,-27.832,0.000
1714026096.163,-34.180,-29.785,-25.879,-22.461,0.000
1714026096.167,-37.598,-29.785,-27.832,-28.320,0.000
1714026096.171,-41.992,-26.367,-31.250,-34.180,0.000
1714026096.176,-38.086,-27.832,-35.645,-30.273,0.000
1714026096.180,-34.668,-29.297,-24.902,-29.297,0.000
1714026096.184,-35.645,-29.297,-21.973,-29.297,0.000
1714026096.188,-35.645,-33.203,-22.461,-30.273,0.000
1714026096.192,-36.133,-37.109,-24.414,-28.320,0.000
1714026096.196,-34.180,-38.086,-36.133,-32.227,0.000
1714026096.200,-34.668,-37.109,-28.809,-35.645,0.000
1714026096.204,-30.273,-31.250,-13.184,-19.531,0.000
1714026096.208,-25.879,-31.250,-25.391,-13.184,0.000
1714026096.211,-28.809,-37.109,-40.039,-23.926,0.000
1714026096.215,-31.250,-32.227,-30.762,-32.715,0.000
1714026096.219,-31.738,-26.855,-23.926,-28.320,0.000
1714026096.224,-24.902,-28.320,-19.531,-22.461,0.000
1714026096.228,-17.578,-27.344,-17.578,-20.508,0.000
1714026096.231,-24.902,-30.273,-28.320,-24.902,0.000
1714026096.235,-36.621,-36.621,-39.551,-30.273,0.000
1714026096.239,-31.250,-35.156,-38.086,-25.391,0.000
1714026096.243,-27.832,-38.086,-36.621,-25.879,0.000
1714026096.247,-31.250,-38.086,-38.086,-32.715,0.000
1714026096.251,-30.273,-35.645,-33.691,-33.203,0.000
1714026096.255,-28.320,-38.574,-32.227,-22.949,0.000
1714026096.259,-31.250,-40.039,-35.156,-26.855,0.000
1714026096.263,-33.691,-36.621,-29.297,-39.062,0.000
1714026096.267,-29.785,-36.621,-21.973,-33.691,0.000
1714026096.270,-32.227,-39.062,-25.879,-30.762,0.000
1714026096.273,-35.156,-39.062,-25.879,-32.227,0.000
1714026096.277,-36.133,-37.598,-28.320,-36.133,0.000
1714026096.281,-36.621,-36.621,-31.250,-40.039,0.000
1714026096.285,-38.086,-35.645,-27.832,-34.668,0.000
1714026096.289,-37.109,-35.645,-32.227,-31.250,0.000
1714026096.293,-33.691,-35.156,-30.762,-34.180,0.000
1714026096.297,-37.598,-36.621,-31.250,-39.551,0.000
1714026096.301,-39.062,-37.598,-36.621,-35.156,0.000
1714026096.305,-30.762,-32.227,-29.297,-23.438,0.000
1714026096.309,-28.320,-33.203,-28.809,-24.902,0.000
1714026096.312,-26.367,-32.227,-31.738,-33.203,0.000
1714026096.315,-21.484,-29.785,-33.203,-33.691,0.000
1714026096.319,-21.484,-32.227,-31.250,-25.879,0.000
1714026096.323,-22.461,-30.762,-29.785,-27.344,0.000
1714026096.327,-19.043,-25.879,-26.855,-29.297,0.000
1714026096.331,-19.531,-22.461,-24.902,-29.785,0.000
1714026096.335,-20.996,-25.879,-34.180,-33.691,0.000
1714026096.339,-21.973,-26.367,-34.668,-29.785,0.000
1714026096.343,-20.020,-20.508,-26.855,-25.391,0.000
1714026096.347,-18.066,-17.578,-24.414,-21.973,0.000
1714026096.351,-20.020,-19.043,-21.484,-16.602,0.000
1714026096.354,-19.531,-20.996,-21.484,-20.508,0.000
1714026096.358,-22.461,-24.414,-28.809,-30.273,0.000
1714026096.361,-24.902,-22.949,-34.668,-33.691,0.000
1714026096.365,-25.391,-22.949,-35.645,-28.809,0.000
1714026096.369,-27.344,-25.391,-32.227,-24.902,0.000
1714026096.373,-24.902,-25.391,-28.320,-28.809,0.000
1714026096.377,-22.461,-21.484,-27.344,-33.203,0.000
1714026096.380,-26.855,-23.926,-25.879,-32.715,0.000
1714026096.384,-31.250,-29.785,-30.273,-25.879,0.000
1714026096.388,-29.297,-29.297,-33.691,-21.973,0.000
1714026096.392,-26.367,-23.438,-31.250,-27.344,0.000
1714026096.396,-22.949,-23.438,-34.668,-25.879,0.000
1714026096.400,-23.438,-28.320,-32.227,-21.973,0.000
1714026096.404,-22.461,-27.344,-30.273,-26.855,0.000
1714026096.406,-21.973,-26.367,-36.621,-26.855,0.000
1714026096.410,-23.438,-29.785,-37.598,-20.508,0.000
1714026096.414,-22.949,-24.414,-30.762,-17.578,0.000
1714026096.418,-27.832,-22.461,-27.344,-21.484,0.000
1714026096.422,-31.250,-27.344,-32.227,-28.320,0.000
1714026096.426,-37.598,-28.320,-38.574,-27.832,0.000
1714026096.430,-37.109,-29.297,-34.668,-16.602,0.000
1714026096.434,-34.668,-26.855,-38.086,-18.555,0.000
1714026096.438,-32.227,-24.902,-35.156,-28.809,0.000
1714026096.442,-28.809,-28.809,-30.273,-28.809,0.000
1714026096.445,-35.645,-32.715,-28.809,-24.414,0.000
1714026096.449,-41.504,-29.785,-23.438,-20.508,0.000
1714026096.452,-40.527,-28.809,-25.879,-27.344,0.000
1714026096.456,-38.086,-29.297,-28.320,-36.133,0.000
1714026096.459,-38.574,-23.438,-22.461,-36.133,0.000
1714026096.463,-39.062,-22.949,-20.996,-29.297,0.000
1714026096.467,-31.738,-22.949,-25.879,-20.996,0.000
1714026096.471,-23.926,-22.949,-26.855,-22.949,0.000
1714026096.475,-25.391,-23.438,-32.715,-32.227,0.000
1714026096.479,-28.809,-25.391,-28.320,-30.762,0.000
1714026096.483,-24.902,-27.344,-19.531,-19.531,0.000
1714026096.487,-18.066,-26.855,-29.785,-18.555,0.000
1714026096.491,-22.461,-28.320,-32.227,-28.320,0.000
1714026096.495,-26.855,-25.391,-21.973,-28.809,0.000
1714026096.503,-25.879,-24.414,-29.785,-31.250,0.000
1714026096.507,-29.785,-25.391,-33.203,-33.691,0.000
1714026096.511,-30.762,-23.926,-27.832,-28.320,0.000
1714026096.515,-27.832,-23.926,-20.996,-25.391,0.000
1714026096.518,-29.297,-25.879,-16.602,-22.461,0.000
1714026096.522,-29.297,-28.320,-17.578,-17.578,0.000
1714026096.526,-28.809,-31.250,-21.484,-28.320,0.000
1714026096.530,-29.785,-31.250,-22.461,-35.645,0.000
1714026096.534,-30.762,-24.902,-25.391,-30.762,0.000
1714026096.538,-30.762,-26.855,-23.926,-20.020,0.000
1714026096.542,-30.762,-27.832,-22.949,-22.461,0.000
1714026096.546,-35.156,-27.344,-25.391,-33.691,0.000
1714026096.551,-41.992,-26.367,-17.090,-35.156,0.000
1714026096.555,-40.039,-27.832,-18.066,-35.156,0.000
1714026096.559,-35.645,-36.621,-27.832,-26.367,0.000
1714026096.563,-27.832,-40.527,-27.344,-16.113,0.000
1714026096.567,-27.832,-35.645,-26.367,-25.879,0.000
1714026096.571,-37.598,-29.297,-30.273,-40.039,0.000
1714026096.575,-31.738,-27.344,-27.344,-37.598,0.000
1714026096.579,-23.926,-24.902,-26.855,-40.527,0.000
1714026096.583,-28.809,-20.508,-37.109,-38.086,0.000
1714026096.586,-34.668,-18.555,-48.828,-29.297,0.000
1714026096.590,-28.809,-14.160,-48.340,-34.180,0.000
1714026096.594,-23.926,-13.672,-46.387,-40.527,0.000
1714026096.599,-33.203,-14.648,-41.992,-42.969,0.000
1714026096.603,-36.133,-12.207,-35.645,-35.156,0.000
1714026096.607,-30.762,-19.043,-31.738,-29.785,0.000
1714026096.610,-21.973,-20.020,-30.762,-30.273,0.000
1714026096.614,-18.066,-16.113,-31.738,-30.273,0.000
1714026096.618,-18.066,-13.672,-29.297,-33.203,0.000
1714026096.622,-20.508,-13.672,-37.109,-30.273,0.000
1714026096.626,-17.578,-15.625,-34.668,-26.855,0.000
1714026096.630,-14.648,-18.555,-25.391,-26.855,0.000
1714026096.634,-16.602,-19.531,-27.832,-28.809,0.000
1714026096.638,-13.672,-13.672,-28.809,-27.344,0.000
1714026096.642,-18.066,-15.625,-31.738,-28.809,0.000
1714026096.645,-19.531,-16.602,-39.062,-36.621,0.000
1714026096.649,-20.020,-15.137,-44.434,-40.039,0.000
1714026096.653,-18.066,-16.113,-48.340,-39.062,0.000
1714026096.657,-15.137,-13.672,-43.457,-34.668,0.000
1714026096.661,-23.438,-13.184,-38.574,-37.598,0.000
1714026096.665,-26.367,-15.137,-35.645,-40.039,0.000
1714026096.669,-28.809,-14.648,-33.691,-39.062,0.000
1714026096.673,-33.203,-22.461,-41.504,-37.109,0.000
1714026096.676,-35.156,-28.809,-37.598,-33.203,0.000
1714026096.680,-35.156,-22.949,-25.391,-40.039,0.000
1714026096.684,-35.645,-22.949,-26.367,-41.992,0.000
1714026096.688,-34.180,-24.414,-29.297,-34.180,0.000
1714026096.691,-36.133,-31.738,-29.785,-40.039,0.000
1714026096.694,-37.109,-32.715,-30.762,-45.898,0.000
1714026096.698,-28.809,-26.367,-34.180,-37.598,0.000
1714026096.702,-30.273,-27.832,-38.574,-32.715,0.000
1714026096.706,-31.738,-28.320,-31.250,-27.832,0.000
1714026096.710,-28.320,-31.738,-28.809,-27.344,0.000
1714026096.714,-28.320,-30.762,-22.461,-30.762,0.000
1714026096.718,-23.926,-20.996,-14.648,-23.438,0.000
1714026096.722,-24.414,-20.996,-17.090,-23.438,0.000
1714026096.726,-32.227,-24.414,-29.297,-32.715,0.000
1714026096.730,-30.762,-23.438,-35.156,-29.297,0.000
1714026096.734,-25.879,-25.391,-28.809,-23.926,0.000
1714026096.736,-26.367,-27.832,-26.855,-18.066,0.000
1714026096.740,-21.484,-31.250,-27.832,-21.484,0.000
1714026096.744,-19.043,-31.250,-35.156,-27.344,0.000
1714026096.748,-18.066,-30.273,-37.598,-21.484,0.000
1714026096.752,-15.137,-30.273,-31.250,-20.020,0.000
1714026096.755,-18.066,-30.273,-29.785,-26.367,0.000
1714026096.759,-17.578,-31.738,-26.855,-25.879,0.000
1714026096.763,-19.043,-33.691,-24.902,-20.508,0.000
1714026096.767,-20.996,-30.762,-30.762,-20.020,0.000
1714026096.771,-23.926,-26.855,-29.785,-20.020,0.000
1714026096.775,-28.320,-35.156,-26.367,-27.832,0.000
1714026096.779,-27.832,-37.109,-25.391,-33.691,0.000
1714026096.781,-29.785,-32.715,-25.879,-32.227,0.000
1714026096.785,-26.367,-34.668,-31.250,-28.809,0.000
1714026096.789,-20.020,-35.156,-38.086,-31.738,0.000
1714026096.793,-26.855,-36.621,-47.363,-39.551,0.000
1714026096.797,-31.250,-37.598,-40.527,-33.203,0.000
1714026096.801,-25.391,-33.691,-28.320,-26.855,0.000
1714026096.805,-28.320,-29.785,-32.227,-22.949,0.000
