timestamps,TP9,AF7,AF8,TP10,Right AUX
1713985523.008,-86.914,-20.996,-5.859,-112.793,0.000
1713985523.012,-90.332,-37.109,-9.766,-100.586,0.000
1713985523.016,-97.656,-29.785,-31.250,-97.656,0.000
1713985523.020,-91.309,-12.207,-38.086,-102.539,0.000
1713985523.024,-85.938,-18.066,-33.203,-98.633,0.000
1713985523.028,-80.078,-25.879,-37.109,-82.520,0.000
1713985523.032,-66.895,-32.227,-29.785,-52.734,0.000
1713985523.036,-58.105,-18.066,-14.160,-52.246,0.000
1713985523.040,-66.895,-18.066,-25.391,-72.754,0.000
1713985523.044,-61.523,-27.832,-40.039,-66.895,0.000
1713985523.047,-50.293,-23.438,-36.621,-47.852,0.000
1713985523.051,-46.387,-20.996,-28.809,-32.715,0.000
1713985523.055,-41.504,-10.742,-29.297,-41.016,0.000
1713985523.059,-38.086,-10.254,-37.109,-49.316,0.000
1713985523.063,-40.527,-20.508,-33.691,-32.715,0.000
1713985523.067,-28.809,1.465,-21.484,-25.391,0.000
1713985523.071,-22.461,12.695,-33.691,-36.133,0.000
1713985523.075,-26.855,-7.812,-42.969,-38.086,0.000
1713985523.079,-31.250,-14.648,-38.086,-30.762,0.000
1713985523.083,-33.691,-6.836,-32.227,-23.926,0.000
1713985523.087,-26.855,-9.277,-20.508,-21.484,0.000
1713985523.091,-24.414,-15.625,-21.973,-30.762,0.000
1713985523.094,-39.062,-11.230,-27.832,-46.875,0.000
1713985523.098,-46.387,-4.883,-28.809,-46.875,0.000
1713985523.103,-37.598,1.465,-30.273,-51.758,0.000
1713985523.107,-40.527,8.789,-30.762,-70.312,0.000
1713985523.111,-46.875,14.160,-26.367,-73.242,0.000
1713985523.115,-35.645,19.531,-13.184,-57.129,0.000
1713985523.119,-35.645,24.414,-12.207,-65.918,0.000
1713985523.123,-49.805,19.043,-8.301,-84.473,0.000
1713985523.127,-66.406,21.973,-15.625,-95.215,0.000
1713985523.131,-69.336,24.414,-17.578,-92.773,0.000
1713985523.134,-108.398,17.090,9.277,-107.422,0.000
1713985523.138,-158.691,22.949,26.367,-155.762,0.000
1713985523.142,-170.410,24.902,35.645,-177.246,0.000
1713985523.146,-199.707,22.461,41.504,-190.918,0.000
1713985523.150,-230.469,25.879,66.895,-216.309,0.000
1713985523.154,-235.840,30.273,95.703,-234.863,0.000
1713985523.158,-258.789,27.344,109.375,-257.812,0.000
1713985523.162,-288.574,23.926,110.352,-270.996,0.000
1713985523.166,-263.672,31.738,113.770,-247.559,0.000
1713985523.169,-246.582,19.531,115.723,-235.840,0.000
1713985523.173,-248.047,12.695,103.516,-236.328,0.000
1713985523.177,-219.727,36.621,90.820,-215.332,0.000
1713985523.181,-184.570,40.527,92.773,-180.664,0.000
1713985523.185,-181.641,14.160,90.332,-175.293,0.000
1713985523.189,-180.176,-0.977,76.172,-176.758,0.000
1713985523.193,-141.113,-1.953,74.219,-139.160,0.000
1713985523.197,-129.395,-7.812,63.477,-115.723,0.000
1713985523.200,-123.535,-12.695,40.527,-110.352,0.000
1713985523.204,-104.004,-14.648,25.879,-104.492,0.000
1713985523.208,-97.656,-11.719,24.902,-97.656,0.000
1713985523.212,-91.797,-19.531,16.602,-79.102,0.000
1713985523.216,-82.520,-42.969,1.953,-67.871,0.000
1713985523.220,-67.383,-40.039,-5.371,-61.035,0.000
1713985523.224,-48.828,-27.344,-4.395,-43.457,0.000
1713985523.228,-44.922,-31.738,-3.906,-36.621,0.000
1713985523.232,-44.922,-31.250,-28.809,-36.133,0.000
1713985523.236,-31.738,-26.855,-50.781,-21.484,0.000
1713985523.240,-20.020,-28.809,-44.922,-22.461,0.000
1713985523.244,-17.090,-27.832,-44.922,-24.902,0.000
1713985523.248,-12.207,-18.555,-55.664,-12.695,0.000
1713985523.252,-1.953,-29.785,-62.012,-1.953,0.000
1713985523.256,7.812,-23.926,-60.547,5.371,0.000
1713985523.260,6.836,-15.137,-52.246,10.254,0.000
1713985523.264,3.418,-31.738,-60.059,15.625,0.000
1713985523.267,10.742,-29.785,-76.660,26.855,0.000
1713985523.271,15.625,-18.066,-80.078,33.203,0.000
1713985523.275,14.160,-16.113,-78.613,22.949,0.000
1713985523.279,17.578,-15.625,-71.777,19.043,0.000
1713985523.283,22.461,-15.625,-68.359,35.156,0.000
1713985523.287,28.320,-11.719,-65.918,41.016,0.000
1713985523.290,40.527,-3.906,-64.941,35.156,0.000
1713985523.294,33.691,-11.719,-66.895,31.250,0.000
1713985523.298,23.926,-25.879,-61.035,32.227,0.000
1713985523.302,29.785,-21.484,-69.824,30.762,0.000
1713985523.306,23.926,-30.762,-83.008,20.020,0.000
1713985523.310,15.625,-31.738,-78.125,21.484,0.000
1713985523.314,21.484,-17.090,-74.707,27.832,0.000
1713985523.318,25.879,-5.371,-69.336,20.996,0.000
1713985523.322,20.996,-6.836,-60.059,14.648,0.000
1713985523.326,12.207,-18.066,-61.523,3.906,0.000
1713985523.330,14.160,-17.090,-65.918,12.207,0.000
1713985523.333,25.879,-12.695,-59.570,19.531,0.000
1713985523.337,25.879,-16.113,-56.152,5.371,0.000
1713985523.341,26.855,-11.719,-67.383,2.930,0.000
1713985523.345,19.043,-14.648,-68.359,2.930,0.000
1713985523.349,11.719,-23.438,-64.941,1.465,0.000
1713985523.352,17.578,-21.973,-65.918,0.000,0.000
1713985523.356,15.137,-20.996,-66.406,-3.418,0.000
1713985523.360,-2.930,-16.113,-65.430,-1.465,0.000
1713985523.364,-12.695,-20.020,-62.500,0.000,0.000
1713985523.368,-8.301,-25.879,-61.523,-5.859,0.000
1713985523.372,5.859,-17.090,-49.805,-7.324,0.000
1713985523.376,5.859,-16.602,-40.039,0.000,0.000
1713985523.380,-14.648,-28.809,-59.082,-6.836,0.000
1713985523.384,-9.766,-34.668,-70.312,-1.465,0.000
1713985523.388,0.488,-22.461,-57.129,1.465,0.000
1713985523.392,-1.465,-16.113,-47.852,-10.742,0.000
1713985523.396,-2.930,-26.855,-44.922,-6.836,0.000
1713985523.400,-10.254,-32.227,-38.086,-4.883,0.000
1713985523.403,-5.859,-21.484,-41.016,-5.859,0.000
1713985523.407,0.488,-8.301,-41.992,-10.742,0.000
1713985523.411,-3.906,-18.555,-33.691,-16.113,0.000
1713985523.415,-5.371,-32.227,-32.715,-6.348,0.000
1713985523.419,2.441,-29.785,-34.180,-1.953,0.000
1713985523.423,-2.930,-22.949,-39.062,-14.160,0.000
1713985523.427,-9.277,-32.715,-44.922,-19.531,0.000
1713985523.431,-1.953,-35.156,-38.574,-11.230,0.000
1713985523.435,13.184,-18.555,-34.180,0.000,0.000
1713985523.439,20.996,-13.184,-33.203,7.812,0.000
1713985523.443,5.859,-23.926,-25.879,8.789,0.000
1713985523.447,-12.207,-28.809,-16.602,-1.953,0.000
1713985523.450,-20.020,-30.273,-25.879,-9.277,0.000
1713985523.454,-17.090,-31.738,-25.879,-11.230,0.000
1713985523.458,-23.438,-29.297,-24.414,-16.602,0.000
1713985523.462,-31.738,-27.344,-33.203,-14.160,0.000
1713985523.466,-18.555,-29.785,-31.738,2.930,0.000
1713985523.470,-11.230,-20.508,-23.926,6.348,0.000
1713985523.474,-18.555,-10.254,-15.625,-5.371,0.000
1713985523.478,-21.484,-19.043,-14.160,-5.859,0.000
1713985523.482,-20.508,-29.785,-19.531,-0.977,0.000
1713985523.486,-10.742,-21.973,-10.254,6.836,0.000
1713985523.489,-18.555,-15.137,-15.137,-6.836,0.000
1713985523.493,-33.203,-20.508,-32.227,-17.578,0.000
1713985523.497,-30.273,-27.832,-34.180,-17.578,0.000
1713985523.501,-16.113,-23.926,-31.738,-17.090,0.000
1713985523.505,-18.066,-25.391,-32.715,-15.137,0.000
1713985523.509,-25.879,-34.668,-37.598,-20.020,0.000
1713985523.513,-26.367,-30.273,-34.668,-15.625,0.000
1713985523.517,-21.484,-22.461,-28.320,-10.742,0.000
1713985523.521,-20.508,-26.367,-33.691,-18.555,0.000
1713985523.525,-30.762,-27.344,-35.156,-27.832,0.000
1713985523.528,-36.133,-36.621,-29.785,-26.367,0.000
1713985523.532,-29.297,-42.969,-33.691,-16.602,0.000
1713985523.536,-20.996,-29.785,-36.133,-7.812,0.000
1713985523.540,-15.625,-16.113,-36.133,-12.207,0.000
1713985523.544,-17.578,-28.320,-22.949,-14.648,0.000
1713985523.548,-22.949,-33.691,-17.578,-13.184,0.000
1713985523.552,-20.996,-28.809,-23.438,-17.090,0.000
1713985523.556,-20.508,-24.902,-25.879,-24.414,0.000
1713985523.560,-22.949,-22.949,-31.250,-30.762,0.000
1713985523.564,-24.902,-41.504,-41.016,-21.973,0.000
1713985523.567,-7.812,-27.344,-28.320,0.000,0.000
1713985523.571,-2.441,-8.301,-17.090,-2.930,0.000
1713985523.575,-18.066,-19.043,-25.391,-25.391,0.000
1713985523.579,-20.996,-31.738,-23.438,-20.508,0.000
1713985523.583,-21.973,-33.203,-31.250,-9.277,0.000
1713985523.587,-10.254,-17.578,-22.949,-6.836,0.000
1713985523.591,-8.301,-19.043,-19.043,-12.207,0.000
1713985523.595,-20.508,-32.715,-33.691,-21.973,0.000
1713985523.599,-21.484,-34.180,-35.645,-13.672,0.000
1713985523.603,-20.020,-30.273,-34.668,-7.324,0.000
1713985523.606,-18.555,-24.414,-35.645,-19.043,0.000
1713985523.610,-25.391,-21.484,-35.156,-31.738,0.000
1713985523.614,-32.227,-31.250,-45.410,-24.414,0.000
1713985523.618,-29.297,-41.016,-42.969,-20.508,0.000
1713985523.622,-25.879,-40.527,-32.227,-30.762,0.000
1713985523.626,-27.832,-38.086,-39.551,-36.133,0.000
1713985523.630,-24.902,-33.691,-50.293,-31.738,0.000
1713985523.633,-16.113,-22.949,-43.945,-23.438,0.000
1713985523.637,-16.113,-12.207,-25.391,-34.668,0.000
1713985523.641,-26.367,-18.555,-22.461,-37.598,0.000
1713985523.645,-25.879,-19.043,-26.855,-14.648,0.000
1713985523.649,-11.230,-9.277,-31.738,-2.930,0.000
1713985523.653,-19.531,-22.949,-40.039,-29.785,0.000
1713985523.657,-20.996,-22.949,-42.969,-42.480,0.000
1713985523.661,-23.926,-17.090,-35.156,-31.738,0.000
1713985523.664,-31.250,-21.484,-25.879,-31.738,0.000
1713985523.668,-22.461,-24.414,-41.016,-34.668,0.000
1713985523.672,-16.113,-20.996,-39.551,-28.809,0.000
1713985523.676,-20.020,-24.902,-27.344,-30.273,0.000
1713985523.680,-24.414,-35.645,-43.457,-25.879,0.000
1713985523.684,-22.461,-26.855,-51.758,-17.578,0.000
1713985523.688,-24.414,-23.926,-41.992,-25.391,0.000
1713985523.692,-21.973,-32.227,-36.133,-27.344,0.000
1713985523.696,-20.020,-25.391,-41.992,-18.066,0.000
1713985523.700,-23.926,-23.926,-41.504,-16.602,0.000
1713985523.703,-24.414,-31.738,-41.504,-20.996,0.000
1713985523.707,-19.531,-35.156,-38.574,-19.531,0.000
1713985523.712,-19.531,-37.109,-31.738,-16.602,0.000
1713985523.716,-13.672,-34.180,-34.180,-6.836,0.000
1713985523.719,-11.719,-28.320,-34.668,-11.230,0.000
1713985523.723,-20.996,-26.367,-41.016,-25.391,0.000
1713985523.727,-23.926,-20.508,-41.504,-23.438,0.000
1713985523.731,-22.949,-12.207,-35.156,-20.996,0.000
1713985523.735,-24.414,-21.973,-35.156,-23.438,0.000
1713985523.739,-21.484,-22.949,-35.156,-30.762,0.000
1713985523.743,-18.066,-19.043,-27.344,-36.621,0.000
1713985523.747,-23.926,-24.414,-16.113,-34.668,0.000
1713985523.751,-21.973,-21.973,-13.672,-40.039,0.000
1713985523.755,-21.484,-16.113,-24.414,-54.199,0.000
1713985523.759,-25.391,-11.719,-27.344,-57.617,0.000
1713985523.763,-38.574,-12.207,-21.973,-64.453,0.000
1713985523.767,-53.223,-4.883,-26.367,-75.195,0.000
1713985523.770,-56.641,0.000,-24.414,-73.730,0.000
1713985523.774,-73.242,-1.465,-12.695,-87.402,0.000
1713985523.778,-99.121,4.883,-1.953,-114.746,0.000
1713985523.782,-118.652,7.324,4.395,-121.582,0.000
1713985523.786,-141.602,5.371,7.324,-136.719,0.000
1713985523.790,-156.738,10.742,8.789,-152.344,0.000
1713985523.794,-172.852,20.508,11.719,-162.598,0.000
1713985523.798,-190.430,34.180,23.926,-182.129,0.000
1713985523.802,-199.707,35.645,33.203,-200.684,0.000
1713985523.806,-205.078,32.715,36.133,-215.332,0.000
1713985523.810,-207.520,35.645,37.598,-219.238,0.000
1713985523.814,-193.848,33.203,36.133,-200.195,0.000
1713985523.817,-171.387,27.832,48.828,-178.711,0.000
1713985523.821,-163.086,34.668,41.992,-181.152,0.000
1713985523.825,-162.598,41.504,25.879,-190.918,0.000
1713985523.829,-144.531,32.715,19.043,-172.363,0.000
1713985523.833,-123.047,17.090,8.301,-148.438,0.000
1713985523.837,-111.816,-3.906,-1.465,-142.578,0.000
1713985523.841,-100.586,-6.348,-17.090,-140.137,0.000
1713985523.845,-76.172,0.488,-31.738,-107.422,0.000
1713985523.849,-39.062,-6.836,-38.086,-61.035,0.000
1713985523.853,0.000,-9.766,-38.086,-51.758,0.000
1713985523.857,0.000,-4.395,-50.293,-41.504,0.000
1713985523.860,0.000,-13.184,-59.570,-18.555,0.000
1713985523.864,0.000,-29.297,-70.801,-5.371,0.000
1713985523.868,0.000,-39.551,-80.566,4.883,0.000
1713985523.872,0.000,-42.480,-74.707,13.184,0.000
1713985523.876,0.000,-40.039,-76.172,26.367,0.000
1713985523.880,0.000,-43.945,-74.707,48.340,0.000
1713985523.884,0.000,-46.875,-84.473,61.035,0.000
1713985523.888,0.000,-35.156,-92.773,62.012,0.000
1713985523.892,0.000,-30.273,-88.867,62.500,0.000
1713985523.896,0.000,-40.527,-87.891,73.730,0.000
1713985523.899,80.078,-49.805,-91.797,83.008,0.000
1713985523.903,89.355,-50.781,-97.656,84.961,0.000
1713985523.907,95.215,-52.246,-89.844,71.289,0.000
1713985523.911,93.750,-50.781,-74.219,72.266,0.000
1713985523.915,91.309,-53.711,-78.125,79.590,0.000
1713985523.919,79.102,-53.711,-89.355,67.383,0.000
1713985523.923,76.660,-35.645,-87.402,56.152,0.000
1713985523.927,78.613,-38.086,-86.426,66.895,0.000
1713985523.931,76.172,-50.781,-79.590,70.801,0.000
1713985523.935,71.777,-50.293,-74.707,62.988,0.000
1713985523.938,74.219,-56.641,-84.961,53.223,0.000
1713985523.942,79.590,-49.805,-73.242,55.664,0.000
1713985523.946,71.777,-42.969,-64.453,60.059,0.000
1713985523.950,58.105,-46.387,-59.570,54.199,0.000
1713985523.954,61.035,-41.992,-55.176,46.875,0.000
1713985523.958,72.754,-42.969,-62.500,45.898,0.000
1713985523.962,60.059,-45.898,-66.895,50.781,0.000
1713985523.966,47.363,-56.641,-67.871,50.781,0.000
1713985523.970,55.664,-56.152,-63.477,49.316,0.000
1713985523.973,50.293,-40.527,-64.941,41.016,0.000
1713985523.977,39.551,-37.598,-62.500,34.180,0.000
1713985523.981,37.598,-34.668,-51.758,39.551,0.000
1713985523.985,43.457,-33.691,-48.828,42.480,0.000
1713985523.989,47.363,-43.945,-55.664,31.250,0.000
1713985523.993,38.574,-54.688,-47.363,21.484,0.000
1713985523.997,34.668,-62.012,-45.898,29.297,0.000
1713985524.001,32.715,-62.988,-56.152,39.062,0.000
1713985524.004,29.297,-51.758,-47.852,30.273,0.000
1713985524.008,31.250,-38.574,-34.180,28.809,0.000
1713985524.012,17.090,-36.621,-36.133,30.273,0.000
1713985524.016,12.207,-36.621,-49.316,24.902,0.000
1713985524.020,15.137,-34.668,-64.941,16.602,0.000
1713985524.024,10.742,-30.273,-60.059,9.766,0.000
1713985524.028,8.789,-32.715,-43.945,11.719,0.000
1713985524.032,15.625,-38.086,-40.527,20.508,0.000
1713985524.036,23.438,-34.668,-38.574,25.879,0.000
1713985524.039,15.625,-35.645,-33.203,16.602,0.000
1713985524.043,16.602,-34.668,-42.969,16.113,0.000
1713985524.047,20.996,-28.809,-44.434,23.438,0.000
1713985524.051,10.254,-30.273,-22.461,13.672,0.000
1713985524.055,5.859,-37.598,-21.484,1.953,0.000
1713985524.059,9.277,-44.922,-34.180,4.883,0.000
1713985524.063,4.883,-40.039,-32.227,15.625,0.000
1713985524.067,2.441,-28.320,-33.203,12.207,0.000
1713985524.071,6.348,-27.344,-25.391,-0.488,0.000
1713985524.074,0.000,-29.785,-28.320,-4.883,0.000
1713985524.078,-5.859,-28.809,-37.109,0.000,0.000
1713985524.082,-4.395,-33.203,-32.715,13.184,0.000
1713985524.086,6.348,-22.949,-24.414,16.113,0.000
1713985524.090,0.488,-20.020,-23.438,5.371,0.000
1713985524.094,-13.184,-27.832,-37.109,1.465,0.000
1713985524.097,-10.742,-30.273,-42.480,2.930,0.000
1713985524.101,-10.254,-41.504,-35.645,-3.906,0.000
1713985524.105,-6.348,-50.293,-37.109,-10.254,0.000
1713985524.109,-4.883,-33.691,-43.457,-8.789,0.000
1713985524.113,-5.859,-24.414,-30.762,7.324,0.000
1713985524.117,-6.836,-36.621,-16.602,3.418,0.000
1713985524.121,-6.348,-42.480,-10.254,-4.395,0.000
1713985524.125,-6.836,-42.480,-16.602,-9.766,0.000
1713985524.129,-6.836,-25.879,-24.902,-10.742,0.000
1713985524.133,-8.301,-14.648,-29.297,-5.859,0.000
1713985524.137,-7.812,-22.461,-31.738,-11.719,0.000
1713985524.141,-7.324,-17.090,-33.691,-11.719,0.000
1713985524.145,-10.742,-26.855,-33.691,-12.695,0.000
1713985524.149,-17.578,-40.527,-31.738,-20.996,0.000
1713985524.152,-11.719,-40.527,-22.949,-10.254,0.000
1713985524.156,-2.930,-35.156,-18.066,-5.859,0.000
1713985524.160,-11.230,-25.879,-20.996,-18.066,0.000
1713985524.164,-13.184,-40.039,-34.180,-7.812,0.000
1713985524.168,-0.977,-41.992,-42.480,-4.883,0.000
1713985524.172,-6.348,-22.461,-36.621,-23.926,0.000
1713985524.176,-12.695,-19.531,-32.227,-23.438,0.000
1713985524.180,-10.254,-17.090,-21.973,-13.184,0.000
1713985524.184,-14.648,-15.625,-16.602,-17.578,0.000
1713985524.188,-13.672,-20.020,-27.344,-25.879,0.000
1713985524.192,-20.508,-25.879,-27.832,-24.902,0.000
1713985524.196,-22.949,-30.762,-20.996,-28.809,0.000
1713985524.199,-17.578,-25.879,-25.879,-30.762,0.000
1713985524.203,-23.926,-28.809,-30.273,-32.227,0.000
1713985524.207,-22.949,-30.273,-32.227,-34.668,0.000
1713985524.211,-23.438,-21.973,-32.715,-24.902,0.000
1713985524.215,-26.367,-20.508,-31.738,-13.672,0.000
1713985524.219,-19.043,-22.949,-29.297,-25.879,0.000
1713985524.223,-13.184,-35.156,-25.391,-34.668,0.000
1713985524.227,-12.207,-26.367,-30.762,-25.879,0.000
1713985524.231,-17.578,-18.555,-28.320,-15.625,0.000
1713985524.235,-20.020,-32.227,-30.273,-21.484,0.000
1713985524.239,-22.461,-32.227,-38.086,-35.156,0.000
1713985524.243,-29.785,-28.320,-39.551,-28.320,0.000
1713985524.246,-28.320,-31.250,-40.039,-18.066,0.000
1713985524.250,-21.484,-38.086,-34.180,-17.578,0.000
1713985524.254,-21.484,-31.738,-30.273,-20.996,0.000
1713985524.258,-20.996,-24.414,-25.879,-19.043,0.000
1713985524.262,-19.531,-30.762,-18.555,-15.137,0.000
1713985524.266,-17.090,-31.738,-10.254,-15.625,0.000
1713985524.270,-19.531,-25.391,-23.926,-20.996,0.000
1713985524.274,-21.973,-28.320,-37.109,-21.973,0.000
1713985524.278,-29.297,-50.781,-39.062,-28.809,0.000
1713985524.282,-28.809,-51.270,-34.180,-31.738,0.000
1713985524.285,-19.043,-27.344,-29.297,-22.949,0.000
1713985524.289,-28.320,-17.090,-35.156,-35.645,0.000
1713985524.293,-37.109,-24.902,-28.320,-40.527,0.000
1713985524.297,-33.691,-33.691,-29.297,-28.320,0.000
1713985524.301,-27.832,-31.250,-35.645,-25.391,0.000
1713985524.305,-24.414,-22.949,-23.438,-27.832,0.000
1713985524.309,-24.414,-18.066,-17.578,-23.926,0.000
1713985524.313,-25.879,-19.043,-17.090,-21.973,0.000
1713985524.317,-24.414,-19.531,-23.438,-25.391,0.000
1713985524.320,-21.484,-23.438,-30.762,-22.461,0.000
1713985524.324,-24.902,-22.949,-25.879,-25.879,0.000
1713985524.328,-31.738,-24.414,-29.297,-30.762,0.000
1713985524.332,-28.809,-36.133,-31.250,-25.391,0.000
1713985524.336,-24.902,-36.133,-31.738,-23.438,0.000
1713985524.340,-29.297,-28.320,-39.062,-27.344,0.000
1713985524.344,-27.832,-26.855,-41.016,-25.879,0.000
1713985524.348,-27.832,-29.297,-34.668,-14.648,0.000
1713985524.352,-30.762,-24.902,-28.320,-28.320,0.000
1713985524.356,-26.855,-20.020,-20.996,-40.527,0.000
1713985524.360,-31.250,-25.391,-29.785,-41.992,0.000
1713985524.363,-34.668,-30.273,-41.016,-38.574,0.000
1713985524.367,-26.855,-22.461,-29.297,-19.531,0.000
1713985524.371,-21.973,-17.090,-17.578,-12.207,0.000
1713985524.375,-34.668,-32.715,-22.949,-20.996,0.000
1713985524.379,-41.016,-29.785,-32.715,-21.973,0.000
1713985524.383,-25.391,-13.672,-33.203,-18.066,0.000
1713985524.387,-11.719,-19.531,-28.320,-26.855,0.000
1713985524.391,-22.949,-26.367,-36.621,-34.668,0.000
1713985524.394,-23.926,-29.785,-40.527,-22.461,0.000
1713985524.398,-9.277,-26.367,-27.344,-19.531,0.000
1713985524.402,1.953,-15.625,-13.184,-14.160,0.000
1713985524.406,2.441,-28.809,-16.602,-6.836,0.000
1713985524.410,-19.043,-35.645,-28.320,-13.672,0.000
1713985524.414,-28.320,-14.160,-26.855,-14.648,0.000
1713985524.418,-34.180,-10.254,-38.086,-19.531,0.000
1713985524.421,-20.020,-7.324,-39.062,-10.254,0.000
1713985524.425,-18.066,-13.672,-27.832,-10.742,0.000
1713985524.429,-40.039,-31.250,-27.344,-22.461,0.000
1713985524.433,-47.363,-25.879,-20.508,-27.344,0.000
1713985524.437,-43.945,-25.391,-26.367,-32.227,0.000
1713985524.441,-54.688,-26.367,-17.090,-41.992,0.000
1713985524.445,-74.707,-13.672,1.953,-50.781,0.000
1713985524.449,-73.242,-21.484,4.395,-42.480,0.000
1713985524.453,-75.195,-41.504,1.465,-53.711,0.000
1713985524.457,-72.754,-35.156,-13.184,-59.570,0.000
1713985524.460,-72.754,-36.621,-21.973,-52.734,0.000
1713985524.464,-80.566,-36.133,-29.785,-57.617,0.000
1713985524.468,-70.801,-21.973,-26.367,-54.688,0.000
1713985524.472,-57.129,-21.484,-20.020,-52.246,0.000
1713985524.476,-59.082,-29.785,-29.297,-52.734,0.000
1713985524.480,-57.617,-26.855,-17.090,-45.410,0.000
1713985524.484,-45.410,-11.230,-6.836,-32.715,0.000
1713985524.488,-50.293,-18.066,-18.066,-53.223,0.000
1713985524.491,-58.594,-32.227,-16.602,-61.523,0.000
1713985524.495,-47.852,-28.320,-22.949,-48.340,0.000
1713985524.499,-41.992,-19.531,-30.762,-41.504,0.000
1713985524.503,-41.016,-16.113,-26.367,-27.344,0.000
1713985524.507,-40.527,-15.137,-21.484,-30.762,0.000
1713985524.511,-41.016,-24.902,-27.344,-29.785,0.000
1713985524.515,-31.250,-24.414,-23.438,-20.996,0.000
1713985524.519,-24.902,-13.672,-12.207,-23.926,0.000
1713985524.523,-34.180,-14.160,-20.020,-39.551,0.000
1713985524.527,-36.621,-20.508,-25.879,-41.504,0.000
1713985524.531,-34.668,-30.762,-32.227,-43.457,0.000
1713985524.535,-36.133,-27.832,-41.016,-41.992,0.000
1713985524.539,-28.809,-14.648,-34.180,-29.297,0.000
1713985524.543,-24.902,-15.625,-20.508,-38.574,0.000
1713985524.546,-24.414,-13.672,-20.020,-26.367,0.000
1713985524.550,-25.391,-6.348,-27.832,-17.090,0.000
1713985524.554,-35.645,-15.137,-23.438,-38.086,0.000
1713985524.558,-29.297,-18.555,-9.277,-33.691,0.000
1713985524.562,-29.785,-15.137,-19.531,-42.969,0.000
1713985524.566,-31.738,-12.695,-33.203,-45.898,0.000
1713985524.570,-22.461,-14.648,-33.203,-38.574,0.000
1713985524.574,-28.320,-20.020,-24.414,-43.457,0.000
1713985524.578,-46.875,-12.207,-22.949,-43.945,0.000
1713985524.582,-40.527,-6.836,-14.648,-38.086,0.000
1713985524.586,-24.414,-15.625,-15.137,-27.832,0.000
1713985524.590,-28.320,-14.160,-31.738,-36.133,0.000
1713985524.594,-41.992,-13.672,-34.668,-44.922,0.000
1713985524.597,-43.457,-11.230,-28.320,-34.180,0.000
1713985524.601,-36.621,-14.648,-23.438,-29.785,0.000
1713985524.605,-32.227,-17.578,-24.902,-47.852,0.000
1713985524.609,-42.480,-15.625,-32.227,-62.500,0.000
1713985524.613,-42.969,-19.531,-37.109,-52.734,0.000
1713985524.617,-50.293,-20.996,-40.527,-41.504,0.000
1713985524.621,-51.758,-27.344,-33.691,-43.945,0.000
1713985524.625,-20.508,-20.508,-19.531,-37.598,0.000
1713985524.629,-20.020,-14.160,-19.043,-28.320,0.000
1713985524.633,-31.738,-20.508,-16.602,-26.855,0.000
1713985524.637,-42.480,-25.879,-22.949,-46.387,0.000
1713985524.640,-40.527,-23.438,-30.273,-46.387,0.000
1713985524.644,-40.527,-15.137,-29.785,-34.180,0.000
1713985524.648,-43.945,-15.625,-29.297,-34.668,0.000
1713985524.652,-30.762,-14.648,-18.066,-28.809,0.000
1713985524.656,-23.926,-10.254,3.418,-33.691,0.000
1713985524.660,-30.762,-12.695,2.930,-33.691,0.000
1713985524.664,-37.598,-20.508,-13.184,-31.250,0.000
1713985524.668,-42.969,-23.926,-20.020,-34.180,0.000
1713985524.672,-54.199,-20.020,-34.180,-51.270,0.000
1713985524.676,-69.336,-29.785,-30.273,-71.777,0.000
1713985524.680,-76.172,-29.785,-6.348,-68.359,0.000
1713985524.683,-89.844,-13.672,13.184,-86.426,0.000
1713985524.687,-121.582,-12.207,20.996,-124.023,0.000
1713985524.691,-140.137,-5.371,25.391,-134.766,0.000
1713985524.695,-166.016,-7.324,28.809,-158.203,0.000
1713985524.699,-194.824,-1.953,38.574,-184.082,0.000
1713985524.703,-211.426,8.301,51.270,-208.008,0.000
1713985524.707,-229.980,10.742,64.941,-239.746,0.000
1713985524.711,-242.188,18.555,75.684,-250.000,0.000
1713985524.715,-246.094,21.484,75.684,-247.559,0.000
1713985524.718,-237.305,18.555,78.125,-249.512,0.000
1713985524.722,-222.656,27.832,84.961,-240.234,0.000
1713985524.726,-211.426,42.969,81.543,-225.098,0.000
1713985524.730,-190.918,35.645,79.102,-205.078,0.000
1713985524.734,-178.223,25.879,62.988,-190.430,0.000
1713985524.738,-167.969,34.180,42.480,-176.758,0.000
1713985524.742,-150.391,34.180,41.504,-162.598,0.000
1713985524.746,-136.719,17.578,37.598,-145.508,0.000
1713985524.750,-116.211,7.812,31.738,-121.582,0.000
1713985524.753,-102.539,8.301,23.438,-110.352,0.000
1713985524.757,-81.543,13.184,25.879,-88.867,0.000
1713985524.761,-62.012,2.930,14.160,-75.684,0.000
1713985524.765,-54.199,-9.277,-11.230,-66.895,0.000
1713985524.769,-41.016,-18.066,-18.555,-49.316,0.000
1713985524.773,-27.344,-27.344,-26.855,-42.480,0.000
1713985524.777,-17.578,-25.391,-27.344,-34.668,0.000
1713985524.781,-6.348,-33.203,-30.762,-5.859,0.000
1713985524.785,3.418,-41.016,-42.480,9.277,0.000
1713985524.788,15.137,-43.945,-34.668,13.672,0.000
1713985524.792,20.996,-46.875,-24.414,19.531,0.000
1713985524.796,23.926,-41.504,-39.062,30.273,0.000
1713985524.800,40.039,-33.691,-46.875,51.270,0.000
1713985524.804,41.504,-46.387,-48.340,41.016,0.000
1713985524.808,34.668,-55.664,-56.152,26.367,0.000
1713985524.812,42.480,-49.316,-65.430,46.875,0.000
1713985524.816,46.875,-37.109,-71.777,54.688,0.000
1713985524.820,48.340,-31.250,-66.406,56.152,0.000
1713985524.823,48.340,-42.969,-58.594,47.363,0.000
1713985524.827,58.105,-54.199,-47.363,44.922,0.000
1713985524.831,69.824,-40.039,-51.758,82.031,0.000
1713985524.836,67.871,-29.785,-52.246,73.730,0.000
1713985524.840,63.477,-29.785,-47.363,53.223,0.000
1713985524.843,54.688,-31.738,-50.293,68.359,0.000
1713985524.847,51.758,-30.762,-55.176,78.613,0.000
1713985524.851,53.711,-34.668,-58.105,74.219,0.000
1713985524.855,53.223,-43.945,-57.617,67.383,0.000
1713985524.859,59.570,-33.203,-63.477,54.199,0.000
1713985524.863,59.570,-17.578,-58.105,53.711,0.000
1713985524.867,47.363,-25.391,-62.988,47.852,0.000
1713985524.871,45.410,-32.715,-75.684,41.992,0.000
1713985524.875,31.738,-37.598,-68.848,20.996,0.000
1713985524.879,22.949,-41.992,-60.059,20.020,0.000
1713985524.883,24.902,-40.039,-54.688,55.664,0.000
1713985524.887,41.016,-35.645,-35.645,65.918,0.000
1713985524.891,47.852,-30.762,-34.668,44.922,0.000
1713985524.894,22.461,-33.203,-55.664,27.832,0.000
1713985524.898,24.414,-39.062,-62.988,32.227,0.000
1713985524.902,15.625,-36.621,-65.430,15.625,0.000
1713985524.906,-8.789,-35.645,-68.848,-9.277,0.000
1713985524.910,-14.648,-31.738,-63.965,-5.859,0.000
1713985524.914,6.836,-33.203,-60.547,12.695,0.000
1713985524.918,14.648,-41.992,-56.152,26.855,0.000
1713985524.922,1.953,-41.504,-47.363,10.254,0.000
1713985524.926,36.133,-32.715,-41.992,22.461,0.000
1713985524.930,30.762,-31.738,-44.922,37.109,0.000
1713985524.934,17.090,-42.480,-49.805,29.297,0.000
1713985524.938,32.715,-37.109,-46.875,25.391,0.000
1713985524.942,20.020,-18.555,-58.105,12.207,0.000
1713985524.945,-13.672,-31.738,-61.523,-11.230,0.000
1713985524.949,-20.508,-37.598,-54.688,-50.781,0.000
1713985524.953,-31.738,-21.973,-51.270,-16.113,0.000
1713985524.957,-41.504,-29.297,-39.062,-0.488,0.000
1713985524.961,-21.484,-34.180,-57.617,-48.340,0.000
1713985524.965,-32.715,-38.574,-57.129,-6.348,0.000
1713985524.969,-11.719,-37.109,-41.504,10.254,0.000
1713985524.973,-7.812,-24.414,-50.781,-16.602,0.000
1713985524.977,-30.273,-22.949,-56.641,-15.625,0.000
1713985524.981,-20.508,-30.762,-53.223,-18.066,0.000
1713985524.985,-39.062,-34.180,-46.387,-57.617,0.000
1713985524.988,-34.668,-33.203,-45.898,-45.898,0.000
1713985524.992,-37.598,-36.133,-29.785,-18.066,0.000
1713985524.996,-46.387,-26.855,-37.109,-36.133,0.000
1713985525.000,-57.617,-40.039,-38.086,-28.320,0.000
1713985525.004,-26.367,-32.227,-27.344,-12.695,0.000
1713985525.008,-47.363,-20.508,-47.852,-30.273,0.000
1713985525.012,-46.387,-41.504,-42.480,-77.148,0.000
1713985525.016,8.301,-33.691,-41.016,-67.871,0.000
1713985525.020,-59.570,-31.738,-45.410,-41.016,0.000
1713985525.024,-66.406,-35.645,-47.852,-38.086,0.000
1713985525.027,20.508,-28.809,-50.293,17.090,0.000
1713985525.031,-9.277,-34.180,-36.621,9.277,0.000
1713985525.035,-19.531,-36.621,-30.273,-25.391,0.000
1713985525.039,19.531,-32.715,-20.020,11.719,0.000
1713985525.043,3.418,-27.832,-30.762,-28.809,0.000
1713985525.047,-21.484,-25.879,-43.457,-37.598,0.000
1713985525.051,-11.230,-24.414,-37.598,5.371,0.000
1713985525.055,-47.852,-34.668,-45.898,-46.875,0.000
1713985525.059,-27.832,-39.551,-41.016,-42.480,0.000
1713985525.063,7.324,-22.949,-30.273,8.789,0.000
1713985525.067,-61.523,-27.344,-29.297,1.953,0.000
1713985525.070,-58.105,-32.227,-28.809,-43.457,0.000
1713985525.074,8.301,-23.438,-35.156,-68.848,0.000
1713985525.078,-32.715,-32.715,-24.414,-16.113,0.000
1713985525.082,-95.215,-43.457,-31.250,-31.738,0.000
1713985525.086,-27.344,-32.715,-37.598,-36.621,0.000
1713985525.090,6.348,-29.297,-32.715,-21.973,0.000
1713985525.094,-1.953,-26.855,-38.574,-7.812,0.000
1713985525.098,-5.371,-29.297,-27.344,0.977,0.000
1713985525.102,-49.316,-40.039,-20.020,-14.160,0.000
1713985525.105,-62.988,-40.039,-29.785,-54.199,0.000
1713985525.109,-47.363,-38.086,-35.156,-47.363,0.000
1713985525.113,-32.715,-41.016,-37.109,-40.039,0.000
1713985525.118,-23.438,-23.926,-41.992,-39.551,0.000
1713985525.122,-21.484,-24.902,-31.738,-26.855,0.000
1713985525.126,-18.555,-30.762,-19.043,-19.043,0.000
1713985525.130,-36.133,-27.344,-29.785,-24.902,0.000
1713985525.133,-37.109,-39.551,-30.762,-27.832,0.000
1713985525.137,-5.859,-28.320,-30.762,-51.270,0.000
1713985525.141,-41.016,-10.254,-41.992,-69.336,0.000
1713985525.145,-25.879,-11.719,-33.203,-16.602,0.000
1713985525.149,0.000,-13.672,-19.043,4.883,0.000
1713985525.153,-0.977,-15.137,-31.250,-17.578,0.000
1713985525.157,-4.395,-17.578,-25.879,-9.277,0.000
1713985525.161,-17.578,-24.414,-10.254,-15.625,0.000
1713985525.164,10.254,-24.414,-13.672,-10.254,0.000
1713985525.168,12.695,-21.484,-21.973,15.625,0.000
1713985525.172,-10.254,-19.043,-29.297,-11.230,0.000
1713985525.176,-21.484,-18.555,-13.672,-17.090,0.000
1713985525.180,-18.066,-25.879,-8.301,-5.371,0.000
1713985525.184,-7.812,-25.879,-31.738,-25.391,0.000
1713985525.188,-4.883,-22.461,-29.785,-8.301,0.000
1713985525.192,-6.348,-19.531,-28.809,-8.301,0.000
1713985525.196,-13.672,-9.277,-44.922,-25.879,0.000
1713985525.199,-31.250,-22.461,-38.086,-25.391,0.000
1713985525.203,-14.648,-33.691,-25.879,-19.531,0.000
1713985525.207,-8.789,-33.691,-26.855,-12.695,0.000
1713985525.212,-4.395,-30.762,-22.949,-1.953,0.000
1713985525.216,11.230,-22.949,-8.789,8.789,0.000
1713985525.219,-17.578,-27.832,-7.812,-28.809,0.000
1713985525.223,-24.414,-30.273,-25.879,-40.527,0.000
1713985525.227,-20.996,-35.156,-25.879,-20.508,0.000
1713985525.231,-13.184,-38.574,-29.297,-16.113,0.000
1713985525.235,-9.766,-36.621,-21.973,-5.371,0.000
1713985525.239,-21.484,-30.273,-15.137,-27.344,0.000
1713985525.243,-27.344,-30.273,-31.250,-39.551,0.000
1713985525.247,-33.203,-32.715,-31.250,-16.602,0.000
1713985525.251,-29.785,-34.668,-27.344,0.488,0.000
1713985525.255,-31.250,-30.762,-29.297,-17.090,0.000
1713985525.259,-54.199,-26.367,-22.949,-41.992,0.000
1713985525.263,-40.039,-29.785,-14.648,-45.898,0.000
1713985525.267,-13.184,-23.926,-27.832,-37.109,0.000
1713985525.270,-32.227,-25.879,-37.598,-35.156,0.000
1713985525.274,-36.133,-29.785,-35.645,-43.457,0.000
1713985525.278,-45.410,-34.668,-37.598,-37.598,0.000
1713985525.282,-48.828,-43.945,-23.438,-22.461,0.000
1713985525.286,-36.621,-40.039,-11.719,-9.766,0.000
1713985525.290,-40.039,-26.855,-13.672,-32.715,0.000
1713985525.294,-52.734,-37.598,-17.578,-39.062,0.000
1713985525.298,-46.387,-39.551,-28.809,-38.574,0.000
1713985525.302,-38.086,-28.809,-34.668,-52.734,0.000
1713985525.306,-11.230,-31.738,-37.598,-37.598,0.000
1713985525.310,-13.184,-31.738,-32.227,-19.531,0.000
1713985525.314,-29.297,-30.273,-21.973,-23.926,0.000
1713985525.317,-30.273,-31.250,-27.832,-30.762,0.000
1713985525.321,-27.344,-31.250,-35.156,-40.039,0.000
1713985525.325,-30.762,-28.320,-30.762,-50.781,0.000
1713985525.329,-33.691,-22.461,-28.809,-41.992,0.000
1713985525.333,-30.273,-32.715,-27.832,-34.180,0.000
1713985525.337,-40.039,-37.109,-27.344,-37.109,0.000
1713985525.341,-58.105,-33.203,-22.461,-38.086,0.000
1713985525.345,-54.199,-25.879,-23.926,-35.645,0.000
1713985525.349,-55.664,-33.691,-38.086,-54.688,0.000
1713985525.353,-45.410,-42.969,-39.062,-55.176,0.000
1713985525.357,-22.461,-28.320,-26.367,-52.734,0.000
1713985525.360,-40.039,-31.738,-30.273,-60.547,0.000
1713985525.364,-56.641,-35.645,-28.809,-46.387,0.000
1713985525.368,-53.223,-24.414,-6.348,-47.852,0.000
1713985525.372,-54.199,-21.973,4.395,-64.941,0.000
1713985525.376,-68.359,-12.207,-8.789,-79.590,0.000
1713985525.380,-71.289,-13.672,-26.367,-107.910,0.000
1713985525.384,-75.195,-21.973,-24.414,-108.398,0.000
1713985525.388,-81.055,-11.230,-15.137,-90.332,0.000
1713985525.392,-104.492,-14.648,-8.301,-122.559,0.000
1713985525.396,-117.676,-14.160,6.348,-125.488,0.000
1713985525.399,-136.719,-6.348,29.297,-122.559,0.000
1713985525.403,-161.621,-11.230,38.574,-150.879,0.000
1713985525.407,-173.828,-17.090,38.086,-185.547,0.000
1713985525.411,-188.965,-13.184,48.828,-206.055,0.000
1713985525.415,-207.031,-7.324,64.941,-215.332,0.000
1713985525.419,-216.797,-4.395,72.266,-224.121,0.000
1713985525.423,-219.238,-3.906,74.707,-225.586,0.000
1713985525.427,-203.613,2.441,72.266,-219.238,0.000
1713985525.431,-207.031,14.648,64.453,-209.961,0.000
1713985525.435,-212.402,19.531,56.641,-211.426,0.000
1713985525.439,-182.617,13.184,57.129,-199.707,0.000
1713985525.442,-152.832,5.371,46.387,-198.242,0.000
1713985525.446,-152.832,-1.465,34.668,-176.270,0.000
1713985525.450,-155.762,1.465,29.297,-136.230,0.000
1713985525.454,-109.375,-0.977,15.137,-121.094,0.000
1713985525.458,-68.359,-4.883,6.836,-109.375,0.000
1713985525.462,-64.941,4.883,0.977,-101.562,0.000
1713985525.466,-69.824,-1.465,-5.371,-87.891,0.000
1713985525.470,-61.523,-17.090,-6.348,-61.523,0.000
1713985525.474,-51.758,-23.438,-11.719,-54.688,0.000
1713985525.477,-36.621,-21.973,-18.555,-43.457,0.000
1713985525.481,-17.578,-16.602,-20.508,-22.949,0.000
1713985525.485,-17.090,-19.043,-35.645,-18.066,0.000
1713985525.489,-8.301,-20.508,-51.758,-43.457,0.000
1713985525.493,-3.418,-20.020,-51.270,-41.504,0.000
1713985525.497,-0.488,-14.160,-49.805,-11.719,0.000
1713985525.501,-2.441,-18.555,-47.852,3.906,0.000
1713985525.505,-8.789,-34.668,-52.246,5.859,0.000
1713985525.508,9.766,-38.574,-56.641,8.789,0.000
1713985525.512,17.578,-29.785,-64.941,19.531,0.000
1713985525.516,19.043,-18.066,-74.707,17.090,0.000
1713985525.520,18.555,-25.391,-58.594,26.367,0.000
1713985525.524,31.738,-22.949,-55.664,21.484,0.000
1713985525.528,24.414,-16.602,-60.547,17.090,0.000
1713985525.532,20.020,-18.555,-62.500,15.625,0.000
1713985525.536,36.133,-17.578,-64.941,23.926,0.000
1713985525.539,26.855,-14.160,-59.082,27.832,0.000
1713985525.543,26.367,-16.113,-57.129,22.949,0.000
1713985525.547,32.227,-23.926,-66.406,36.133,0.000
1713985525.551,20.996,-21.484,-69.336,39.062,0.000
1713985525.555,27.344,-6.348,-70.801,15.137,0.000
1713985525.559,31.738,-17.090,-72.754,-4.395,0.000
1713985525.563,4.395,-38.086,-61.523,16.602,0.000
1713985525.567,8.789,-27.344,-61.035,37.598,0.000
1713985525.571,41.016,-13.672,-65.430,33.691,0.000
1713985525.574,37.598,-19.531,-71.289,9.766,0.000
1713985525.578,27.832,-26.855,-68.359,16.113,0.000
1713985525.582,19.531,-30.273,-52.734,38.086,0.000
1713985525.587,14.160,-28.809,-53.223,35.645,0.000
1713985525.590,20.996,-28.320,-62.988,20.996,0.000
1713985525.594,30.273,-23.926,-56.152,21.973,0.000
1713985525.598,29.297,-16.602,-50.781,29.785,0.000
1713985525.602,21.973,-11.719,-62.988,23.438,0.000
1713985525.606,19.531,-17.578,-66.895,19.531,0.000
1713985525.610,12.695,-33.691,-65.918,18.555,0.000
1713985525.614,9.766,-30.762,-65.918,9.766,0.000
1713985525.618,20.996,-21.973,-57.129,13.672,0.000
1713985525.622,18.555,-20.996,-51.758,18.066,0.000
1713985525.626,7.324,-25.391,-56.641,13.672,0.000
1713985525.630,-2.930,-28.809,-59.570,-1.953,0.000
1713985525.634,10.254,-20.020,-56.641,-5.371,0.000
1713985525.638,29.297,-10.254,-42.969,32.227,0.000
1713985525.642,25.879,-15.137,-39.551,26.855,0.000
1713985525.645,1.953,-22.461,-49.316,10.254,0.000
1713985525.649,0.000,-24.414,-43.457,24.902,0.000
1713985525.653,14.648,-26.367,-34.668,25.391,0.000
1713985525.657,2.441,-25.879,-38.574,3.418,0.000
1713985525.661,4.395,-18.555,-44.434,-4.883,0.000
1713985525.665,4.883,-24.902,-49.805,-6.348,0.000
1713985525.669,-6.348,-31.250,-57.617,-0.977,0.000
1713985525.673,12.695,-27.344,-54.199,4.883,0.000
1713985525.677,23.926,-14.648,-49.805,-3.906,0.000
1713985525.682,1.465,-22.461,-46.387,22.461,0.000
1713985525.685,1.465,-30.273,-45.898,6.348,0.000
1713985525.689,-5.859,-21.973,-45.898,-18.555,0.000
1713985525.693,6.836,-29.297,-34.180,0.977,0.000
1713985525.697,18.555,-34.180,-32.715,0.000,0.000
1713985525.701,-2.930,-33.691,-47.363,-2.441,0.000
1713985525.705,0.488,-41.016,-43.945,7.812,0.000
1713985525.709,4.883,-36.133,-40.527,-1.465,0.000
1713985525.713,-9.277,-28.809,-48.340,-13.672,0.000
1713985525.717,-11.230,-35.645,-48.340,0.488,0.000
1713985525.721,-26.367,-30.762,-38.086,-3.418,0.000
1713985525.725,-28.809,-24.414,-36.621,-21.484,0.000
1713985525.728,-14.648,-26.367,-41.016,-16.113,0.000
1713985525.732,-10.742,-26.855,-34.180,-10.742,0.000
1713985525.736,-19.531,-20.020,-16.602,-5.371,0.000
1713985525.740,-19.531,-23.926,-21.973,-6.836,0.000
1713985525.744,-22.949,-28.320,-42.969,-19.531,0.000
1713985525.748,-39.551,-39.551,-44.434,-21.484,0.000
1713985525.752,-29.297,-37.598,-38.574,-18.066,0.000
1713985525.756,-10.254,-17.090,-37.109,-16.602,0.000
1713985525.760,-14.648,-18.066,-37.598,-23.926,0.000
1713985525.764,-28.320,-26.855,-38.086,-32.715,0.000
1713985525.768,-18.066,-25.879,-31.250,-28.320,0.000
1713985525.771,-17.090,-20.508,-25.391,-20.996,0.000
1713985525.775,-20.508,-17.578,-34.180,-22.949,0.000
1713985525.779,-14.160,-18.066,-34.668,-25.391,0.000
1713985525.783,-21.484,-15.137,-35.645,-27.832,0.000
1713985525.787,-35.156,-22.949,-31.738,-25.391,0.000
1713985525.791,-21.973,-25.391,-23.926,-20.996,0.000
1713985525.795,-10.254,-25.879,-33.691,-24.902,0.000
1713985525.799,-29.785,-27.832,-40.527,-29.297,0.000
1713985525.803,-26.367,-20.996,-41.504,-21.973,0.000
1713985525.806,-17.090,-24.414,-37.109,-9.766,0.000
1713985525.810,-32.227,-27.832,-29.785,-21.973,0.000
1713985525.814,-49.805,-29.785,-41.504,-37.598,0.000
1713985525.818,-42.969,-35.645,-40.527,-14.160,0.000
1713985525.822,-20.020,-28.809,-36.133,-14.648,0.000
1713985525.826,-21.973,-16.602,-36.621,-31.250,0.000
1713985525.830,-24.902,-29.297,-36.621,-28.320,0.000
1713985525.834,-28.320,-35.156,-47.852,-29.297,0.000
1713985525.837,-30.762,-26.367,-37.598,-25.391,0.000
1713985525.841,-22.461,-20.508,-24.414,-48.340,0.000
1713985525.845,-36.621,-19.531,-31.250,-59.082,0.000
1713985525.849,-42.480,-31.250,-23.438,-24.414,0.000
1713985525.853,-24.902,-21.973,-10.742,-18.066,0.000
1713985525.857,-16.113,-5.859,-19.043,-31.738,0.000
1713985525.861,-31.250,-7.324,-39.551,-58.105,0.000
1713985525.865,-60.547,-13.672,-29.297,-74.707,0.000
1713985525.868,-70.312,-17.090,0.977,-70.801,0.000
1713985525.872,-89.844,-15.137,-14.648,-98.633,0.000
1713985525.876,-106.934,-16.602,-19.043,-128.906,0.000
1713985525.880,-117.676,-20.020,10.742,-138.184,0.000
1713985525.884,-141.113,-14.648,19.531,-156.250,0.000
1713985525.888,-169.922,-10.254,24.414,-187.500,0.000
1713985525.892,-196.289,-9.277,37.109,-220.215,0.000
1713985525.896,-216.797,-4.395,45.898,-232.910,0.000
1713985525.900,-235.352,7.324,62.500,-217.285,0.000
1713985525.904,-211.426,20.020,73.730,-206.055,0.000
1713985525.908,-185.547,22.461,76.172,-208.496,0.000
1713985525.911,-193.359,17.578,72.754,-203.613,0.000
1713985525.915,-185.059,24.902,65.918,-185.059,0.000
1713985525.919,-164.062,14.160,60.059,-175.293,0.000
1713985525.923,-145.996,0.977,46.875,-169.922,0.000
1713985525.927,-130.859,-5.859,38.574,-149.902,0.000
1713985525.931,-115.234,-16.602,35.645,-127.441,0.000
1713985525.935,-100.098,-18.555,18.555,-103.027,0.000
1713985525.938,-76.660,-17.578,-0.488,-101.562,0.000
1713985525.942,-57.617,-20.996,2.441,-86.914,0.000
1713985525.946,-64.941,-28.809,7.812,-69.336,0.000
1713985525.950,-43.457,-23.926,-0.977,-54.688,0.000
1713985525.954,-25.879,-20.996,-10.742,-35.156,0.000
1713985525.958,-27.344,-26.367,-22.949,-53.711,0.000
1713985525.962,-17.090,-30.273,-24.902,-56.641,0.000
1713985525.966,-19.043,-35.156,-33.203,-37.109,0.000
1713985525.970,-12.695,-36.621,-40.527,-28.809,0.000
1713985525.974,-1.465,-44.434,-33.691,-15.625,0.000
1713985525.978,8.789,-40.039,-39.551,-13.184,0.000
1713985525.982,3.906,-45.898,-49.805,-1.465,0.000
1713985525.986,8.301,-47.363,-50.293,20.020,0.000
1713985525.990,20.996,-36.621,-51.758,9.766,0.000
1713985525.993,12.695,-36.621,-43.945,10.742,0.000
1713985525.997,10.742,-38.574,-39.551,15.137,0.000
1713985526.001,13.672,-45.898,-50.293,10.742,0.000
1713985526.005,17.090,-46.387,-58.594,27.344,0.000
1713985526.009,16.602,-39.551,-65.430,21.484,0.000
1713985526.013,15.137,-43.945,-62.500,16.602,0.000
1713985526.017,11.230,-53.223,-60.547,26.367,0.000
1713985526.021,6.348,-44.922,-60.547,25.391,0.000
1713985526.025,32.715,-33.691,-63.477,13.672,0.000
1713985526.029,25.879,-44.922,-67.383,7.324,0.000
1713985526.033,17.578,-49.316,-60.547,11.719,0.000
1713985526.037,26.855,-36.621,-56.152,13.184,0.000
1713985526.041,20.508,-31.738,-56.641,9.277,0.000
1713985526.044,33.691,-34.180,-48.340,25.879,0.000
1713985526.048,17.578,-35.645,-52.734,19.043,0.000
1713985526.052,11.719,-30.762,-65.918,12.695,0.000
1713985526.056,22.461,-31.738,-62.012,26.367,0.000
1713985526.060,19.531,-39.551,-53.223,20.996,0.000
1713985526.064,12.207,-37.598,-57.129,25.391,0.000
1713985526.068,17.578,-35.645,-57.617,25.391,0.000
1713985526.072,24.414,-34.180,-56.641,15.625,0.000
1713985526.076,7.324,-32.715,-52.246,11.230,0.000
1713985526.080,3.906,-32.227,-55.176,6.348,0.000
1713985526.084,19.043,-25.879,-61.523,2.441,0.000
1713985526.088,12.207,-24.902,-57.129,6.836,0.000
1713985526.091,4.883,-34.180,-60.547,14.160,0.000
1713985526.095,3.906,-29.297,-52.734,10.254,0.000
1713985526.099,2.930,-20.996,-47.852,15.625,0.000
1713985526.103,8.301,-23.438,-54.688,12.207,0.000
1713985526.107,13.184,-23.438,-46.387,8.789,0.000
1713985526.111,3.906,-31.738,-51.270,6.348,0.000
1713985526.115,-8.301,-38.086,-55.176,-0.977,0.000
1713985526.119,-5.371,-31.738,-45.410,12.695,0.000
1713985526.123,11.230,-29.785,-50.781,25.879,0.000
1713985526.127,9.277,-34.180,-55.176,8.789,0.000
1713985526.131,-8.301,-38.574,-52.246,-5.371,0.000
1713985526.134,-6.348,-43.945,-50.781,-2.930,0.000
1713985526.138,7.812,-32.715,-39.551,1.953,0.000
1713985526.142,0.000,-22.461,-36.133,-3.906,0.000
1713985526.146,-1.953,-32.227,-38.086,-1.953,0.000
1713985526.150,-3.906,-33.691,-41.016,-17.090,0.000
1713985526.154,-12.207,-37.109,-39.062,-13.184,0.000
1713985526.158,1.953,-40.527,-35.645,-0.488,0.000
1713985526.162,-12.695,-50.293,-41.016,-18.066,0.000
1713985526.166,-22.461,-47.363,-46.387,-16.602,0.000
1713985526.169,-16.602,-32.715,-57.129,-18.066,0.000
1713985526.173,-16.602,-35.645,-53.223,-20.996,0.000
1713985526.177,-17.578,-39.551,-41.992,-14.160,0.000
1713985526.181,-19.531,-27.344,-45.898,-9.277,0.000
1713985526.185,-18.555,-32.227,-41.016,-11.230,0.000
1713985526.189,-22.461,-42.480,-24.414,-15.625,0.000
1713985526.193,-31.738,-39.062,-23.926,-26.367,0.000
1713985526.197,-33.203,-35.156,-35.156,-16.113,0.000
1713985526.201,-21.484,-32.715,-38.086,-5.859,0.000
1713985526.204,-19.043,-29.785,-31.250,-28.809,0.000
1713985526.208,-25.879,-21.484,-26.855,-38.574,0.000
1713985526.212,-28.320,-21.973,-30.273,-33.203,0.000
1713985526.216,-40.039,-31.250,-35.156,-26.367,0.000
1713985526.220,-41.016,-32.715,-30.273,-23.438,0.000
1713985526.224,-41.992,-27.344,-17.578,-28.809,0.000
1713985526.228,-51.758,-20.508,-11.719,-36.621,0.000
1713985526.232,-54.199,-21.484,-9.766,-39.551,0.000
1713985526.236,-66.406,-26.855,-6.348,-52.734,0.000
1713985526.240,-68.848,-19.531,-18.066,-66.895,0.000
1713985526.243,-71.777,-16.113,-26.855,-70.801,0.000
1713985526.247,-86.426,-21.484,-17.578,-89.355,0.000
1713985526.251,-84.473,-23.438,-8.789,-85.938,0.000
1713985526.255,-73.730,-17.090,-5.371,-68.359,0.000
1713985526.259,-83.496,-15.137,-1.953,-87.891,0.000
1713985526.263,-116.211,-14.160,-3.906,-115.723,0.000
1713985526.267,-130.859,-3.418,0.000,-119.141,0.000
1713985526.271,-125.977,14.160,11.719,-130.859,0.000
1713985526.274,-136.719,16.602,22.461,-163.086,0.000
1713985526.278,-145.508,17.578,22.461,-174.316,0.000
1713985526.282,-142.090,29.297,23.926,-161.133,0.000
1713985526.286,-148.438,31.250,27.344,-171.875,0.000
1713985526.290,0.000,38.086,25.391,-190.430,0.000
1713985526.294,0.000,41.016,25.391,-203.613,0.000
1713985526.298,0.000,35.156,28.320,-197.266,0.000
1713985526.302,0.000,39.551,37.598,-180.664,0.000
1713985526.305,0.000,40.039,43.945,-193.848,0.000
1713985526.309,0.000,35.645,37.598,-204.102,0.000
1713985526.313,0.000,34.180,27.832,-185.547,0.000
1713985526.317,0.000,36.133,26.367,-182.129,0.000
1713985526.321,0.000,33.203,27.832,-196.289,0.000
1713985526.325,0.000,23.926,23.438,-179.688,0.000
1713985526.329,0.000,18.555,14.648,-172.852,0.000
1713985526.333,0.000,23.926,12.695,-175.293,0.000
1713985526.336,-154.297,34.668,20.996,-172.852,0.000
1713985526.340,-145.508,30.273,12.695,-166.992,0.000
1713985526.344,-144.531,30.762,-7.812,-168.945,0.000
1713985526.348,-147.949,38.574,-5.371,-156.738,0.000
1713985526.352,-140.137,33.691,-2.930,-152.344,0.000
1713985526.356,-129.883,31.250,-8.789,-164.062,0.000
1713985526.360,-112.793,35.645,-7.812,-142.578,0.000
1713985526.364,-116.699,41.504,-7.812,-138.184,0.000
1713985526.367,-122.070,40.039,-4.395,-138.672,0.000
1713985526.371,-105.469,33.691,-6.836,-120.117,0.000
1713985526.375,-112.793,26.855,-12.695,-118.164,0.000
1713985526.379,-119.141,23.926,-10.254,-136.230,0.000
1713985526.383,-111.816,35.645,-7.324,-134.766,0.000
1713985526.387,-115.723,38.574,-0.977,-128.906,0.000
1713985526.391,-115.723,33.691,-10.254,-130.371,0.000
1713985526.395,-99.121,33.203,-17.090,-112.793,0.000
1713985526.399,-97.168,30.762,-19.531,-115.723,0.000
1713985526.403,-104.980,29.297,-19.043,-119.629,0.000
1713985526.407,-98.633,27.832,-10.254,-115.723,0.000
1713985526.411,-91.797,31.738,-14.648,-118.652,0.000
1713985526.415,-93.262,35.156,-23.926,-124.023,0.000
1713985526.419,-89.844,37.109,-25.391,-106.445,0.000
1713985526.422,-76.660,37.109,-30.273,-101.562,0.000
1713985526.426,-82.520,28.809,-28.320,-115.234,0.000
1713985526.430,-83.008,28.809,-25.879,-103.027,0.000
1713985526.434,-57.129,30.273,-34.668,-81.543,0.000
1713985526.438,-58.594,25.391,-41.504,-89.844,0.000
1713985526.442,-75.195,30.273,-37.598,-113.281,0.000
1713985526.446,-54.199,32.715,-30.273,-91.309,0.000
1713985526.450,-41.016,27.344,-36.621,-62.012,0.000
1713985526.454,-41.504,26.855,-35.156,-62.988,0.000
1713985526.458,-53.223,26.855,-31.738,-90.332,0.000
1713985526.462,-67.871,23.926,-34.668,-116.699,0.000
1713985526.466,-65.430,23.438,-23.926,-94.238,0.000
1713985526.469,-54.688,27.344,-29.297,-79.102,0.000
1713985526.473,-52.734,23.438,-41.504,-85.449,0.000
1713985526.477,-49.805,18.066,-36.621,-86.426,0.000
1713985526.481,-38.574,12.695,-35.156,-83.008,0.000
1713985526.485,-38.086,8.301,-29.297,-61.035,0.000
1713985526.489,-41.504,8.301,-26.367,-66.406,0.000
1713985526.493,-55.176,8.301,-26.855,-87.402,0.000
1713985526.497,-49.805,14.648,-27.832,-67.871,0.000
1713985526.501,-35.645,13.672,-31.738,-59.082,0.000
1713985526.505,-51.270,13.672,-38.574,-85.449,0.000
1713985526.509,-63.477,13.184,-48.340,-92.773,0.000
1713985526.513,-59.570,13.184,-45.410,-79.102,0.000
1713985526.516,-45.410,14.648,-36.621,-69.824,0.000
1713985526.520,-40.527,18.555,-34.180,-67.383,0.000
1713985526.524,-47.363,19.531,-37.109,-68.848,0.000
1713985526.528,-54.199,10.254,-41.992,-67.383,0.000
1713985526.532,-49.805,3.906,-39.062,-63.477,0.000
1713985526.536,-29.785,1.465,-32.227,-44.434,0.000
1713985526.540,-27.832,3.418,-31.738,-46.875,0.000
1713985526.544,-48.340,1.953,-36.133,-64.941,0.000
1713985526.548,-64.453,-7.324,-38.574,-68.359,0.000
1713985526.552,-48.340,-7.812,-36.133,-54.199,0.000
1713985526.555,-37.598,-4.883,-39.062,-51.270,0.000
1713985526.559,-46.875,-2.441,-37.109,-68.848,0.000
1713985526.563,-49.316,7.324,-29.297,-65.430,0.000
1713985526.567,-37.598,11.719,-33.203,-50.781,0.000
1713985526.571,-42.480,4.883,-31.250,-52.246,0.000
1713985526.575,-70.801,-8.789,-24.902,-71.777,0.000
1713985526.579,-62.012,-21.484,-18.066,-57.129,0.000
1713985526.583,-52.246,-16.113,-18.066,-45.898,0.000
1713985526.586,-75.195,-10.254,-17.578,-63.477,0.000
1713985526.590,-72.266,-8.789,-22.461,-73.242,0.000
1713985526.594,-61.035,-5.859,-33.203,-72.266,0.000
1713985526.598,-60.059,-13.672,-34.180,-57.617,0.000
1713985526.602,-55.664,-19.531,-23.926,-59.082,0.000
1713985526.606,-56.641,-12.207,-5.859,-65.918,0.000
1713985526.610,-57.129,-6.836,-2.441,-69.336,0.000
1713985526.614,-62.988,-19.531,2.930,-70.312,0.000
1713985526.617,-49.805,-24.902,2.930,-48.340,0.000
1713985526.621,-45.898,-26.367,-10.254,-48.340,0.000
1713985526.625,-70.312,-28.809,-7.812,-69.336,0.000
1713985526.629,-82.520,-24.414,-0.488,-69.336,0.000
1713985526.633,-76.660,-23.926,9.766,-68.359,0.000
1713985526.637,-69.824,-19.043,20.996,-77.637,0.000
1713985526.641,-71.289,-24.902,24.414,-76.172,0.000
1713985526.645,-77.148,-34.668,26.855,-65.430,0.000
1713985526.649,-67.871,-32.715,39.062,-59.570,0.000
1713985526.653,-61.523,-36.621,49.805,-47.852,0.000
1713985526.657,-69.824,-39.551,59.082,-50.293,0.000
1713985526.660,-69.336,-46.387,59.570,-63.965,0.000
1713985526.664,-75.684,-54.199,52.734,-46.875,0.000
1713985526.668,-83.008,-56.152,60.059,-39.551,0.000
1713985526.672,-64.453,-60.059,67.383,-34.668,0.000
1713985526.676,-62.988,-62.988,63.965,-30.762,0.000
1713985526.680,-87.402,-72.266,64.941,-49.316,0.000
1713985526.684,-56.152,-82.520,65.918,-19.531,0.000
1713985526.687,-28.809,-75.684,62.012,3.906,0.000
1713985526.691,-40.039,-68.848,71.777,-7.812,0.000
1713985526.695,-23.926,-81.055,76.172,12.695,0.000
1713985526.699,-20.020,-104.492,62.012,22.461,0.000
1713985526.703,-20.508,-110.352,51.758,20.020,0.000
1713985526.707,-5.371,-111.816,38.086,27.832,0.000
1713985526.711,12.695,-116.699,32.715,42.969,0.000
1713985526.714,21.484,-124.023,38.086,51.758,0.000
1713985526.718,14.648,-125.488,47.852,47.363,0.000
1713985526.722,9.277,-122.559,46.387,32.227,0.000
1713985526.726,27.344,-121.582,31.250,48.828,0.000
1713985526.730,42.480,-112.305,25.879,86.426,0.000
1713985526.734,34.180,-112.793,32.227,81.055,0.000
1713985526.738,25.391,-121.582,30.762,54.688,0.000
1713985526.742,22.461,-117.676,28.320,44.922,0.000
1713985526.746,20.508,-114.258,27.344,54.199,0.000
1713985526.750,12.207,-111.816,25.391,58.594,0.000
1713985526.753,14.648,-98.145,28.809,54.688,0.000
1713985526.758,29.297,-96.191,34.180,47.363,0.000
1713985526.762,13.184,-102.539,36.621,19.043,0.000
1713985526.765,8.301,-93.262,33.691,32.227,0.000
1713985526.769,22.461,-83.496,25.879,65.430,0.000
1713985526.773,7.812,-86.426,20.996,36.621,0.000
1713985526.777,-9.277,-89.844,26.855,13.184,0.000
1713985526.781,-14.160,-84.473,25.391,20.020,0.000
1713985526.785,-4.883,-83.496,20.020,29.297,0.000
1713985526.789,10.254,-81.543,16.113,37.109,0.000
1713985526.793,2.930,-81.055,14.648,30.762,0.000
1713985526.797,-15.137,-66.895,14.648,11.230,0.000
1713985526.801,-4.395,-60.547,18.066,16.602,0.000
1713985526.805,23.438,-75.684,11.719,36.133,0.000
1713985526.809,21.973,-69.824,-2.930,26.855,0.000
1713985526.813,1.953,-61.523,-9.277,14.648,0.000
1713985526.816,0.488,-63.477,-8.301,22.461,0.000
1713985526.820,21.973,-62.012,-15.625,23.438,0.000
1713985526.824,18.066,-69.824,-28.809,10.254,0.000
1713985526.828,3.418,-62.500,-24.902,19.531,0.000
1713985526.832,11.719,-50.293,-15.137,31.738,0.000
1713985526.836,24.902,-54.688,-31.250,29.297,0.000
1713985526.840,21.973,-53.223,-53.223,25.879,0.000
1713985526.844,17.090,-48.828,-52.734,17.090,0.000
1713985526.848,20.020,-49.805,-62.012,6.836,0.000
1713985526.852,30.762,-49.316,-72.266,25.391,0.000
1713985526.856,20.508,-53.223,-71.289,23.926,0.000
1713985526.859,13.184,-55.664,-67.871,3.418,0.000
1713985526.863,25.391,-47.363,-60.059,25.879,0.000
1713985526.867,31.250,-39.551,-61.035,34.180,0.000
1713985526.871,27.832,-39.551,-61.035,17.578,0.000
1713985526.875,31.738,-34.180,-63.965,10.742,0.000
1713985526.879,21.973,-32.227,-73.242,7.812,0.000
1713985526.883,28.320,-33.203,-74.219,17.578,0.000
1713985526.887,41.504,-26.367,-71.289,18.066,0.000
1713985526.891,28.320,-18.555,-69.336,-14.160,0.000
1713985526.895,12.207,-20.020,-62.012,-24.414,0.000
1713985526.898,0.977,-24.414,-55.664,-6.348,0.000
1713985526.902,1.465,-18.555,-62.012,-6.348,0.000
1713985526.906,-4.395,-10.742,-66.895,-16.602,0.000
1713985526.910,-11.230,-2.930,-70.801,-20.020,0.000
1713985526.914,-8.789,6.836,-74.707,-13.184,0.000
1713985526.918,2.930,13.184,-71.777,-1.465,0.000
1713985526.922,7.812,15.137,-74.219,-10.254,0.000
1713985526.926,-9.766,16.113,-83.984,-20.508,0.000
1713985526.930,-2.930,19.531,-85.938,-13.184,0.000
1713985526.934,7.324,20.508,-74.219,7.324,0.000
1713985526.938,8.789,22.461,-68.359,-2.930,0.000
1713985526.941,10.254,22.949,-69.336,-14.648,0.000
1713985526.945,17.578,22.461,-79.590,3.906,0.000
1713985526.949,16.113,22.949,-102.539,-3.906,0.000
1713985526.953,13.184,24.414,-105.469,-13.672,0.000
1713985526.957,37.598,33.691,-102.051,10.254,0.000
1713985526.961,39.551,44.922,-106.934,10.254,0.000
1713985526.965,36.133,46.387,-98.633,9.766,0.000
1713985526.969,51.758,51.758,-97.656,10.742,0.000
1713985526.973,46.875,47.363,-112.305,2.441,0.000
1713985526.976,24.902,31.738,-112.793,2.441,0.000
1713985526.980,24.414,33.691,-116.699,0.488,0.000
1713985526.984,40.527,43.945,-116.699,12.207,0.000
1713985526.988,38.574,39.062,-107.910,12.695,0.000
1713985526.992,34.180,40.527,-115.234,-1.953,0.000
1713985526.996,32.227,39.551,-112.305,2.441,0.000
1713985527.000,32.715,29.785,-94.238,15.625,0.000
1713985527.004,34.668,32.227,-92.285,7.324,0.000
1713985527.008,23.926,25.391,-90.820,1.465,0.000
1713985527.011,7.324,10.254,-96.680,-8.789,0.000
1713985527.015,3.906,11.230,-98.633,-20.020,0.000
1713985527.019,-2.441,15.625,-90.820,-21.484,0.000
1713985527.023,-5.859,15.137,-83.984,-39.062,0.000
1713985527.027,-8.789,11.719,-76.172,-35.645,0.000
1713985527.031,-5.371,16.602,-65.918,-14.648,0.000
1713985527.035,4.395,22.949,-54.199,-15.625,0.000
1713985527.038,-11.719,23.926,-41.504,-30.273,0.000
1713985527.042,-34.180,11.719,-35.645,-49.316,0.000
1713985527.046,-23.926,2.441,-37.109,-27.344,0.000
1713985527.050,-9.277,-0.977,-36.621,-14.648,0.000
1713985527.054,-14.648,-1.953,-37.109,-33.203,0.000
1713985527.058,-22.461,-8.789,-36.621,-34.180,0.000
1713985527.062,-17.090,-25.879,-40.527,-17.090,0.000
1713985527.066,-9.766,-18.066,-41.504,-2.930,0.000
1713985527.070,-5.371,-17.578,-30.762,-6.836,0.000
1713985527.074,-0.488,-29.297,-37.598,-17.578,0.000
1713985527.078,7.324,-20.996,-57.617,-12.695,0.000
1713985527.081,13.672,-20.996,-54.199,-3.418,0.000
1713985527.086,16.602,-34.180,-44.434,9.766,0.000
1713985527.090,19.531,-42.480,-51.758,17.578,0.000
1713985527.094,32.227,-44.434,-69.824,27.344,0.000
1713985527.098,37.598,-42.480,-75.684,36.621,0.000
1713985527.101,35.645,-41.016,-69.336,33.691,0.000
1713985527.105,45.410,-51.270,-69.824,30.273,0.000
1713985527.109,44.434,-51.270,-76.660,26.855,0.000
1713985527.113,37.598,-45.410,-87.891,28.320,0.000
1713985527.117,48.828,-46.387,-76.172,36.133,0.000
1713985527.121,60.059,-40.527,-66.895,37.109,0.000
1713985527.125,56.641,-32.715,-69.336,33.691,0.000
1713985527.129,48.340,-38.086,-63.477,38.086,0.000
1713985527.132,46.875,-45.410,-71.289,50.781,0.000
1713985527.136,49.316,-47.363,-80.078,43.945,0.000
1713985527.140,44.922,-52.246,-86.914,28.320,0.000
1713985527.144,42.969,-51.758,-89.844,35.156,0.000
1713985527.148,48.340,-43.457,-83.496,49.316,0.000
1713985527.152,48.828,-39.062,-75.195,51.758,0.000
1713985527.156,53.223,-33.691,-72.266,43.457,0.000
1713985527.160,54.199,-29.297,-68.359,50.293,0.000
1713985527.163,43.945,-34.180,-62.500,55.176,0.000
1713985527.167,47.363,-45.898,-78.125,59.570,0.000
1713985527.171,43.945,-38.574,-79.590,52.734,0.000
1713985527.175,32.715,-35.156,-75.195,30.762,0.000
1713985527.179,27.344,-39.551,-72.266,28.320,0.000
1713985527.183,31.250,-34.180,-63.477,44.434,0.000
1713985527.187,37.109,-29.785,-69.824,39.551,0.000
1713985527.191,28.320,-34.180,-69.824,20.020,0.000
1713985527.195,20.508,-48.828,-58.594,24.902,0.000
1713985527.199,30.762,-52.246,-67.871,40.527,0.000
1713985527.203,34.668,-41.992,-77.637,39.062,0.000
1713985527.207,23.438,-37.598,-69.336,17.578,0.000
1713985527.210,22.461,-36.133,-60.059,19.043,0.000
1713985527.214,24.414,-34.668,-48.828,35.645,0.000
1713985527.218,18.555,-41.992,-46.875,21.973,0.000
1713985527.222,17.578,-49.316,-47.852,9.277,0.000
1713985527.226,21.973,-41.992,-44.434,14.648,0.000
1713985527.230,18.555,-30.762,-50.293,23.926,0.000
1713985527.234,21.484,-28.809,-54.199,23.438,0.000
1713985527.238,24.902,-35.156,-58.105,17.578,0.000
1713985527.242,18.066,-42.969,-57.617,8.789,0.000
1713985527.246,-1.953,-49.316,-62.012,0.977,0.000
1713985527.250,-3.906,-49.316,-60.547,7.324,0.000
1713985527.254,9.766,-35.645,-54.688,11.719,0.000
1713985527.257,4.395,-35.156,-55.664,1.953,0.000
1713985527.261,0.488,-44.922,-52.734,0.488,0.000
1713985527.265,9.277,-46.387,-48.340,-7.812,0.000
1713985527.269,-0.488,-41.016,-37.109,-4.883,0.000
1713985527.273,2.441,-31.250,-26.367,10.254,0.000
1713985527.277,2.930,-30.762,-34.668,-0.488,0.000
1713985527.281,-0.488,-34.668,-40.039,6.348,0.000
1713985527.285,9.766,-38.086,-37.109,16.602,0.000
1713985527.289,6.348,-42.969,-38.574,-5.371,0.000
1713985527.293,-3.906,-41.504,-49.805,-24.902,0.000
1713985527.296,-6.836,-29.297,-61.523,-14.648,0.000
1713985527.300,-1.953,-28.320,-52.734,7.324,0.000
1713985527.304,-3.418,-46.875,-41.992,-8.301,0.000
1713985527.308,-3.418,-41.016,-46.875,-11.719,0.000
1713985527.312,-1.465,-27.832,-41.992,9.766,0.000
1713985527.316,-6.348,-29.297,-28.320,3.418,0.000
1713985527.320,3.418,-32.715,-24.902,-0.977,0.000
1713985527.324,-6.348,-37.109,-37.598,-9.766,0.000
1713985527.328,-14.648,-35.156,-43.457,-20.508,0.000
1713985527.332,-3.418,-33.203,-35.645,-15.625,0.000
1713985527.335,0.488,-33.203,-28.320,-12.207,0.000
1713985527.339,0.488,-32.227,-32.227,-10.254,0.000
1713985527.343,1.953,-29.785,-40.527,-8.301,0.000
1713985527.347,-2.441,-31.738,-35.156,-11.719,0.000
1713985527.351,-12.207,-28.809,-33.203,-14.160,0.000
1713985527.355,-1.465,-28.809,-29.297,-14.160,0.000
1713985527.359,-3.418,-31.738,-36.133,-14.648,0.000
1713985527.363,-17.090,-29.785,-48.828,-19.043,0.000
1713985527.366,-10.254,-28.320,-45.410,-8.301,0.000
1713985527.370,-4.395,-32.227,-42.480,-14.160,0.000
1713985527.374,-3.906,-38.086,-37.598,-18.555,0.000
1713985527.378,-11.230,-35.156,-31.250,-9.766,0.000
1713985527.382,-11.719,-34.668,-27.344,-0.488,0.000
1713985527.386,-0.488,-35.645,-18.555,8.301,0.000
1713985527.390,2.930,-27.344,-21.973,-5.371,0.000
1713985527.394,-8.789,-34.180,-37.109,-13.672,0.000
1713985527.398,-19.043,-39.062,-38.574,-10.742,0.000
1713985527.402,-17.090,-35.156,-35.156,-15.625,0.000
1713985527.406,-13.184,-29.297,-36.133,-25.879,0.000
1713985527.409,-14.160,-31.738,-33.691,-30.762,0.000
1713985527.413,-22.461,-41.504,-39.062,-20.996,0.000
1713985527.417,-18.555,-30.762,-35.645,-6.348,0.000
1713985527.421,-1.465,-28.320,-24.902,-3.906,0.000
1713985527.425,-6.836,-38.574,-37.598,-15.625,0.000
1713985527.429,-16.113,-36.621,-48.340,-21.484,0.000
1713985527.433,-14.160,-34.668,-42.969,-17.090,0.000
1713985527.437,-13.184,-35.645,-33.203,-13.672,0.000
1713985527.440,-10.742,-32.715,-36.621,-11.719,0.000
1713985527.444,-11.719,-31.250,-40.527,-11.230,0.000
1713985527.448,-9.277,-35.156,-33.691,-11.719,0.000
1713985527.452,-5.371,-34.180,-34.180,-16.602,0.000
1713985527.456,-13.184,-33.203,-36.621,-15.625,0.000
1713985527.460,-18.555,-43.457,-32.715,-14.648,0.000
1713985527.464,-16.113,-41.992,-36.133,-13.184,0.000
1713985527.468,-18.066,-32.227,-39.551,-13.672,0.000
1713985527.472,-17.578,-30.273,-38.574,-17.578,0.000
1713985527.476,-18.555,-32.715,-39.551,-19.531,0.000
1713985527.480,-22.949,-31.738,-38.574,-13.672,0.000
1713985527.484,-19.531,-24.902,-33.203,-4.883,0.000
1713985527.488,-15.625,-20.020,-27.832,-6.836,0.000
1713985527.492,-20.508,-29.297,-30.273,-15.625,0.000
1713985527.496,-24.414,-39.062,-33.203,-18.555,0.000
1713985527.499,-20.508,-42.969,-42.969,-30.273,0.000
1713985527.503,-17.578,-39.551,-44.922,-37.598,0.000
1713985527.507,-14.160,-34.180,-41.504,-32.715,0.000
1713985527.511,-2.930,-39.062,-38.574,-25.391,0.000
1713985527.515,-4.395,-37.598,-23.926,-22.461,0.000
1713985527.519,6.348,-17.090,-11.719,-15.137,0.000
1713985527.522,15.625,-11.230,-23.926,-13.184,0.000
1713985527.526,-1.953,-27.832,-44.922,-20.020,0.000
1713985527.530,-11.719,-35.645,-43.945,-19.531,0.000
1713985527.534,-10.742,-33.691,-37.598,-15.137,0.000
1713985527.538,-20.996,-35.645,-34.180,-20.020,0.000
1713985527.542,-25.391,-35.156,-32.227,-20.508,0.000
1713985527.546,-23.438,-28.809,-35.156,-8.789,0.000
1713985527.550,-25.391,-30.762,-34.668,-12.695,0.000
1713985527.554,-14.648,-34.180,-24.902,-21.484,0.000
1713985527.558,-15.625,-31.250,-27.344,-35.645,0.000
1713985527.562,-32.227,-26.367,-41.016,-42.480,0.000
1713985527.566,-32.227,-29.785,-40.527,-27.344,0.000
1713985527.570,-28.809,-37.598,-37.109,-27.344,0.000
1713985527.574,-35.156,-41.992,-47.363,-36.133,0.000
1713985527.577,-37.598,-34.180,-42.969,-38.086,0.000
1713985527.581,-35.645,-29.297,-23.926,-41.504,0.000
1713985527.585,-20.996,-28.320,-31.738,-26.367,0.000
1713985527.589,-5.371,-31.738,-35.156,-6.836,0.000
1713985527.593,-39.551,-32.715,-31.250,-43.945,0.000
1713985527.597,-73.730,-31.250,-30.762,-74.707,0.000
1713985527.601,-74.707,-33.691,-19.531,-77.148,0.000
1713985527.605,-98.145,-28.320,-20.996,-111.328,0.000
1713985527.609,-138.184,-25.879,-26.855,-151.367,0.000
1713985527.613,-159.668,-23.926,-3.906,-167.480,0.000
1713985527.617,-181.641,-19.531,20.996,-180.176,0.000
1713985527.621,-210.938,-7.812,33.203,-207.031,0.000
1713985527.624,-240.723,-4.883,48.828,-247.070,0.000
1713985527.628,-262.207,0.000,55.664,-271.973,0.000
1713985527.632,-261.230,6.836,58.105,-271.973,0.000
1713985527.636,-255.859,16.113,67.383,-269.043,0.000
1713985527.640,-242.188,27.344,69.824,-266.602,0.000
1713985527.644,-229.980,14.160,62.988,-263.672,0.000
1713985527.648,-225.098,-0.488,61.035,-241.211,0.000
1713985527.652,-200.195,8.789,62.012,-202.148,0.000
1713985527.656,-174.805,-3.906,53.223,-195.801,0.000
1713985527.660,-163.574,-11.719,36.133,-188.477,0.000
1713985527.664,-154.297,3.906,13.672,-166.992,0.000
1713985527.667,-128.906,-1.953,10.254,-140.137,0.000
1713985527.671,-111.816,-19.043,2.441,-125.000,0.000
1713985527.675,-104.004,-18.066,-16.113,-122.559,0.000
1713985527.679,-83.496,-22.949,-20.020,-99.609,0.000
1713985527.683,-79.102,-38.086,-22.461,-81.543,0.000
1713985527.687,-57.617,-46.875,-35.645,-70.801,0.000
1713985527.691,-32.227,-45.898,-40.039,-59.082,0.000
1713985527.695,-25.879,-37.598,-34.180,-40.527,0.000
1713985527.699,-19.531,-41.016,-33.203,-25.391,0.000
1713985527.702,-12.695,-42.480,-40.527,-20.020,0.000
1713985527.706,-18.555,-54.688,-58.105,-23.926,0.000
1713985527.710,-15.137,-62.500,-57.617,-15.137,0.000
1713985527.714,-1.465,-57.617,-57.129,3.418,0.000
1713985527.718,5.859,-52.734,-65.918,13.672,0.000
1713985527.722,15.625,-57.129,-60.547,17.090,0.000
1713985527.726,17.578,-59.570,-52.734,13.672,0.000
1713985527.730,17.090,-41.504,-51.758,13.184,0.000
1713985527.734,27.832,-44.922,-55.176,25.879,0.000
1713985527.738,30.273,-56.641,-65.430,22.949,0.000
1713985527.741,20.020,-55.664,-72.754,15.137,0.000
1713985527.745,19.531,-57.617,-76.660,24.414,0.000
1713985527.749,24.902,-58.594,-75.195,36.621,0.000
1713985527.753,31.250,-41.504,-66.895,29.297,0.000
1713985527.757,27.832,-40.527,-62.500,8.789,0.000
1713985527.761,23.438,-33.691,-53.223,15.137,0.000
1713985527.765,32.715,-17.578,-51.270,32.227,0.000
1713985527.769,41.016,-25.879,-60.059,48.828,0.000
1713985527.773,42.969,-24.414,-63.965,32.227,0.000
1713985527.777,38.086,-27.832,-67.383,13.672,0.000
1713985527.780,24.414,-41.504,-70.801,13.672,0.000
1713985527.784,17.578,-41.016,-62.988,9.766,0.000
1713985527.788,21.484,-43.457,-62.012,8.301,0.000
1713985527.792,27.344,-44.922,-60.547,7.324,0.000
1713985527.796,24.902,-39.062,-52.734,17.090,0.000
1713985527.800,30.273,-28.809,-40.527,31.250,0.000
1713985527.804,30.273,-29.785,-27.832,30.273,0.000
1713985527.808,21.484,-37.109,-35.156,17.578,0.000
1713985527.811,16.602,-34.668,-58.105,21.484,0.000
1713985527.815,14.648,-24.414,-63.965,29.297,0.000
1713985527.819,20.996,-26.367,-56.152,17.578,0.000
1713985527.823,19.043,-43.457,-54.199,5.371,0.000
1713985527.827,13.672,-52.246,-45.898,19.043,0.000
1713985527.831,10.254,-42.969,-46.875,30.762,0.000
1713985527.835,13.184,-30.762,-43.945,21.973,0.000
1713985527.838,4.883,-34.668,-42.969,12.695,0.000
1713985527.842,-5.371,-39.551,-53.711,2.930,0.000
1713985527.846,3.418,-26.855,-56.641,10.742,0.000
1713985527.850,12.695,-22.461,-46.387,20.508,0.000
1713985527.854,18.066,-24.414,-35.645,14.648,0.000
1713985527.858,14.648,-21.973,-45.898,2.930,0.000
1713985527.862,5.859,-30.273,-46.387,-3.418,0.000
1713985527.866,0.977,-30.762,-33.691,-0.977,0.000
1713985527.870,3.418,-24.414,-40.039,-3.418,0.000
1713985527.874,5.859,-23.438,-42.969,-4.395,0.000
1713985527.877,-10.742,-27.344,-41.016,-18.555,0.000
1713985527.882,-13.184,-42.480,-49.316,-15.625,0.000
1713985527.886,-6.348,-44.434,-51.758,-6.348,0.000
1713985527.890,-11.230,-36.621,-51.270,-20.508,0.000
1713985527.893,-12.695,-30.273,-48.340,-29.297,0.000
1713985527.897,-8.789,-25.391,-41.016,-15.137,0.000
1713985527.901,-6.836,-26.367,-39.062,-3.906,0.000
1713985527.905,-8.789,-30.273,-34.668,-20.996,0.000
1713985527.909,-11.230,-30.273,-27.344,-28.809,0.000
1713985527.913,-14.648,-25.391,-41.992,-20.508,0.000
1713985527.917,-17.578,-33.691,-51.758,-19.043,0.000
1713985527.921,-13.672,-35.645,-47.363,-20.508,0.000
1713985527.925,-18.555,-30.273,-42.969,-13.184,0.000
1713985527.929,-17.578,-31.738,-36.133,-24.414,0.000
1713985527.933,-9.766,-35.156,-41.016,-32.715,0.000
1713985527.937,-10.742,-32.227,-41.504,-25.391,0.000
1713985527.941,-9.766,-32.715,-38.086,-29.297,0.000
1713985527.944,-9.277,-37.598,-43.457,-27.832,0.000
1713985527.948,-8.789,-33.203,-44.434,-9.766,0.000
1713985527.952,-12.207,-37.109,-50.293,-9.766,0.000
1713985527.956,-10.254,-41.504,-49.805,-18.066,0.000
1713985527.960,-13.672,-36.133,-37.598,-17.090,0.000
1713985527.964,-23.438,-32.227,-28.320,-8.789,0.000
1713985527.968,-17.578,-31.738,-25.879,1.465,0.000
1713985527.972,-13.672,-35.645,-30.273,-3.906,0.000
1713985527.976,-15.137,-28.320,-28.320,-13.184,0.000
1713985527.980,-10.254,-20.508,-21.484,-2.930,0.000
1713985527.984,-11.230,-9.766,-21.484,-0.488,0.000
1713985527.988,-10.742,-21.484,-25.879,-12.695,0.000
1713985527.991,-2.930,-35.645,-23.438,-18.555,0.000
1713985527.995,-12.695,-33.203,-28.809,-22.949,0.000
1713985527.999,-19.531,-32.715,-40.527,-22.461,0.000
1713985528.003,-10.742,-36.621,-40.039,-22.949,0.000
1713985528.007,-14.160,-39.062,-39.551,-26.367,0.000
1713985528.011,-19.043,-33.203,-32.715,-23.438,0.000
1713985528.015,-20.508,-28.320,-10.742,-10.742,0.000
1713985528.019,-18.066,-21.484,-13.672,-6.348,0.000
1713985528.023,-17.578,-28.809,-33.203,-21.973,0.000
1713985528.027,-30.273,-46.387,-35.156,-35.645,0.000
1713985528.031,-27.832,-27.832,-26.367,-18.555,0.000
1713985528.034,-8.301,-16.113,-26.367,-2.930,0.000
1713985528.038,0.977,-30.762,-39.551,-14.648,0.000
1713985528.042,-9.277,-32.715,-47.363,-25.879,0.000
1713985528.046,-24.414,-36.133,-40.527,-26.367,0.000
1713985528.050,-20.996,-34.180,-39.062,-21.484,0.000
1713985528.054,-20.508,-27.832,-32.227,-9.766,0.000
1713985528.058,-27.344,-17.578,-24.414,-16.113,0.000
1713985528.062,-27.344,-19.043,-32.715,-31.250,0.000
1713985528.066,-28.320,-20.508,-23.926,-19.531,0.000
1713985528.070,-20.996,-21.484,-15.137,-14.160,0.000
1713985528.073,-12.207,-19.043,-28.320,-26.367,0.000
1713985528.077,-11.230,-12.695,-27.832,-25.879,0.000
1713985528.081,-14.648,-18.555,-20.996,-21.973,0.000
1713985528.085,-20.996,-32.227,-33.203,-29.785,0.000
1713985528.089,-22.949,-35.156,-37.598,-33.691,0.000
1713985528.093,-21.973,-24.902,-28.320,-27.344,0.000
1713985528.097,-14.160,-24.414,-34.668,-15.625,0.000
1713985528.101,-13.672,-26.855,-39.551,-7.324,0.000
1713985528.105,-17.578,-16.602,-24.414,-15.137,0.000
1713985528.109,-19.531,-27.344,-17.578,-20.508,0.000
1713985528.112,-24.414,-37.598,-25.879,-23.438,0.000
1713985528.116,-24.902,-29.297,-22.949,-20.020,0.000
1713985528.120,-21.973,-21.973,-18.555,-21.973,0.000
1713985528.124,-18.066,-25.391,-30.273,-29.297,0.000
1713985528.128,-24.414,-35.645,-47.852,-34.180,0.000
1713985528.132,-29.785,-41.016,-46.387,-34.668,0.000
1713985528.136,-17.578,-41.016,-29.785,-30.762,0.000
1713985528.140,-11.230,-36.621,-27.832,-34.668,0.000
1713985528.144,-16.113,-37.109,-34.668,-34.668,0.000
1713985528.147,-4.395,-25.391,-32.227,-26.855,0.000
1713985528.151,6.836,-18.066,-20.996,-20.996,0.000
1713985528.155,-3.418,-27.832,-13.184,-20.020,0.000
1713985528.159,-17.578,-36.133,-24.902,-23.438,0.000
1713985528.164,-23.438,-32.715,-33.203,-20.996,0.000
1713985528.167,-21.484,-28.809,-32.715,-21.484,0.000
1713985528.171,-25.391,-35.645,-35.156,-28.809,0.000
1713985528.175,-33.691,-39.062,-49.805,-36.621,0.000
1713985528.179,-32.715,-38.086,-51.270,-29.785,0.000
1713985528.183,-27.344,-32.227,-29.785,-17.090,0.000
1713985528.187,-21.973,-27.832,-24.414,-14.648,0.000
1713985528.191,-16.113,-20.508,-21.484,-21.973,0.000
1713985528.195,-24.902,-22.461,-15.137,-32.227,0.000
1713985528.199,-29.297,-28.320,-22.461,-35.156,0.000
1713985528.203,-23.438,-34.180,-27.344,-28.809,0.000
1713985528.207,-27.832,-41.016,-32.715,-33.691,0.000
1713985528.210,-33.203,-36.133,-27.832,-36.621,0.000
1713985528.214,-36.133,-37.109,-26.367,-28.320,0.000
1713985528.218,-36.133,-42.969,-33.203,-28.809,0.000
1713985528.222,-32.227,-27.832,-28.320,-34.668,0.000
1713985528.226,-32.715,-23.438,-33.203,-39.551,0.000
1713985528.230,-31.738,-44.434,-39.551,-44.922,0.000
1713985528.233,-39.062,-44.434,-38.086,-37.109,0.000
1713985528.237,-38.086,-37.598,-43.457,-31.738,0.000
1713985528.241,-32.227,-41.992,-41.504,-39.551,0.000
1713985528.245,-34.180,-36.621,-29.785,-37.109,0.000
1713985528.249,-33.691,-36.133,-25.879,-29.297,0.000
1713985528.253,-23.926,-33.203,-28.320,-23.926,0.000
1713985528.256,-29.297,-28.320,-34.180,-36.133,0.000
1713985528.260,-45.410,-34.180,-40.039,-47.363,0.000
1713985528.264,-40.039,-37.598,-37.598,-27.832,0.000
1713985528.268,-37.598,-46.387,-41.992,-43.945,0.000
1713985528.272,-26.367,-40.527,-41.016,-54.199,0.000
1713985528.276,-21.973,-26.367,-23.438,-37.109,0.000
1713985528.280,-37.109,-25.391,-18.555,-30.762,0.000
1713985528.284,-33.691,-28.320,-25.391,-34.668,0.000
1713985528.288,-23.438,-21.484,-31.738,-36.133,0.000
1713985528.292,-27.344,-23.438,-36.621,-32.227,0.000
1713985528.296,-30.762,-32.715,-32.227,-31.738,0.000
1713985528.299,-29.297,-39.551,-36.133,-31.250,0.000
1713985528.304,-28.320,-44.434,-35.645,-32.715,0.000
1713985528.307,-34.668,-43.457,-28.809,-42.969,0.000
1713985528.311,-35.645,-35.645,-25.879,-48.340,0.000
1713985528.315,-26.855,-31.738,-24.902,-36.621,0.000
1713985528.319,-22.949,-31.738,-27.832,-33.203,0.000
1713985528.323,-31.250,-25.391,-27.832,-37.598,0.000
1713985528.327,-50.781,-33.691,-34.180,-44.922,0.000
1713985528.331,-62.012,-40.527,-34.180,-54.688,0.000
1713985528.335,-53.223,-26.855,-23.438,-58.594,0.000
1713985528.339,-52.734,-17.578,-6.836,-62.500,0.000
1713985528.343,-75.195,-27.344,-6.348,-85.938,0.000
1713985528.347,-100.586,-24.902,-16.602,-104.004,0.000
1713985528.351,-105.957,-10.742,-3.418,-102.539,0.000
1713985528.354,-114.258,-3.906,11.719,-128.418,0.000
1713985528.358,-138.672,-11.719,13.672,-153.809,0.000
1713985528.362,-164.551,-8.301,20.508,-162.598,0.000
1713985528.366,-176.270,5.859,25.879,-171.875,0.000
1713985528.370,-180.176,16.602,35.156,-178.223,0.000
1713985528.374,-189.453,24.414,46.875,-195.312,0.000
1713985528.378,-201.172,28.320,48.340,-205.566,0.000
1713985528.382,-189.941,24.414,46.875,-180.664,0.000
1713985528.386,-175.781,15.625,36.621,-170.898,0.000
1713985528.390,-182.617,13.184,37.598,-185.547,0.000
1713985528.394,-180.664,11.230,37.598,-179.688,0.000
1713985528.398,-157.227,1.465,19.531,-160.156,0.000
1713985528.401,-134.766,-8.789,7.812,-141.113,0.000
1713985528.405,-115.234,-4.883,4.883,-128.906,0.000
1713985528.409,-102.051,-3.418,7.812,-125.000,0.000
1713985528.413,-88.379,-9.766,0.488,-104.492,0.000
1713985528.417,-76.172,-14.648,-13.672,-95.215,0.000
1713985528.421,-65.430,-15.625,-12.695,-73.730,0.000
1713985528.425,-48.340,-20.020,-13.672,-52.246,0.000
1713985528.429,-43.457,-21.973,-38.574,-63.965,0.000
1713985528.433,-32.715,-12.695,-44.922,-34.668,0.000
1713985528.437,-20.996,-26.855,-23.438,-15.137,0.000
1713985528.440,-30.273,-38.086,-32.715,-29.785,0.000
1713985528.444,-23.438,-32.227,-54.688,-31.250,0.000
1713985528.448,-14.160,-32.715,-53.711,-17.578,0.000
1713985528.452,-17.090,-38.086,-48.340,-6.836,0.000
1713985528.456,-6.348,-41.992,-32.227,-4.395,0.000
1713985528.460,3.906,-29.785,-33.691,-8.789,0.000
1713985528.464,-4.395,-22.949,-56.641,-16.113,0.000
1713985528.468,4.883,-27.344,-41.504,-4.883,0.000
1713985528.472,17.578,-24.414,-38.574,12.207,0.000
1713985528.476,-14.648,-38.574,-59.570,-12.695,0.000
1713985528.480,-34.180,-40.039,-52.734,-28.320,0.000
1713985528.483,-38.574,-31.738,-46.875,-25.391,0.000
1713985528.487,-45.410,-16.602,-39.551,-46.875,0.000
1713985528.491,-66.895,-15.625,-24.414,-72.754,0.000
1713985528.495,-104.492,-26.855,-15.137,-92.773,0.000
1713985528.499,-121.094,-5.371,-2.441,-109.863,0.000
1713985528.503,-141.602,13.184,8.789,-145.996,0.000
1713985528.507,-167.969,9.766,18.555,-168.457,0.000
1713985528.511,-179.688,10.254,30.762,-174.316,0.000
1713985528.514,-177.734,13.184,37.598,-181.152,0.000
1713985528.518,-173.340,20.508,35.645,-177.734,0.000
1713985528.522,-163.574,36.621,40.527,-172.852,0.000
1713985528.526,-155.273,42.480,55.664,-165.039,0.000
1713985528.530,-151.855,27.344,60.547,-154.297,0.000
1713985528.534,-144.531,15.625,45.898,-139.160,0.000
1713985528.538,-127.930,25.391,32.227,-125.488,0.000
1713985528.542,-120.117,12.207,24.414,-120.117,0.000
1713985528.545,-108.398,-16.602,15.137,-107.910,0.000
1713985528.549,-90.820,-18.066,12.695,-83.496,0.000
1713985528.553,-73.730,-18.066,14.160,-62.500,0.000
1713985528.557,-57.129,-25.879,1.953,-64.941,0.000
1713985528.561,-49.316,-18.066,-21.484,-60.059,0.000
1713985528.565,-38.086,-15.137,-18.066,-40.527,0.000
1713985528.569,-23.438,-34.668,-23.926,-38.086,0.000
1713985528.573,-12.207,-41.016,-44.434,-41.016,0.000
1713985528.577,-5.859,-45.898,-47.852,-25.391,0.000
1713985528.581,0.000,-60.059,-44.922,-2.930,0.000
1713985528.584,2.441,-57.617,-39.062,12.207,0.000
1713985528.588,11.719,-56.641,-36.133,7.812,0.000
1713985528.592,24.902,-60.059,-52.246,5.859,0.000
1713985528.596,28.320,-56.641,-67.383,26.367,0.000
1713985528.600,31.738,-50.293,-68.359,32.227,0.000
1713985528.604,40.039,-54.688,-67.383,30.273,0.000
1713985528.608,48.340,-55.176,-62.012,37.598,0.000
1713985528.612,38.086,-59.570,-61.523,40.039,0.000
1713985528.615,43.457,-66.406,-66.406,49.316,0.000
1713985528.619,56.152,-66.895,-57.617,48.828,0.000
1713985528.623,56.641,-59.082,-54.688,39.551,0.000
1713985528.627,50.293,-52.734,-69.336,43.457,0.000
1713985528.631,50.293,-55.664,-75.684,50.781,0.000
1713985528.635,56.152,-48.828,-78.125,46.387,0.000
1713985528.639,52.734,-42.969,-76.660,45.898,0.000
1713985528.642,58.105,-35.156,-62.500,57.129,0.000
1713985528.646,61.035,-44.434,-68.848,61.523,0.000
1713985528.650,52.734,-56.152,-80.078,59.570,0.000
1713985528.654,47.852,-53.711,-78.125,57.617,0.000
1713985528.658,43.945,-52.246,-80.078,49.805,0.000
1713985528.662,36.621,-47.852,-80.566,57.617,0.000
1713985528.666,40.527,-50.293,-82.031,63.477,0.000
1713985528.670,52.734,-51.270,-79.102,44.434,0.000
1713985528.674,52.734,-39.551,-68.848,53.223,0.000
1713985528.678,49.316,-29.297,-58.594,57.129,0.000
1713985528.682,51.270,-28.320,-56.152,56.152,0.000
1713985528.686,57.129,-30.762,-62.988,49.316,0.000
1713985528.690,52.734,-35.156,-72.754,31.738,0.000
1713985528.693,35.645,-47.363,-74.219,28.320,0.000
1713985528.697,36.133,-54.688,-65.430,33.691,0.000
1713985528.701,41.504,-48.828,-65.430,37.109,0.000
1713985528.705,38.086,-41.016,-65.918,29.785,0.000
1713985528.709,37.598,-40.527,-57.617,28.809,0.000
1713985528.713,34.668,-32.715,-54.688,41.504,0.000
1713985528.717,26.855,-33.203,-59.570,35.645,0.000
1713985528.721,35.156,-30.273,-61.035,34.180,0.000
1713985528.725,33.203,-26.855,-63.477,24.902,0.000
1713985528.729,25.879,-30.762,-61.035,20.996,0.000
1713985528.733,27.832,-35.156,-49.805,20.996,0.000
1713985528.737,19.531,-49.316,-48.340,3.906,0.000
1713985528.741,22.949,-54.688,-57.617,-0.488,0.000
1713985528.744,29.297,-41.016,-63.965,5.859,0.000
1713985528.748,33.691,-22.949,-60.059,16.113,0.000
1713985528.752,38.086,-25.391,-52.246,18.555,0.000
1713985528.756,37.598,-27.344,-49.805,11.719,0.000
1713985528.760,28.320,-14.160,-55.664,16.602,0.000
1713985528.764,15.625,-24.902,-50.293,19.043,0.000
1713985528.768,16.602,-36.621,-38.086,17.578,0.000
1713985528.772,10.742,-31.738,-30.273,10.254,0.000
1713985528.776,-4.395,-36.133,-33.691,-3.906,0.000
1713985528.780,-2.930,-38.574,-38.574,19.531,0.000
1713985528.784,-2.930,-32.227,-47.852,25.391,0.000
1713985528.787,-18.555,-32.715,-42.480,-8.301,0.000
1713985528.791,-14.648,-30.762,-27.344,-0.977,0.000
1713985528.795,-10.742,-17.578,-31.250,6.348,0.000
1713985528.799,-15.137,-21.484,-37.109,4.395,0.000
1713985528.803,-8.789,-43.945,-49.805,-0.488,0.000
1713985528.807,-9.277,-42.480,-44.922,-7.812,0.000
1713985528.811,-11.719,-25.879,-29.297,-8.789,0.000
1713985528.815,-14.160,-21.973,-36.133,-1.465,0.000
1713985528.819,-21.484,-27.344,-41.016,-12.207,0.000
1713985528.823,-17.090,-30.273,-37.109,-25.391,0.000
1713985528.826,-14.160,-32.715,-29.297,-22.949,0.000
1713985528.830,-22.949,-34.180,-36.621,-16.113,0.000
1713985528.834,-17.090,-24.414,-42.480,-6.348,0.000
1713985528.838,-14.160,-27.344,-36.621,-14.160,0.000
1713985528.842,-17.090,-34.668,-37.109,-20.508,0.000
1713985528.846,-21.484,-34.180,-39.062,-17.090,0.000
1713985528.850,-20.996,-35.156,-36.621,-12.695,0.000
1713985528.854,-16.602,-33.203,-34.668,-8.301,0.000
1713985528.858,-17.578,-30.762,-27.344,-14.160,0.000
1713985528.862,-19.043,-30.273,-22.949,-12.695,0.000
1713985528.865,-20.508,-29.785,-39.062,-14.160,0.000
1713985528.869,-11.719,-25.879,-41.504,-17.578,0.000
1713985528.873,-12.695,-25.879,-34.668,-19.531,0.000
1713985528.877,-20.996,-36.621,-27.832,-20.508,0.000
1713985528.881,-11.230,-32.227,-20.508,-7.324,0.000
1713985528.885,-8.301,-21.973,-24.414,-5.859,0.000
1713985528.889,-14.160,-26.855,-32.227,-30.273,0.000
1713985528.893,-21.484,-30.762,-36.621,-27.344,0.000
1713985528.897,-24.414,-24.902,-40.527,-13.672,0.000
1713985528.901,-12.207,-22.461,-30.273,-9.277,0.000
1713985528.904,-3.906,-22.949,-17.578,-3.906,0.000
1713985528.908,-11.719,-30.273,-30.273,-7.812,0.000
1713985528.913,-24.902,-39.062,-37.598,-18.555,0.000
1713985528.917,-24.902,-39.551,-31.738,-14.160,0.000
1713985528.921,-15.625,-27.832,-30.762,-8.789,0.000
1713985528.925,-22.461,-28.320,-29.297,-25.391,0.000
1713985528.928,-26.855,-40.527,-32.227,-22.949,0.000
1713985528.932,-18.066,-37.109,-38.574,-14.160,0.000
1713985528.936,-18.555,-33.203,-34.180,-13.672,0.000
1713985528.940,-9.766,-24.902,-23.438,-5.371,0.000
1713985528.944,-6.348,-7.812,-23.438,-6.348,0.000
1713985528.948,-7.324,-6.348,-18.066,0.977,0.000
1713985528.952,-6.348,-20.508,-20.020,3.418,0.000
1713985528.956,-18.555,-35.645,-43.457,-23.438,0.000
1713985528.959,-21.973,-37.109,-42.480,-32.715,0.000
1713985528.963,-10.254,-29.297,-27.832,-16.602,0.000
1713985528.967,-8.301,-30.762,-29.297,-13.672,0.000
1713985528.971,-12.695,-30.273,-39.551,-23.926,0.000
1713985528.975,-15.137,-20.020,-26.855,-24.902,0.000
1713985528.979,-22.949,-21.484,-12.207,-18.066,0.000
1713985528.983,-26.855,-41.992,-30.273,-20.020,0.000
1713985528.987,-22.949,-43.457,-44.434,-21.973,0.000
1713985528.991,-25.879,-33.203,-46.387,-20.508,0.000
1713985528.995,-37.109,-33.203,-43.457,-25.391,0.000
1713985528.998,-33.203,-30.273,-32.715,-4.395,0.000
1713985529.002,-27.832,-27.344,-27.344,-7.324,0.000
1713985529.006,-23.438,-27.344,-26.855,-35.156,0.000
1713985529.010,-29.785,-33.203,-38.086,-28.809,0.000
1713985529.014,-41.016,-35.156,-44.922,-19.043,0.000
1713985529.018,-32.715,-28.320,-39.062,-9.766,0.000
1713985529.021,-22.461,-22.461,-46.875,-10.742,0.000
1713985529.025,-26.367,-27.344,-42.969,-12.207,0.000
1713985529.029,-29.785,-38.086,-29.297,-18.066,0.000
1713985529.033,-23.926,-27.832,-20.508,-20.508,0.000
1713985529.037,-17.090,-17.090,-10.742,-12.695,0.000
1713985529.041,-20.508,-23.926,-26.367,-13.672,0.000
1713985529.045,-23.438,-26.367,-45.410,-21.484,0.000
1713985529.049,-21.484,-23.438,-42.480,-21.973,0.000
1713985529.053,-17.578,-25.879,-32.715,-19.043,0.000
1713985529.057,-20.508,-32.227,-31.250,-30.762,0.000
1713985529.061,-25.879,-28.320,-35.645,-38.086,0.000
1713985529.065,-25.391,-38.574,-39.062,-27.344,0.000
1713985529.069,-25.391,-49.805,-43.945,-22.949,0.000
1713985529.073,-25.391,-28.809,-41.992,-29.785,0.000
1713985529.076,-26.855,-20.508,-32.227,-32.715,0.000
1713985529.080,-22.949,-27.832,-34.180,-16.113,0.000
1713985529.084,-15.625,-27.832,-31.738,-5.371,0.000
1713985529.088,-16.602,-21.973,-30.273,-16.602,0.000
1713985529.092,-19.043,-21.484,-45.898,-27.344,0.000
1713985529.096,-19.043,-22.461,-39.062,-22.949,0.000
1713985529.100,-24.414,-22.949,-30.762,-21.484,0.000
1713985529.104,-34.668,-23.926,-44.434,-29.785,0.000
1713985529.108,-25.391,-16.602,-35.645,-25.879,0.000
1713985529.112,-7.324,-15.625,-17.090,-7.324,0.000
1713985529.116,-9.766,-30.273,-13.184,-7.812,0.000
1713985529.120,-28.320,-32.715,-26.855,-12.695,0.000
1713985529.123,-37.598,-29.785,-30.273,-38.574,0.000
1713985529.127,-34.180,-29.297,-24.902,-46.875,0.000
1713985529.131,-37.598,-21.973,-27.344,-29.785,0.000
1713985529.135,-36.621,-20.996,-26.855,-34.668,0.000
1713985529.139,-28.320,-25.879,-26.367,-34.180,0.000
1713985529.143,-32.227,-20.508,-23.438,-43.457,0.000
1713985529.147,-30.273,-23.926,-24.902,-39.062,0.000
1713985529.151,-20.508,-38.086,-22.949,-20.996,0.000
1713985529.155,-26.367,-41.992,-26.855,-29.297,0.000
1713985529.159,-29.297,-41.992,-41.016,-33.691,0.000
1713985529.163,-27.832,-39.062,-33.691,-23.438,0.000
1713985529.166,-29.785,-32.715,-36.133,-26.367,0.000
1713985529.170,-22.949,-32.227,-44.922,-38.574,0.000
1713985529.174,-20.020,-27.832,-41.504,-33.691,0.000
1713985529.178,-25.879,-25.391,-39.551,-18.066,0.000
1713985529.182,-28.809,-34.668,-33.203,-16.602,0.000
1713985529.186,-24.414,-32.227,-32.715,-26.367,0.000
1713985529.190,-16.602,-21.484,-33.203,-27.832,0.000
1713985529.194,-26.367,-25.391,-31.250,-21.973,0.000
1713985529.198,-31.250,-35.645,-39.062,-21.973,0.000
1713985529.202,-23.926,-42.969,-41.016,-16.602,0.000
1713985529.205,-31.250,-37.109,-32.715,-22.949,0.000
1713985529.209,-27.832,-27.832,-32.715,-25.879,0.000
1713985529.213,-23.438,-25.879,-32.227,-21.484,0.000
1713985529.217,-28.809,-26.367,-34.180,-25.391,0.000
1713985529.221,-20.508,-33.203,-29.297,-23.926,0.000
1713985529.225,-22.949,-37.109,-29.785,-30.273,0.000
1713985529.229,-34.180,-38.574,-43.457,-32.227,0.000
1713985529.233,-30.273,-37.109,-37.109,-23.926,0.000
1713985529.237,-24.414,-25.391,-23.926,-24.902,0.000
1713985529.241,-28.320,-21.484,-25.391,-29.785,0.000
1713985529.244,-31.250,-24.414,-31.250,-36.133,0.000
1713985529.248,-28.320,-29.297,-29.785,-26.855,0.000
1713985529.252,-26.855,-30.273,-22.949,-25.879,0.000
1713985529.256,-27.832,-30.273,-15.137,-32.227,0.000
1713985529.260,-34.180,-27.832,-26.855,-31.250,0.000
1713985529.264,-45.410,-28.320,-41.504,-39.062,0.000
1713985529.268,-45.410,-31.738,-38.086,-31.738,0.000
1713985529.272,-21.484,-26.855,-21.973,-30.273,0.000
1713985529.276,-14.160,-19.531,-14.160,-28.320,0.000
1713985529.280,-27.344,-23.926,-28.809,-37.109,0.000
1713985529.283,-33.203,-35.156,-42.480,-50.781,0.000
1713985529.287,-40.527,-39.062,-39.551,-44.434,0.000
1713985529.291,-44.434,-30.762,-30.762,-48.828,0.000
1713985529.295,-35.645,-28.320,-28.809,-40.527,0.000
1713985529.299,-29.297,-30.273,-30.273,-31.250,0.000
1713985529.303,-28.320,-10.254,-15.137,-32.715,0.000
1713985529.307,-26.367,-10.742,-3.418,-28.809,0.000
1713985529.311,-28.809,-28.320,-22.949,-22.949,0.000
1713985529.315,-38.086,-30.273,-39.062,-30.762,0.000
1713985529.318,-38.086,-29.297,-28.320,-37.598,0.000
1713985529.322,-31.250,-32.227,-23.926,-37.109,0.000
1713985529.326,-40.527,-26.855,-30.762,-47.852,0.000
1713985529.330,-46.387,-19.043,-22.949,-46.387,0.000
1713985529.334,-32.227,-24.414,-16.113,-41.992,0.000
1713985529.338,-24.902,-32.227,-20.020,-47.363,0.000
1713985529.342,-27.832,-31.738,-32.715,-39.062,0.000
1713985529.345,-20.996,-12.695,-34.668,-41.504,0.000
1713985529.349,-9.277,-13.184,-27.832,-35.645,0.000
1713985529.353,-8.301,-31.250,-21.973,-32.227,0.000
1713985529.357,-20.020,-39.551,-9.766,-44.434,0.000
1713985529.361,-40.527,-38.086,-19.531,-56.641,0.000
1713985529.365,-54.199,-31.738,-32.227,-60.059,0.000
1713985529.369,-61.523,-20.996,-20.020,-64.941,0.000
1713985529.373,-79.590,-20.508,-9.277,-81.055,0.000
1713985529.377,-96.191,-26.367,-6.348,-86.914,0.000
1713985529.380,-96.680,-23.438,-4.395,-82.520,0.000
1713985529.384,-101.074,-17.578,0.488,-91.309,0.000
1713985529.388,-111.328,-3.906,13.672,-107.910,0.000
1713985529.392,-117.676,1.953,18.555,-116.211,0.000
1713985529.396,-126.953,0.488,15.137,-115.723,0.000
1713985529.400,-145.996,-11.719,19.043,-126.953,0.000
1713985529.404,-158.691,-11.230,29.297,-147.461,0.000
1713985529.408,-162.109,7.324,27.832,-156.250,0.000
1713985529.411,-163.086,2.441,20.508,-158.691,0.000
1713985529.415,-154.785,-16.113,17.578,-147.949,0.000
1713985529.419,-159.180,-5.371,35.156,-147.949,0.000
1713985529.423,-161.133,10.742,58.105,-158.203,0.000
1713985529.427,-146.973,-3.418,52.734,-150.391,0.000
1713985529.431,-153.320,-7.812,33.691,-149.902,0.000
1713985529.435,-149.902,-4.395,22.461,-140.137,0.000
1713985529.439,-124.512,-6.836,20.996,-123.535,0.000
1713985529.443,-124.023,-15.137,10.742,-130.859,0.000
1713985529.447,-118.652,-38.086,1.465,-114.258,0.000
1713985529.451,-80.078,-46.387,8.789,-80.078,0.000
1713985529.455,-64.453,-30.762,9.277,-72.754,0.000
1713985529.459,-58.105,-29.297,-0.488,-68.359,0.000
1713985529.463,-34.668,-32.227,-10.254,-39.551,0.000
1713985529.466,-26.367,-16.602,-11.719,-22.949,0.000
1713985529.470,-16.602,-24.414,-5.371,-18.066,0.000
1713985529.474,-7.324,-52.734,-19.531,-9.766,0.000
1713985529.478,-5.859,-44.922,-22.949,0.488,0.000
1713985529.482,1.953,-45.410,-18.066,26.367,0.000
1713985529.486,3.418,-54.199,-39.551,19.043,0.000
1713985529.490,17.090,-42.480,-48.828,4.395,0.000
1713985529.494,24.414,-33.203,-39.551,20.996,0.000
1713985529.498,25.391,-31.738,-28.809,33.691,0.000
1713985529.502,40.039,-22.949,-29.785,45.898,0.000
1713985529.506,37.109,-32.227,-45.410,40.039,0.000
1713985529.510,24.414,-38.086,-44.922,36.133,0.000
1713985529.514,22.461,-37.598,-35.645,44.922,0.000
1713985529.517,26.367,-38.574,-41.016,43.457,0.000
1713985529.521,25.391,-30.762,-36.133,26.367,0.000
1713985529.525,19.531,-32.715,-20.508,16.602,0.000
1713985529.529,5.371,-34.668,-34.668,7.324,0.000
1713985529.533,-10.742,-34.668,-39.551,-5.371,0.000
1713985529.537,-30.762,-31.738,-21.973,-25.391,0.000
1713985529.541,-59.082,-34.668,-18.066,-53.223,0.000
1713985529.545,-95.215,-32.715,-11.719,-80.078,0.000
1713985529.549,-121.094,-21.484,0.000,-102.051,0.000
1713985529.553,-127.930,-2.930,-1.953,-117.676,0.000
1713985529.557,-143.066,18.555,13.672,-141.113,0.000
1713985529.560,-157.715,11.719,29.785,-157.227,0.000
1713985529.564,-159.180,0.488,37.109,-153.809,0.000
1713985529.568,-159.668,11.230,44.434,-156.738,0.000
1713985529.572,-152.832,21.484,43.457,-169.434,0.000
1713985529.576,-141.113,20.996,27.344,-161.133,0.000
1713985529.580,-131.348,10.254,14.160,-133.301,0.000
1713985529.584,-111.328,9.277,26.855,-118.652,0.000
1713985529.588,-95.215,-1.953,20.996,-112.305,0.000
1713985529.592,-90.820,-29.785,9.277,-99.121,0.000
1713985529.596,-70.312,-21.973,-6.836,-69.336,0.000
1713985529.600,-53.223,-13.184,-28.809,-50.293,0.000
1713985529.603,-48.828,-22.949,-32.227,-52.246,0.000
1713985529.607,-23.926,-27.344,-38.086,-37.598,0.000
1713985529.611,-0.488,-31.250,-34.668,-11.230,0.000
1713985529.615,2.930,-26.855,-38.574,4.883,0.000
1713985529.619,4.395,-34.668,-46.387,11.230,0.000
1713985529.623,16.113,-50.293,-35.645,5.371,0.000
1713985529.627,17.578,-48.340,-35.645,12.207,0.000
1713985529.631,17.578,-44.922,-60.059,22.949,0.000
1713985529.635,35.645,-50.781,-81.055,30.273,0.000
1713985529.638,51.758,-53.223,-76.660,37.109,0.000
1713985529.642,49.805,-52.246,-68.359,41.992,0.000
1713985529.646,54.688,-42.480,-68.359,60.547,0.000
1713985529.650,67.871,-39.551,-58.594,66.895,0.000
1713985529.654,57.617,-42.969,-68.359,45.410,0.000
1713985529.658,53.223,-43.457,-68.359,39.551,0.000
1713985529.662,56.641,-44.434,-53.223,52.734,0.000
1713985529.666,51.270,-39.551,-65.918,62.988,0.000
1713985529.670,58.594,-35.156,-78.125,58.105,0.000
1713985529.673,58.105,-37.598,-77.148,50.293,0.000
1713985529.677,48.828,-37.598,-80.566,49.805,0.000
1713985529.681,57.129,-33.203,-67.871,66.406,0.000
1713985529.685,62.012,-35.645,-54.688,72.266,0.000
1713985529.689,57.129,-42.969,-62.012,48.828,0.000
1713985529.693,51.758,-43.945,-67.871,61.523,0.000
1713985529.697,46.875,-41.504,-63.477,61.523,0.000
1713985529.701,52.246,-35.645,-61.523,41.504,0.000
1713985529.705,47.363,-36.133,-69.824,34.180,0.000
1713985529.709,34.180,-38.574,-69.824,20.996,0.000
1713985529.713,40.039,-33.203,-61.035,30.273,0.000
1713985529.717,46.875,-13.672,-54.199,35.156,0.000
1713985529.721,41.992,-9.766,-41.016,30.762,0.000
1713985529.725,29.785,-25.391,-47.363,24.414,0.000
1713985529.729,22.949,-42.480,-68.848,22.949,0.000
1713985529.733,20.508,-35.645,-66.406,33.203,0.000
1713985529.736,22.949,-20.508,-54.199,32.227,0.000
1713985529.740,19.043,-35.645,-56.641,12.695,0.000
1713985529.744,5.371,-34.668,-65.430,11.230,0.000
1713985529.748,7.812,-22.949,-59.082,18.066,0.000
1713985529.752,18.555,-15.137,-35.156,20.996,0.000
1713985529.756,15.625,-13.672,-33.691,7.812,0.000
1713985529.759,9.766,-26.367,-57.129,-1.953,0.000
1713985529.763,12.207,-33.691,-61.035,6.836,0.000
1713985529.767,12.207,-31.250,-56.152,0.977,0.000
1713985529.771,16.602,-27.832,-49.316,-3.906,0.000
1713985529.775,16.602,-22.949,-37.598,0.000,0.000
1713985529.779,9.277,-18.066,-28.320,4.395,0.000
1713985529.783,9.277,-16.602,-33.203,11.230,0.000
1713985529.787,11.719,-12.207,-33.203,9.766,0.000
1713985529.791,12.207,-17.090,-29.297,2.930,0.000
1713985529.795,9.277,-18.066,-39.062,-2.441,0.000
1713985529.799,6.836,-18.066,-41.504,-5.859,0.000
1713985529.803,0.977,-23.926,-45.898,-12.695,0.000
1713985529.807,-1.465,-22.461,-41.016,-19.531,0.000
1713985529.811,-0.488,-8.789,-28.809,-8.301,0.000
1713985529.814,-4.883,-17.090,-34.180,-2.441,0.000
1713985529.818,-3.418,-30.273,-41.504,-7.812,0.000
1713985529.822,1.953,-23.926,-38.086,-8.301,0.000
1713985529.826,-2.441,-24.414,-38.086,-10.742,0.000
1713985529.830,-7.812,-25.879,-45.410,-13.672,0.000
1713985529.834,0.000,-24.902,-41.504,-10.742,0.000
1713985529.838,-3.418,-28.320,-31.738,-12.207,0.000
1713985529.842,-9.766,-32.227,-26.855,-14.160,0.000
1713985529.846,-12.207,-33.203,-40.527,-16.113,0.000
1713985529.850,-14.160,-35.156,-39.551,-26.367,0.000
1713985529.854,1.465,-25.391,-27.344,-17.090,0.000
1713985529.858,-4.395,-25.879,-39.062,-18.066,0.000
1713985529.861,-19.531,-31.738,-44.434,-26.855,0.000
1713985529.865,-12.695,-24.414,-33.203,-10.742,0.000
1713985529.869,-14.160,-23.438,-29.785,-20.508,0.000
1713985529.873,-19.043,-15.625,-35.645,-38.086,0.000
1713985529.877,-21.484,-19.531,-41.504,-15.137,0.000
1713985529.881,-24.414,-40.039,-40.039,-9.277,0.000
1713985529.885,-11.230,-33.691,-21.973,-15.625,0.000
1713985529.889,-5.859,-20.508,-8.301,-8.301,0.000
1713985529.893,-16.602,-25.879,-23.926,-19.043,0.000
1713985529.897,-20.996,-29.297,-41.992,-15.625,0.000
1713985529.901,-19.531,-30.273,-37.598,-9.766,0.000
1713985529.905,-15.137,-15.625,-33.203,-19.043,0.000
1713985529.908,-15.625,-22.949,-31.250,-21.973,0.000
1713985529.912,-14.160,-40.039,-21.484,-10.254,0.000
1713985529.916,-18.066,-34.180,-29.785,-6.836,0.000
1713985529.920,-8.789,-24.414,-36.621,-9.277,0.000
1713985529.924,1.465,-25.879,-35.645,-14.648,0.000
1713985529.928,-14.160,-35.645,-38.574,-17.578,0.000
1713985529.932,-16.602,-21.484,-33.691,-10.254,0.000
1713985529.936,-7.324,-8.789,-31.250,-9.766,0.000
1713985529.940,-11.230,-27.832,-32.715,-22.949,0.000
1713985529.944,-15.625,-36.621,-34.180,-22.461,0.000
1713985529.947,-14.648,-29.297,-20.020,-11.230,0.000
1713985529.951,-15.625,-26.855,-8.301,-16.113,0.000
1713985529.955,-12.207,-23.438,-26.367,-26.367,0.000
1713985529.959,-10.254,-28.809,-40.039,-31.250,0.000
1713985529.963,-13.672,-24.902,-41.992,-27.832,0.000
1713985529.967,-7.324,-23.438,-40.527,-22.949,0.000
1713985529.971,2.930,-37.109,-42.969,-21.484,0.000
1713985529.975,-0.488,-33.691,-31.738,-22.461,0.000
1713985529.979,-7.812,-30.762,-10.742,-18.555,0.000
1713985529.983,-14.160,-37.598,-24.902,-13.184,0.000
1713985529.987,-19.531,-32.715,-31.250,-16.602,0.000
1713985529.990,-20.508,-20.508,-29.297,-16.602,0.000
1713985529.994,-32.227,-24.414,-44.434,-25.391,0.000
1713985529.998,-41.504,-28.320,-48.828,-24.414,0.000
1713985530.002,-26.855,-33.691,-33.203,-21.484,0.000
1713985530.006,-18.066,-31.250,-19.043,-17.578,0.000
1713985530.010,-22.461,-18.066,-18.555,-9.277,0.000
1713985530.014,-28.809,-25.879,-25.879,-17.578,0.000
1713985530.018,-32.715,-31.250,-37.109,-15.625,0.000
1713985530.022,-33.203,-27.832,-42.969,-20.020,0.000
1713985530.026,-31.738,-24.414,-44.922,-32.227,0.000
1713985530.029,-25.879,-24.414,-48.340,-23.438,0.000
1713985530.033,-24.902,-32.715,-36.621,-9.766,0.000
1713985530.037,-26.367,-35.645,-24.414,-18.066,0.000
1713985530.041,-22.949,-30.273,-22.949,-28.809,0.000
1713985530.045,-22.461,-27.344,-21.484,-20.996,0.000
1713985530.049,-27.344,-37.109,-21.973,-8.301,0.000
1713985530.053,-17.578,-34.180,-35.645,-28.809,0.000
1713985530.057,-11.230,-19.531,-41.504,-35.645,0.000
1713985530.060,-21.484,-32.227,-43.457,-23.438,0.000
1713985530.064,-22.461,-36.133,-38.574,-18.555,0.000
1713985530.068,-15.625,-34.180,-23.438,-18.066,0.000
1713985530.072,-21.484,-28.320,-16.113,-31.250,0.000
1713985530.076,-35.156,-21.973,-28.320,-40.527,0.000
1713985530.080,-37.598,-25.391,-45.898,-31.738,0.000
1713985530.084,-34.668,-20.508,-39.551,-29.785,0.000
1713985530.088,-26.367,-19.531,-31.738,-34.668,0.000
1713985530.091,-21.484,-16.602,-27.832,-22.461,0.000
1713985530.095,-23.926,-13.672,-16.602,-21.973,0.000
1713985530.099,-28.320,-26.855,-15.137,-20.508,0.000
1713985530.103,-28.320,-38.086,-27.344,-23.926,0.000
1713985530.107,-23.438,-35.156,-28.809,-25.879,0.000
1713985530.111,-24.902,-21.973,-19.531,-21.484,0.000
1713985530.115,-24.902,-11.230,-22.949,-24.414,0.000
1713985530.119,-21.973,-21.973,-33.691,-21.484,0.000
1713985530.123,-21.484,-24.902,-32.227,-28.809,0.000
1713985530.127,-17.090,-21.484,-28.320,-23.438,0.000
1713985530.131,-15.625,-32.227,-41.504,-19.531,0.000
1713985530.135,-18.555,-31.738,-30.762,-33.203,0.000
1713985530.139,-17.090,-24.414,-7.324,-29.297,0.000
1713985530.143,-21.973,-36.133,-22.461,-21.484,0.000
1713985530.146,-20.508,-26.367,-40.527,-24.902,0.000
1713985530.150,-8.789,3.418,-31.250,-14.160,0.000
1713985530.154,-15.137,-11.719,-31.250,-16.113,0.000
1713985530.158,-22.461,-28.809,-37.109,-39.551,0.000
1713985530.162,-19.531,-22.461,-37.598,-36.621,0.000
1713985530.166,-8.789,-22.949,-28.809,-17.578,0.000
1713985530.170,-7.812,-31.738,-21.973,-18.066,0.000
1713985530.174,-13.184,-32.227,-20.508,-30.273,0.000
1713985530.178,-19.043,-30.273,-29.785,-27.344,0.000
1713985530.182,-25.879,-28.320,-37.109,-20.020,0.000
1713985530.186,-16.602,-22.461,-32.715,-15.625,0.000
1713985530.190,-15.137,-25.391,-37.598,-31.738,0.000
1713985530.194,-17.578,-23.438,-31.738,-35.645,0.000
1713985530.197,-22.461,-17.090,-15.625,-21.484,0.000
1713985530.201,-25.879,-18.555,-21.973,-24.902,0.000
1713985530.205,-16.113,-19.043,-29.785,-30.762,0.000
1713985530.209,-26.367,-23.926,-30.762,-34.180,0.000
1713985530.213,-32.227,-23.926,-31.250,-9.277,0.000
1713985530.217,-26.367,-14.648,-28.809,-19.043,0.000
1713985530.221,-26.855,-29.785,-35.645,-39.062,0.000
1713985530.225,-29.297,-43.457,-31.250,-32.227,0.000
1713985530.229,-33.203,-18.555,-20.996,-33.691,0.000
1713985530.233,-41.016,-13.672,-22.461,-32.227,0.000
1713985530.237,-41.016,-28.809,-32.227,-38.574,0.000
1713985530.241,-41.992,-24.902,-46.387,-47.852,0.000
1713985530.245,-41.992,-20.508,-45.898,-40.527,0.000
1713985530.248,-36.133,-19.531,-30.273,-33.203,0.000
1713985530.252,-38.574,-19.531,-36.621,-40.527,0.000
1713985530.256,-41.016,-35.156,-42.480,-36.133,0.000
1713985530.260,-34.180,-38.574,-26.855,-31.250,0.000
1713985530.264,-30.273,-28.809,-19.531,-30.273,0.000
1713985530.268,-30.762,-32.227,-32.715,-27.344,0.000
1713985530.272,-29.785,-27.832,-41.504,-38.574,0.000
1713985530.276,-35.156,-23.438,-41.016,-46.875,0.000
1713985530.280,-32.715,-25.879,-34.180,-29.297,0.000
1713985530.284,-32.227,-21.973,-29.297,-28.320,0.000
1713985530.288,-30.762,-27.344,-25.391,-36.621,0.000
1713985530.291,-23.926,-43.945,-34.180,-38.086,0.000
1713985530.295,-31.738,-50.781,-43.945,-43.457,0.000
1713985530.299,-31.738,-40.039,-48.340,-41.504,0.000
1713985530.303,-29.785,-24.902,-50.293,-35.156,0.000
1713985530.307,-37.598,-28.320,-26.855,-38.574,0.000
1713985530.311,-33.691,-43.457,-12.207,-40.039,0.000
1713985530.315,-34.180,-34.180,-23.926,-32.227,0.000
1713985530.319,-30.762,-21.484,-35.645,-32.715,0.000
1713985530.323,-30.273,-33.691,-34.180,-40.527,0.000
1713985530.327,-43.457,-41.016,-37.109,-47.852,0.000
1713985530.331,-45.410,-35.156,-40.039,-49.805,0.000
1713985530.335,-37.598,-32.715,-46.875,-35.645,0.000
1713985530.339,-38.574,-25.391,-41.504,-30.762,0.000
1713985530.343,-36.621,-15.625,-29.297,-36.133,0.000
1713985530.347,-22.949,-12.207,-16.113,-25.391,0.000
1713985530.351,-29.297,-23.926,-15.625,-24.414,0.000
1713985530.355,-37.109,-32.227,-31.250,-31.738,0.000
1713985530.359,-35.645,-32.227,-42.969,-39.551,0.000
1713985530.362,-40.527,-38.574,-38.574,-46.875,0.000
1713985530.366,-41.992,-45.898,-42.480,-41.992,0.000
1713985530.370,-25.391,-31.250,-43.457,-32.227,0.000
1713985530.374,-17.578,-27.344,-34.668,-29.785,0.000
1713985530.378,-24.902,-32.715,-29.297,-15.625,0.000
1713985530.382,-27.344,-24.414,-28.320,-17.578,0.000
1713985530.386,-28.809,-24.414,-35.645,-29.297,0.000
1713985530.390,-30.273,-27.832,-41.992,-36.133,0.000
1713985530.393,-27.832,-36.133,-38.086,-35.645,0.000
1713985530.397,-30.273,-36.133,-32.715,-30.273,0.000
1713985530.401,-31.250,-30.762,-31.250,-25.879,0.000
1713985530.405,-13.672,-24.902,-20.508,-22.949,0.000
1713985530.409,-14.160,-14.648,-6.348,-12.207,0.000
1713985530.413,-26.367,-13.672,-18.066,-22.949,0.000
1713985530.417,-19.043,-19.531,-28.320,-26.855,0.000
1713985530.421,-10.742,-20.020,-18.555,-7.324,0.000
1713985530.425,-7.812,-28.809,-26.855,-7.812,0.000
1713985530.428,-22.949,-36.133,-12.695,-33.691,0.000
1713985530.432,-41.504,-23.926,-10.742,-45.898,0.000
1713985530.436,-39.551,-14.160,-33.691,-34.668,0.000
1713985530.440,-42.969,-10.254,-29.785,-46.875,0.000
1713985530.444,-51.758,-9.277,-28.320,-73.242,0.000
1713985530.448,-54.688,-14.160,-38.086,-69.824,0.000
1713985530.452,-52.734,-12.207,-47.852,-59.082,0.000
1713985530.456,-46.387,-9.766,-38.574,-61.523,0.000
1713985530.459,-41.992,-17.578,-18.066,-53.223,0.000
1713985530.463,-44.922,-26.367,-14.160,-56.152,0.000
1713985530.467,-49.316,-25.391,-16.113,-51.270,0.000
1713985530.471,-40.527,-8.789,-25.879,-44.434,0.000
1713985530.475,-33.203,-3.418,-36.133,-63.477,0.000
1713985530.479,-45.410,-20.508,-35.156,-63.477,0.000
1713985530.483,-44.922,-33.203,-33.691,-45.898,0.000
1713985530.487,-31.250,-27.344,-23.438,-33.203,0.000
1713985530.491,-32.715,-21.484,-23.438,-40.527,0.000
1713985530.495,-43.457,-31.738,-28.320,-41.992,0.000
1713985530.498,-37.109,-32.715,-23.926,-28.320,0.000
1713985530.502,-31.250,-27.344,-30.273,-21.973,0.000
1713985530.507,-39.062,-32.227,-39.062,-41.016,0.000
1713985530.511,-41.016,-26.367,-41.504,-43.457,0.000
1713985530.514,-30.273,-18.555,-34.180,-24.902,0.000
1713985530.518,-35.156,-24.902,-30.273,-29.785,0.000
1713985530.522,-33.203,-40.039,-43.457,-41.504,0.000
1713985530.526,-22.461,-36.133,-42.969,-37.109,0.000
1713985530.530,-27.344,-14.160,-23.926,-27.832,0.000
1713985530.534,-28.809,-11.719,-25.391,-34.668,0.000
1713985530.538,-22.461,-27.832,-29.297,-35.645,0.000
1713985530.542,-23.926,-41.992,-29.297,-33.203,0.000
1713985530.546,-31.738,-34.668,-40.039,-34.668,0.000
1713985530.550,-33.691,-31.250,-50.293,-33.691,0.000
1713985530.554,-25.879,-39.062,-32.227,-36.133,0.000
1713985530.558,-27.832,-33.691,-25.391,-37.109,0.000
1713985530.562,-32.227,-18.555,-34.668,-33.203,0.000
1713985530.565,-34.668,-18.555,-34.180,-35.156,0.000
1713985530.569,-36.621,-31.250,-39.062,-41.016,0.000
1713985530.573,-35.156,-41.992,-45.410,-50.781,0.000
1713985530.577,-43.945,-27.832,-49.805,-50.293,0.000
1713985530.581,-36.621,-14.648,-43.457,-43.945,0.000
1713985530.585,-32.715,-17.578,-26.855,-28.809,0.000
1713985530.589,-36.621,-21.484,-22.949,-27.832,0.000
1713985530.593,-33.203,-25.391,-33.203,-46.875,0.000
1713985530.597,-46.875,-30.762,-43.457,-53.223,0.000
1713985530.601,-45.410,-32.227,-44.434,-54.199,0.000
1713985530.605,-28.809,-19.531,-37.109,-47.852,0.000
1713985530.608,-22.949,-19.531,-40.039,-42.969,0.000
1713985530.612,-15.625,-20.020,-25.879,-43.457,0.000
1713985530.616,-7.812,-12.695,-12.695,-24.414,0.000
1713985530.620,-2.441,-17.090,-21.973,-27.344,0.000
1713985530.624,-14.160,-20.996,-42.480,-51.758,0.000
1713985530.628,-26.855,-19.043,-59.082,-51.758,0.000
1713985530.632,-20.996,-27.832,-56.641,-31.250,0.000
1713985530.636,-18.555,-30.273,-37.109,-25.879,0.000
1713985530.640,-18.066,-15.625,-24.414,-33.203,0.000
1713985530.644,-25.391,-9.766,-28.320,-37.598,0.000
1713985530.648,-41.016,-13.672,-31.250,-42.969,0.000
1713985530.651,-47.363,-14.160,-33.203,-41.016,0.000
1713985530.655,-42.969,-25.879,-38.574,-43.945,0.000
1713985530.659,-46.875,-39.062,-38.086,-56.152,0.000
1713985530.663,-48.340,-33.691,-32.715,-50.781,0.000
1713985530.667,-40.527,-28.809,-32.227,-35.156,0.000
1713985530.671,-44.434,-23.926,-26.367,-35.645,0.000
1713985530.675,-45.410,-14.648,-26.367,-52.246,0.000
1713985530.679,-43.945,-16.113,-29.297,-50.293,0.000
1713985530.683,-51.270,-23.926,-30.762,-40.039,0.000
1713985530.687,-54.199,-32.715,-41.504,-52.246,0.000
1713985530.691,-48.828,-40.039,-29.297,-53.711,0.000
1713985530.694,-55.176,-33.691,-14.648,-53.223,0.000
1713985530.698,-58.105,-23.438,-13.672,-52.734,0.000
1713985530.702,-41.992,-20.996,-11.719,-38.086,0.000
1713985530.706,-36.621,-20.508,-28.809,-45.410,0.000
1713985530.710,-41.016,-21.484,-27.344,-51.270,0.000
1713985530.714,-43.457,-28.320,-19.531,-47.363,0.000
1713985530.718,-40.527,-26.855,-30.762,-47.363,0.000
1713985530.722,-44.434,-31.738,-40.527,-42.969,0.000
1713985530.726,-48.828,-41.504,-37.598,-49.805,0.000
1713985530.729,-44.434,-31.250,-29.297,-54.199,0.000
1713985530.733,-34.668,-26.367,-20.020,-35.156,0.000
1713985530.737,-30.273,-23.438,-23.438,-31.250,0.000
1713985530.741,-24.414,-20.996,-32.715,-35.645,0.000
1713985530.745,-30.762,-21.484,-28.809,-37.109,0.000
1713985530.749,-42.969,-18.066,-25.391,-36.621,0.000
1713985530.753,-38.086,-26.367,-24.902,-33.203,0.000
1713985530.757,-36.133,-31.738,-29.297,-37.109,0.000
1713985530.761,-38.574,-24.414,-30.273,-49.316,0.000
1713985530.764,-42.969,-30.273,-34.668,-39.551,0.000
1713985530.768,-47.363,-32.227,-34.668,-27.832,0.000
1713985530.772,-50.293,-10.254,-26.367,-49.805,0.000
1713985530.776,-54.199,-2.441,-12.207,-62.988,0.000
1713985530.780,-58.594,-9.766,-0.977,-63.965,0.000
1713985530.784,-74.219,-20.020,-15.137,-80.566,0.000
1713985530.788,-100.586,-17.578,-22.461,-99.121,0.000
1713985530.792,-115.234,-13.184,-8.301,-133.789,0.000
1713985530.795,-137.695,-14.648,0.000,-159.180,0.000
1713985530.799,-166.504,-9.766,15.625,-164.551,0.000
1713985530.803,-188.477,-3.418,37.598,-182.617,0.000
1713985530.807,-195.312,-3.418,44.922,-198.242,0.000
1713985530.811,-196.289,6.348,52.734,-202.637,0.000
1713985530.815,-204.102,29.297,53.223,-211.914,0.000
1713985530.819,-207.031,29.785,57.617,-218.262,0.000
1713985530.823,-194.824,6.836,70.312,-207.031,0.000
1713985530.827,-195.801,-10.254,50.293,-208.008,0.000
1713985530.831,-191.406,-14.648,29.297,-196.777,0.000
1713985530.834,-156.250,-9.277,38.574,-163.574,0.000
1713985530.838,-133.789,-0.488,42.969,-144.531,0.000
1713985530.842,-125.000,3.906,25.879,-144.531,0.000
1713985530.846,-106.445,-4.883,7.812,-130.859,0.000
1713985530.850,-95.215,-28.809,7.324,-100.586,0.000
1713985530.854,-78.125,-40.527,17.578,-82.031,0.000
1713985530.858,-65.430,-34.180,-12.207,-73.730,0.000
1713985530.862,-64.453,-34.180,-25.391,-73.730,0.000
1713985530.865,-45.410,-42.969,-14.160,-57.617,0.000
1713985530.869,-24.414,-34.668,-35.156,-38.086,0.000
1713985530.873,-24.902,-29.785,-44.922,-42.480,0.000
1713985530.877,-19.043,-41.992,-32.715,-29.785,0.000
1713985530.881,-7.812,-51.270,-33.203,-10.254,0.000
1713985530.885,-3.418,-54.199,-45.898,-6.348,0.000
1713985530.889,6.836,-49.805,-51.758,-7.324,0.000
1713985530.892,15.625,-50.781,-36.621,0.977,0.000
1713985530.896,18.555,-46.387,-42.480,12.207,0.000
1713985530.900,17.090,-42.480,-64.453,11.719,0.000
1713985530.904,19.043,-44.922,-60.547,18.066,0.000
1713985530.908,22.461,-48.340,-58.594,0.488,0.000
1713985530.912,22.461,-55.664,-59.570,0.000,0.000
1713985530.916,30.273,-52.246,-53.711,24.414,0.000
1713985530.920,35.156,-42.969,-57.617,24.902,0.000
1713985530.924,37.598,-37.109,-60.059,21.484,0.000
1713985530.928,42.969,-34.668,-59.082,35.645,0.000
1713985530.932,40.039,-42.480,-57.617,50.293,0.000
1713985530.936,38.086,-45.898,-43.945,41.504,0.000
1713985530.940,43.457,-35.645,-39.551,32.715,0.000
1713985530.943,39.551,-34.668,-55.664,28.809,0.000
1713985530.947,25.391,-41.992,-71.289,22.461,0.000
1713985530.951,24.414,-44.922,-68.848,18.555,0.000
1713985530.955,31.250,-38.086,-68.359,18.555,0.000
1713985530.959,20.996,-41.504,-77.148,13.184,0.000
1713985530.963,15.625,-38.574,-72.754,13.672,0.000
1713985530.967,27.832,-32.227,-55.664,28.320,0.000
1713985530.971,43.457,-25.391,-38.086,35.645,0.000
1713985530.975,32.227,-22.949,-44.922,22.461,0.000
1713985530.979,16.113,-37.598,-64.941,17.578,0.000
1713985530.983,10.742,-43.945,-69.824,19.531,0.000
1713985530.987,7.324,-40.527,-65.430,19.043,0.000
1713985530.990,14.160,-25.391,-52.734,10.254,0.000
1713985530.994,13.672,-30.762,-58.105,0.488,0.000
1713985530.998,6.836,-45.410,-60.059,9.766,0.000
1713985531.002,12.695,-29.785,-42.480,22.461,0.000
1713985531.006,13.672,-33.691,-50.293,20.020,0.000
1713985531.010,4.395,-38.574,-57.129,12.695,0.000
1713985531.014,-3.418,-28.320,-56.641,11.719,0.000
1713985531.018,3.906,-30.273,-58.594,10.254,0.000
1713985531.022,8.789,-34.668,-49.316,5.371,0.000
1713985531.026,4.395,-35.156,-46.875,2.930,0.000
1713985531.030,5.859,-33.691,-40.527,12.207,0.000
1713985531.034,0.488,-38.086,-34.668,11.230,0.000
1713985531.037,-4.395,-47.852,-39.062,2.441,0.000
1713985531.041,-2.441,-45.410,-42.969,-6.836,0.000
1713985531.045,-8.789,-38.574,-46.875,-13.672,0.000
1713985531.049,-14.160,-36.621,-55.176,-5.371,0.000
1713985531.053,-14.160,-34.180,-55.176,-0.977,0.000
1713985531.057,-6.836,-29.785,-35.156,-10.254,0.000
1713985531.061,-3.906,-31.250,-28.320,-8.301,0.000
1713985531.065,-9.277,-31.250,-45.410,-0.488,0.000
1713985531.069,-7.812,-37.598,-47.363,-0.977,0.000
1713985531.073,-2.441,-31.738,-42.480,-4.883,0.000
1713985531.076,-17.578,-28.320,-42.480,-15.625,0.000
1713985531.080,-26.855,-38.574,-39.062,-15.137,0.000
1713985531.084,-12.207,-30.762,-33.691,-4.883,0.000
1713985531.088,-0.488,-20.508,-22.949,-6.348,0.000
1713985531.092,-7.812,-37.598,-20.020,-15.625,0.000
1713985531.096,-19.531,-46.875,-43.945,-25.879,0.000
1713985531.100,-12.207,-30.762,-56.641,-11.719,0.000
1713985531.104,-5.859,-18.555,-46.387,-3.906,0.000
1713985531.108,-12.207,-27.344,-43.945,-17.578,0.000
1713985531.112,-7.812,-32.715,-43.945,-14.648,0.000
1713985531.115,-2.930,-21.484,-29.297,-2.930,0.000
1713985531.119,-6.836,-13.672,-20.020,-2.930,0.000
1713985531.123,-11.230,-21.973,-19.043,-8.301,0.000
1713985531.127,-14.648,-29.297,-31.738,-16.113,0.000
1713985531.131,-23.438,-32.227,-48.828,-25.391,0.000
1713985531.135,-19.043,-23.438,-45.898,-22.949,0.000
1713985531.139,-15.137,-19.043,-43.457,-20.508,0.000
1713985531.143,-27.344,-41.016,-42.480,-16.113,0.000
1713985531.147,-21.484,-26.855,-21.973,-7.812,0.000
1713985531.151,-8.789,-9.766,-17.578,-4.883,0.000
1713985531.154,-13.672,-27.344,-26.367,-22.949,0.000
1713985531.158,-27.344,-39.062,-33.691,-47.363,0.000
1713985531.162,-34.180,-33.691,-45.898,-42.480,0.000
1713985531.166,-16.113,-24.414,-42.969,-22.461,0.000
1713985531.170,-13.184,-26.367,-35.645,-24.902,0.000
1713985531.174,-24.902,-33.691,-37.598,-37.109,0.000
1713985531.178,-22.949,-25.391,-37.109,-32.715,0.000
1713985531.182,-27.344,-27.832,-23.438,-23.438,0.000
1713985531.185,-23.438,-42.969,-29.785,-15.625,0.000
1713985531.189,-19.043,-28.320,-43.945,-20.508,0.000
1713985531.193,-21.484,-12.695,-36.133,-30.762,0.000
1713985531.197,-22.949,-19.531,-35.645,-17.090,0.000
1713985531.201,-16.602,-24.902,-37.109,-9.277,0.000
1713985531.205,-8.789,-20.996,-36.621,-12.207,0.000
1713985531.209,-15.625,-28.320,-30.273,-16.602,0.000
1713985531.213,-22.949,-32.227,-15.625,-22.949,0.000
1713985531.216,-26.855,-20.996,-22.461,-19.043,0.000
1713985531.220,-25.391,-19.043,-30.762,-24.414,0.000
1713985531.224,-19.043,-17.578,-24.414,-33.691,0.000
1713985531.228,-17.090,-25.879,-23.926,-22.461,0.000
1713985531.232,-20.996,-27.832,-25.879,-8.789,0.000
1713985531.236,-16.113,-26.367,-24.902,-16.602,0.000
1713985531.240,-15.625,-30.762,-21.973,-30.273,0.000
1713985531.244,-19.043,-20.508,-25.391,-21.973,0.000
1713985531.248,-15.625,-10.742,-34.668,-10.254,0.000
1713985531.252,-24.902,-17.090,-34.668,-25.391,0.000
1713985531.255,-20.996,-28.320,-35.156,-35.156,0.000
1713985531.259,-8.789,-32.715,-39.062,-21.484,0.000
1713985531.263,-14.160,-30.762,-32.715,-20.020,0.000
1713985531.267,-20.020,-29.785,-24.414,-19.043,0.000
1713985531.271,-16.602,-23.438,-34.668,-17.578,0.000
1713985531.275,-12.207,-23.438,-35.156,-23.438,0.000
1713985531.279,-20.508,-34.668,-24.902,-20.020,0.000
1713985531.283,-30.273,-30.273,-29.297,-18.066,0.000
1713985531.286,-27.832,-28.809,-26.855,-14.648,0.000
1713985531.290,-16.602,-35.645,-28.809,-10.742,0.000
1713985531.294,-5.371,-30.762,-29.785,-11.230,0.000
1713985531.298,-6.348,-19.531,-25.391,-9.277,0.000
1713985531.302,-4.883,-18.555,-29.297,-11.230,0.000
1713985531.306,-2.930,-30.762,-33.691,-26.855,0.000
1713985531.310,-4.395,-29.297,-37.109,-45.898,0.000
1713985531.314,-4.395,-24.902,-33.203,-36.133,0.000
1713985531.318,-1.953,-26.367,-25.391,-12.695,0.000
1713985531.322,-7.812,-26.855,-25.391,-15.625,0.000
1713985531.326,-13.672,-35.645,-32.715,-23.438,0.000
1713985531.330,-21.484,-39.062,-39.062,-26.855,0.000
1713985531.334,-17.578,-19.043,-40.527,-20.996,0.000
1713985531.337,-9.766,-4.883,-27.832,-5.859,0.000
1713985531.341,-20.020,-19.043,-26.855,-14.648,0.000
1713985531.345,-27.344,-27.832,-39.551,-24.414,0.000
1713985531.349,-22.461,-28.320,-39.062,-26.367,0.000
1713985531.353,-19.043,-26.367,-29.297,-26.855,0.000
1713985531.357,-22.949,-20.508,-19.531,-28.809,0.000
1713985531.361,-25.391,-20.996,-17.578,-32.227,0.000
1713985531.365,-30.273,-37.109,-20.020,-23.926,0.000
1713985531.369,-27.832,-42.969,-23.926,-21.973,0.000
1713985531.373,-19.043,-33.691,-27.832,-25.391,0.000
1713985531.377,-23.438,-35.645,-29.785,-30.762,0.000
1713985531.381,-34.180,-40.039,-35.645,-33.691,0.000
1713985531.385,-26.367,-32.227,-25.879,-25.391,0.000
1713985531.388,-20.508,-17.090,-19.043,-29.785,0.000
1713985531.392,-34.668,-25.391,-32.227,-47.363,0.000
1713985531.396,-28.320,-37.598,-31.250,-40.039,0.000
1713985531.400,-26.367,-38.574,-28.320,-28.320,0.000
1713985531.404,-30.273,-38.086,-35.156,-32.715,0.000
1713985531.408,-31.250,-36.621,-44.434,-41.504,0.000
1713985531.412,-31.250,-30.273,-36.133,-35.645,0.000
1713985531.416,-22.461,-20.508,-18.555,-27.344,0.000
1713985531.420,-18.066,-30.762,-13.184,-22.461,0.000
1713985531.424,-23.438,-45.410,-30.762,-22.949,0.000
1713985531.428,-34.668,-54.688,-52.734,-21.484,0.000
1713985531.432,-41.992,-43.945,-50.293,-29.297,0.000
1713985531.435,-42.969,-27.344,-37.109,-38.574,0.000
1713985531.439,-39.062,-34.180,-34.180,-44.434,0.000
1713985531.443,-35.156,-36.133,-36.133,-45.898,0.000
1713985531.447,-31.250,-33.203,-33.691,-32.715,0.000
1713985531.451,-30.762,-28.809,-36.621,-24.902,0.000
1713985531.455,-24.902,-32.715,-34.180,-32.227,0.000
1713985531.459,-27.344,-50.781,-40.527,-37.598,0.000
1713985531.463,-36.621,-48.828,-48.828,-30.273,0.000
1713985531.467,-28.320,-40.039,-43.457,-27.344,0.000
1713985531.471,-14.648,-27.832,-44.922,-22.461,0.000
1713985531.475,-15.625,-16.113,-34.180,-19.043,0.000
1713985531.478,-30.762,-26.367,-26.367,-35.156,0.000
1713985531.482,-32.227,-23.926,-30.762,-35.645,0.000
1713985531.486,-26.855,-21.973,-28.809,-30.762,0.000
1713985531.490,-28.809,-37.109,-32.715,-37.109,0.000
1713985531.494,-32.227,-40.039,-35.645,-38.574,0.000
1713985531.498,-31.250,-37.598,-35.645,-34.180,0.000
1713985531.502,-27.344,-34.180,-37.109,-32.227,0.000
1713985531.506,-21.484,-32.227,-35.156,-28.809,0.000
1713985531.510,-21.484,-31.250,-28.809,-22.461,0.000
1713985531.513,-21.484,-30.762,-19.531,-19.043,0.000
1713985531.517,-25.879,-38.086,-24.414,-26.855,0.000
1713985531.521,-26.855,-38.086,-38.574,-32.715,0.000
1713985531.525,-24.414,-31.250,-39.062,-33.691,0.000
1713985531.529,-24.902,-22.461,-37.598,-26.855,0.000
1713985531.533,-20.996,-26.855,-35.156,-16.113,0.000
1713985531.537,-17.578,-33.691,-31.738,-21.973,0.000
1713985531.541,-20.508,-27.344,-22.461,-24.902,0.000
1713985531.545,-26.367,-24.414,-11.719,-29.785,0.000
1713985531.548,-30.273,-29.297,-24.902,-36.133,0.000
1713985531.552,-26.855,-32.715,-44.434,-39.551,0.000
1713985531.556,-22.461,-30.762,-45.898,-41.992,0.000
1713985531.560,-27.832,-24.414,-38.574,-40.527,0.000
1713985531.564,-26.855,-15.137,-22.461,-25.879,0.000
1713985531.568,-21.973,-13.672,-22.461,-17.578,0.000
1713985531.572,-24.414,-18.066,-17.578,-28.809,0.000
1713985531.576,-27.832,-29.785,-13.184,-34.668,0.000
1713985531.580,-29.785,-31.738,-35.156,-27.832,0.000
1713985531.583,-24.902,-21.484,-42.969,-14.160,0.000
1713985531.587,-21.973,-13.672,-45.898,-16.113,0.000
1713985531.591,-18.555,-21.973,-50.293,-31.250,0.000
1713985531.595,-26.855,-23.438,-37.598,-22.461,0.000
1713985531.599,-34.668,-14.648,-19.531,-16.113,0.000
1713985531.603,-23.926,-12.207,-12.695,-31.738,0.000
1713985531.607,-26.367,-21.973,-15.137,-31.250,0.000
1713985531.611,-33.691,-21.973,-22.949,-38.574,0.000
1713985531.615,-31.738,-20.508,-40.039,-42.480,0.000
1713985531.619,-28.809,-30.273,-48.340,-38.574,0.000
1713985531.622,-30.762,-37.598,-38.574,-40.527,0.000
1713985531.626,-30.273,-38.574,-27.832,-40.527,0.000
1713985531.630,-27.344,-18.066,-21.973,-41.504,0.000
1713985531.634,-23.438,-9.766,-23.438,-41.992,0.000
1713985531.638,-19.531,-22.461,-18.066,-39.551,0.000
1713985531.642,-20.508,-20.996,-18.066,-37.598,0.000
1713985531.646,-31.738,-28.320,-38.086,-43.457,0.000
1713985531.649,-32.227,-35.645,-47.852,-45.410,0.000
1713985531.653,-27.344,-31.738,-37.598,-40.527,0.000
1713985531.657,-30.273,-26.855,-29.297,-43.457,0.000
1713985531.661,-27.344,-25.879,-29.297,-41.992,0.000
1713985531.665,-29.297,-19.043,-31.250,-28.320,0.000
1713985531.669,-26.367,-9.277,-21.484,-20.020,0.000
1713985531.673,-30.762,-25.391,-19.043,-41.992,0.000
1713985531.677,-35.156,-39.551,-24.414,-46.875,0.000
1713985531.681,-39.062,-37.109,-23.438,-37.598,0.000
1713985531.685,-35.156,-34.180,-32.715,-40.039,0.000
1713985531.689,-25.391,-28.320,-34.180,-44.434,0.000
1713985531.693,-26.855,-17.578,-36.621,-37.598,0.000
1713985531.697,-24.902,-17.090,-47.852,-27.832,0.000
1713985531.701,-30.273,-31.738,-33.691,-31.738,0.000
1713985531.704,-28.320,-30.762,-16.113,-29.785,0.000
1713985531.708,-26.855,-24.414,-24.902,-39.062,0.000
1713985531.712,-45.898,-29.785,-40.527,-49.316,0.000
1713985531.716,-53.223,-40.527,-42.480,-47.363,0.000
1713985531.720,-41.016,-35.156,-38.574,-54.199,0.000
1713985531.724,-25.879,-22.949,-47.363,-53.711,0.000
1713985531.728,-26.367,-17.090,-43.457,-43.457,0.000
1713985531.732,-32.715,-27.344,-33.203,-34.180,0.000
1713985531.736,-32.227,-39.551,-39.062,-38.086,0.000
1713985531.740,-36.133,-44.434,-46.875,-52.246,0.000
1713985531.744,-34.180,-43.457,-39.062,-43.457,0.000
1713985531.748,-26.855,-30.273,-37.109,-23.438,0.000
1713985531.751,-26.855,-27.832,-38.086,-27.344,0.000
1713985531.755,-22.461,-23.926,-32.715,-27.832,0.000
1713985531.759,-21.973,-9.277,-23.926,-23.926,0.000
1713985531.763,-25.391,-16.113,-20.508,-27.344,0.000
1713985531.767,-28.320,-31.250,-39.551,-26.367,0.000
1713985531.771,-34.668,-35.156,-40.039,-32.715,0.000
1713985531.775,-30.273,-41.504,-21.973,-38.086,0.000
1713985531.779,-29.297,-33.691,-19.043,-36.621,0.000
1713985531.783,-34.180,-18.066,-28.809,-34.668,0.000
1713985531.787,-31.738,-22.461,-25.879,-33.203,0.000
1713985531.791,-31.250,-31.738,-24.414,-34.180,0.000
1713985531.795,-29.785,-35.645,-37.109,-30.762,0.000
1713985531.798,-29.297,-36.133,-25.391,-22.461,0.000
1713985531.802,-33.691,-41.504,-23.926,-24.414,0.000
1713985531.806,-26.855,-30.273,-33.203,-30.762,0.000
1713985531.810,-22.949,-17.090,-25.879,-41.992,0.000
1713985531.814,-24.414,-20.996,-15.137,-35.645,0.000
1713985531.818,-23.438,-32.715,-15.137,-27.832,0.000
1713985531.822,-27.344,-45.898,-38.086,-41.992,0.000
1713985531.826,-35.645,-48.340,-44.922,-40.527,0.000
