timestamps,TP9,AF7,AF8,TP10,Right AUX
1714024745.633,-12.207,-40.039,-31.250,-11.719,0.000
1714024745.637,-6.348,-32.715,-36.621,-5.859,0.000
1714024745.641,-6.348,-30.273,-41.016,-10.742,0.000
1714024745.644,-4.883,-28.809,-38.574,-12.207,0.000
1714024745.648,-1.953,-27.832,-36.133,-13.672,0.000
1714024745.652,-7.812,-31.250,-39.062,-19.531,0.000
1714024745.656,-15.625,-29.297,-35.645,-19.043,0.000
1714024745.660,-14.160,-35.645,-35.156,-19.043,0.000
1714024745.664,-11.230,-38.574,-38.086,-13.672,0.000
1714024745.668,-10.742,-28.320,-26.855,-16.602,0.000
1714024745.672,-11.230,-25.391,-31.738,-22.949,0.000
1714024745.676,-12.207,-23.926,-40.039,-23.438,0.000
1714024745.679,-8.789,-27.344,-29.297,-20.996,0.000
1714024745.683,-5.371,-31.250,-29.297,-20.508,0.000
1714024745.687,-8.789,-33.691,-31.738,-26.855,0.000
1714024745.691,-14.160,-33.691,-30.273,-22.461,0.000
1714024745.695,-16.602,-30.762,-28.320,-28.809,0.000
1714024745.699,-21.484,-27.832,-25.391,-39.551,0.000
1714024745.703,-22.461,-24.414,-25.391,-35.645,0.000
1714024745.707,-23.438,-30.762,-26.367,-29.297,0.000
1714024745.711,-26.855,-32.715,-20.020,-17.578,0.000
1714024745.715,-25.391,-23.926,-20.508,-24.902,0.000
1714024745.718,-24.902,-27.832,-28.320,-36.133,0.000
1714024745.722,-22.949,-30.273,-20.996,-31.738,0.000
1714024745.726,-22.949,-28.809,-23.438,-27.832,0.000
1714024745.730,-23.926,-27.832,-25.391,-26.367,0.000
1714024745.734,-28.320,-29.785,-24.414,-31.738,0.000
1714024745.738,-33.691,-32.227,-30.762,-33.203,0.000
1714024745.741,-24.902,-31.250,-30.273,-31.250,0.000
1714024745.745,-23.926,-30.273,-30.762,-30.273,0.000
1714024745.749,-24.902,-23.438,-30.762,-30.762,0.000
1714024745.753,-25.879,-25.391,-35.156,-34.668,0.000
1714024745.757,-29.785,-24.414,-35.645,-30.762,0.000
1714024745.761,-28.320,-20.996,-38.574,-27.344,0.000
1714024745.765,-27.344,-23.438,-43.457,-26.367,0.000
1714024745.769,-23.438,-22.949,-33.691,-21.973,0.000
1714024745.772,-21.973,-21.973,-26.367,-18.555,0.000
1714024745.776,-19.043,-17.090,-28.809,-20.020,0.000
1714024745.780,-16.602,-17.090,-30.273,-23.926,0.000
1714024745.784,-14.648,-19.043,-26.367,-25.879,0.000
1714024745.788,-15.137,-20.508,-28.809,-20.508,0.000
1714024745.792,-26.367,-25.879,-33.691,-23.926,0.000
1714024745.796,-26.367,-22.461,-31.250,-21.973,0.000
1714024745.799,-22.461,-20.020,-28.809,-19.043,0.000
1714024745.803,-27.832,-24.902,-26.367,-25.391,0.000
1714024745.807,-25.879,-19.043,-20.020,-17.578,0.000
1714024745.811,-21.484,-14.648,-13.672,-13.672,0.000
1714024745.815,-21.973,-20.020,-15.625,-16.602,0.000
1714024745.818,-25.879,-23.926,-12.207,-20.996,0.000
1714024745.822,-29.297,-31.738,-14.648,-21.973,0.000
1714024745.826,-30.762,-32.227,-23.926,-20.996,0.000
1714024745.830,-35.645,-26.855,-20.508,-29.297,0.000
1714024745.834,-34.668,-29.297,-20.996,-35.645,0.000
1714024745.838,-34.180,-32.715,-29.297,-35.645,0.000
1714024745.842,-34.180,-26.855,-30.762,-34.668,0.000
1714024745.846,-33.691,-22.461,-25.879,-39.551,0.000
1714024745.849,-34.180,-25.391,-20.508,-38.086,0.000
1714024745.853,-38.086,-27.832,-17.578,-28.320,0.000
1714024745.857,-41.504,-29.785,-22.461,-34.180,0.000
1714024745.861,-36.133,-27.344,-24.414,-42.969,0.000
1714024745.866,-37.109,-24.414,-25.391,-46.387,0.000
1714024745.870,-42.969,-25.391,-22.461,-50.781,0.000
1714024745.874,-41.016,-26.367,-19.531,-48.340,0.000
1714024745.878,-38.574,-29.297,-9.766,-45.898,0.000
1714024745.882,-42.969,-27.344,-15.625,-55.176,0.000
1714024745.886,-52.246,-24.414,-28.809,-63.477,0.000
1714024745.890,-58.594,-23.926,-16.113,-60.059,0.000
1714024745.893,-54.688,-20.020,-6.836,-63.477,0.000
1714024745.897,-76.660,-31.250,-7.324,-88.379,0.000
1714024745.901,-97.656,-39.062,-8.789,-106.445,0.000
1714024745.905,-102.539,-36.621,-3.906,-113.281,0.000
1714024745.909,-113.770,-33.691,4.395,-125.977,0.000
1714024745.914,-126.953,-32.227,7.812,-148.438,0.000
1714024745.918,-134.766,-28.320,11.230,-152.344,0.000
1714024745.921,-141.113,-28.320,19.531,-147.461,0.000
1714024745.925,-151.367,-28.320,23.438,-158.691,0.000
1714024745.929,-155.273,-26.367,20.020,-167.480,0.000
1714024745.933,-155.273,-21.973,17.090,-165.527,0.000
1714024745.937,-151.855,-23.438,20.020,-159.180,0.000
1714024745.941,-143.066,-22.461,22.949,-154.297,0.000
1714024745.945,-133.789,-20.996,21.484,-150.879,0.000
1714024745.949,-130.859,-20.508,17.578,-147.949,0.000
1714024745.953,-127.441,-15.137,17.090,-143.066,0.000
1714024745.957,-114.258,-12.695,17.578,-125.977,0.000
1714024745.961,-103.516,-14.648,16.113,-120.605,0.000
1714024745.965,-96.191,-21.973,7.812,-113.770,0.000
1714024745.969,-82.520,-28.320,4.883,-95.215,0.000
1714024745.973,-71.777,-26.367,0.000,-83.496,0.000
1714024745.976,-69.824,-22.949,-8.301,-72.266,0.000
1714024745.980,-61.035,-24.902,-9.766,-62.012,0.000
1714024745.984,-46.875,-28.809,-15.137,-56.152,0.000
1714024745.988,-41.504,-35.156,-19.531,-46.875,0.000
1714024745.992,-34.180,-37.109,-29.785,-33.203,0.000
1714024745.996,-20.508,-39.062,-31.738,-23.926,0.000
1714024746.000,-13.184,-35.156,-23.926,-24.902,0.000
1714024746.004,-11.230,-32.715,-27.832,-22.949,0.000
1714024746.008,-2.441,-36.621,-30.273,-13.672,0.000
1714024746.012,4.395,-33.203,-31.738,-8.301,0.000
1714024746.016,1.465,-32.227,-36.133,-12.207,0.000
1714024746.019,1.953,-32.227,-41.992,-4.883,0.000
1714024746.023,3.418,-34.668,-48.828,3.418,0.000
1714024746.027,6.348,-36.621,-49.805,11.230,0.000
1714024746.031,15.137,-29.785,-43.945,20.020,0.000
1714024746.035,20.996,-24.902,-45.898,17.578,0.000
1714024746.039,15.625,-27.832,-54.688,13.672,0.000
1714024746.043,13.184,-27.344,-56.152,8.301,0.000
1714024746.047,17.578,-25.879,-57.617,2.930,0.000
1714024746.051,14.648,-26.855,-51.758,4.395,0.000
1714024746.055,0.000,-22.949,-44.434,10.254,0.000
1714024746.058,0.000,-21.484,-49.805,16.113,0.000
1714024746.062,0.000,-25.391,-51.758,18.555,0.000
1714024746.066,0.000,-28.320,-47.852,12.695,0.000
1714024746.070,0.000,-25.879,-49.805,13.184,0.000
1714024746.074,0.000,-24.902,-52.734,14.160,0.000
1714024746.078,0.000,-21.484,-50.781,12.695,0.000
1714024746.082,0.000,-20.996,-50.293,15.625,0.000
1714024746.086,0.000,-20.996,-49.316,14.648,0.000
1714024746.090,0.000,-14.160,-44.922,18.555,0.000
1714024746.094,0.000,-13.184,-42.480,20.020,0.000
1714024746.097,0.000,-16.602,-44.922,7.324,0.000
1714024746.101,8.789,-23.438,-56.641,1.953,0.000
1714024746.105,10.742,-25.879,-59.082,1.953,0.000
1714024746.109,10.742,-24.414,-47.852,1.953,0.000
1714024746.113,7.812,-25.879,-40.039,-2.930,0.000
1714024746.117,7.812,-23.926,-37.109,-7.812,0.000
1714024746.121,8.301,-23.438,-38.574,-4.395,0.000
1714024746.124,5.859,-22.949,-40.039,-1.465,0.000
1714024746.128,7.812,-25.391,-41.504,8.301,0.000
1714024746.132,11.230,-20.996,-32.227,6.836,0.000
1714024746.136,10.254,-16.602,-32.227,-3.418,0.000
1714024746.140,12.207,-20.508,-41.016,2.930,0.000
1714024746.144,15.137,-20.996,-37.109,4.883,0.000
1714024746.147,14.648,-20.996,-32.227,6.836,0.000
1714024746.151,8.789,-21.484,-29.785,5.371,0.000
1714024746.155,6.836,-23.926,-34.668,-0.977,0.000
1714024746.159,5.859,-25.391,-37.109,-6.348,0.000
1714024746.163,2.441,-22.949,-35.645,-8.301,0.000
1714024746.167,-1.953,-24.414,-39.551,-8.301,0.000
1714024746.171,5.859,-23.926,-38.574,-5.859,0.000
1714024746.175,15.137,-20.996,-29.297,-6.836,0.000
1714024746.178,12.695,-20.508,-23.926,-12.695,0.000
1714024746.182,13.672,-17.578,-28.320,-8.301,0.000
1714024746.186,3.418,-26.367,-33.691,-13.672,0.000
1714024746.190,-4.883,-36.133,-39.062,-13.184,0.000
1714024746.193,-7.812,-36.133,-40.527,-13.184,0.000
1714024746.197,-13.184,-31.738,-39.062,-19.043,0.000
1714024746.201,-13.672,-26.367,-42.969,-15.137,0.000
1714024746.205,-14.648,-29.785,-41.016,-8.789,0.000
1714024746.209,-13.672,-26.367,-40.527,-9.766,0.000
1714024746.213,-11.719,-23.926,-41.992,-13.184,0.000
1714024746.217,-15.137,-28.320,-42.480,-13.184,0.000
1714024746.221,-22.949,-25.879,-39.062,-11.719,0.000
1714024746.224,-24.414,-23.926,-30.762,-10.742,0.000
1714024746.228,-21.973,-31.250,-34.668,-20.996,0.000
1714024746.232,-23.438,-32.227,-36.133,-35.645,0.000
1714024746.236,-26.367,-27.344,-41.992,-36.621,0.000
1714024746.239,-24.414,-30.273,-40.039,-27.344,0.000
1714024746.243,-17.578,-31.250,-33.203,-24.414,0.000
1714024746.247,-17.090,-27.832,-29.297,-29.785,0.000
1714024746.251,-16.113,-26.855,-28.320,-27.344,0.000
1714024746.255,-17.090,-26.367,-41.992,-18.066,0.000
1714024746.259,-20.996,-23.438,-47.363,-21.484,0.000
1714024746.263,-22.949,-22.949,-40.527,-30.273,0.000
1714024746.266,-26.855,-21.484,-34.180,-28.809,0.000
1714024746.270,-33.203,-20.508,-32.227,-26.367,0.000
1714024746.274,-31.738,-28.320,-34.180,-20.020,0.000
1714024746.278,-28.320,-30.762,-25.391,-13.184,0.000
1714024746.282,-28.809,-20.020,-19.043,-13.672,0.000
1714024746.287,-26.367,-19.531,-25.879,-11.719,0.000
1714024746.291,-20.020,-27.344,-25.391,-14.160,0.000
1714024746.295,-20.020,-26.855,-27.344,-21.484,0.000
1714024746.299,-22.461,-24.902,-24.414,-20.020,0.000
1714024746.303,-18.066,-23.438,-20.996,-13.672,0.000
1714024746.306,-21.484,-23.438,-30.273,-13.672,0.000
1714024746.310,-23.438,-21.973,-25.391,-14.160,0.000
1714024746.314,-17.090,-19.043,-14.160,-13.672,0.000
1714024746.318,-16.113,-19.043,-17.578,-12.207,0.000
1714024746.322,-14.160,-18.555,-19.531,-3.418,0.000
1714024746.326,-11.230,-16.602,-12.207,-1.465,0.000
1714024746.330,-15.137,-17.090,-16.113,-11.719,0.000
1714024746.334,-20.020,-23.926,-23.926,-15.137,0.000
1714024746.338,-16.113,-24.414,-22.461,-9.766,0.000
1714024746.342,-16.113,-16.602,-16.113,-14.648,0.000
1714024746.346,-20.996,-22.949,-18.555,-24.414,0.000
1714024746.350,-22.461,-34.180,-31.738,-25.391,0.000
1714024746.354,-20.996,-28.809,-28.809,-20.508,0.000
1714024746.358,-22.949,-19.043,-19.043,-20.508,0.000
1714024746.362,-24.414,-17.090,-13.184,-21.484,0.000
1714024746.366,-25.879,-18.066,-14.160,-17.578,0.000
1714024746.369,-28.809,-20.508,-20.996,-17.578,0.000
1714024746.373,-27.832,-17.578,-16.113,-21.973,0.000
1714024746.377,-26.367,-18.066,-17.578,-24.414,0.000
1714024746.382,-28.320,-21.484,-21.484,-25.391,0.000
1714024746.385,-25.879,-20.508,-17.090,-21.484,0.000
1714024746.389,-22.949,-20.996,-19.043,-18.555,0.000
1714024746.393,-27.832,-24.902,-16.113,-24.902,0.000
1714024746.397,-29.785,-26.367,-18.555,-33.203,0.000
1714024746.401,-26.855,-21.973,-26.855,-35.156,0.000
1714024746.405,-26.367,-21.484,-25.879,-36.133,0.000
1714024746.409,-23.438,-25.391,-28.809,-30.762,0.000
1714024746.413,-19.043,-20.508,-33.203,-20.508,0.000
1714024746.417,-23.438,-17.578,-28.320,-24.902,0.000
1714024746.421,-26.855,-19.531,-26.855,-33.203,0.000
1714024746.425,-24.414,-20.508,-27.832,-31.250,0.000
1714024746.428,-22.461,-20.020,-22.949,-27.832,0.000
1714024746.432,-20.508,-18.066,-19.043,-25.879,0.000
1714024746.436,-18.555,-17.578,-23.926,-22.949,0.000
1714024746.440,-19.531,-18.066,-27.344,-14.648,0.000
1714024746.444,-20.508,-21.484,-22.461,-10.254,0.000
1714024746.448,-22.949,-27.832,-30.273,-21.484,0.000
1714024746.452,-28.809,-25.391,-34.668,-23.926,0.000
1714024746.456,-24.902,-24.902,-27.832,-14.648,0.000
1714024746.460,-14.160,-29.297,-20.020,-23.926,0.000
1714024746.464,-16.602,-25.879,-18.555,-39.062,0.000
1714024746.467,-27.832,-26.855,-27.832,-38.574,0.000
1714024746.471,-28.320,-24.902,-25.391,-30.762,0.000
1714024746.475,-24.414,-28.320,-17.578,-15.137,0.000
1714024746.479,-24.414,-30.273,-20.996,-2.930,0.000
1714024746.483,-29.297,-27.344,-31.250,-22.461,0.000
1714024746.487,-26.855,-30.273,-33.203,-38.086,0.000
1714024746.491,-19.531,-27.344,-25.391,-28.809,0.000
1714024746.495,-23.926,-28.320,-20.020,-30.762,0.000
1714024746.499,-26.855,-32.715,-22.949,-33.691,0.000
1714024746.502,-23.926,-30.762,-23.926,-32.227,0.000
1714024746.506,-28.320,-25.879,-19.043,-35.645,0.000
1714024746.510,-25.391,-24.902,-19.531,-41.992,0.000
1714024746.514,-21.973,-23.926,-20.020,-48.828,0.000
1714024746.518,-28.809,-24.902,-19.043,-43.945,0.000
1714024746.521,-31.738,-28.320,-25.879,-37.598,0.000
1714024746.525,-28.809,-28.320,-26.367,-38.574,0.000
1714024746.529,-27.344,-24.414,-22.949,-41.016,0.000
1714024746.533,-31.250,-19.531,-29.297,-38.574,0.000
1714024746.537,-33.203,-28.809,-24.902,-27.832,0.000
1714024746.541,-33.203,-34.668,-20.508,-25.879,0.000
1714024746.545,-35.156,-29.785,-22.949,-27.832,0.000
1714024746.549,-30.762,-24.902,-19.531,-27.344,0.000
1714024746.553,-28.809,-17.578,-9.766,-27.832,0.000
1714024746.557,-31.738,-18.555,-9.766,-18.555,0.000
1714024746.561,-30.762,-18.555,-18.555,-13.672,0.000
1714024746.564,-31.250,-20.508,-24.414,-22.949,0.000
1714024746.568,-34.180,-19.531,-21.973,-28.809,0.000
1714024746.571,-33.691,-21.973,-23.438,-32.227,0.000
1714024746.575,-31.250,-24.414,-24.902,-34.180,0.000
1714024746.579,-28.320,-27.344,-26.367,-36.621,0.000
1714024746.583,-28.809,-33.203,-28.809,-38.086,0.000
1714024746.587,-27.344,-36.133,-30.762,-28.809,0.000
1714024746.591,-25.879,-38.086,-27.832,-21.973,0.000
1714024746.595,-26.367,-36.621,-23.438,-32.715,0.000
1714024746.599,-23.926,-35.645,-31.738,-42.969,0.000
1714024746.603,-31.738,-36.621,-31.738,-36.133,0.000
1714024746.607,-35.156,-36.621,-27.344,-39.062,0.000
1714024746.611,-29.785,-32.227,-27.344,-51.270,0.000
1714024746.614,-27.344,-34.668,-28.320,-47.363,0.000
1714024746.617,-27.832,-34.180,-32.715,-40.039,0.000
1714024746.621,-28.809,-30.762,-30.273,-38.086,0.000
1714024746.625,-30.273,-31.250,-25.879,-34.668,0.000
1714024746.629,-30.762,-32.715,-21.484,-33.691,0.000
1714024746.633,-31.738,-35.156,-26.855,-29.785,0.000
1714024746.637,-36.621,-35.645,-36.621,-22.949,0.000
1714024746.641,-38.574,-34.180,-34.180,-25.391,0.000
1714024746.645,-36.621,-36.133,-39.551,-35.645,0.000
1714024746.649,-36.621,-33.203,-41.504,-31.738,0.000
1714024746.653,-38.574,-29.297,-31.738,-27.832,0.000
1714024746.657,-33.691,-24.902,-26.367,-25.391,0.000
1714024746.662,-27.344,-17.090,-23.438,-25.391,0.000
1714024746.665,-27.344,-20.508,-25.879,-35.156,0.000
1714024746.669,-27.344,-26.855,-26.855,-33.203,0.000
1714024746.673,-28.809,-20.996,-24.902,-26.367,0.000
1714024746.677,-26.855,-20.508,-22.461,-23.438,0.000
1714024746.681,-28.809,-26.855,-26.855,-22.461,0.000
1714024746.685,-33.203,-28.320,-32.227,-27.832,0.000
1714024746.689,-36.133,-29.785,-28.809,-31.738,0.000
1714024746.693,-34.668,-28.809,-31.738,-35.156,0.000
1714024746.697,-29.785,-33.203,-30.762,-30.273,0.000
1714024746.701,-30.273,-30.273,-24.414,-24.902,0.000
1714024746.704,-31.738,-23.438,-24.414,-30.762,0.000
1714024746.709,-26.367,-22.461,-18.555,-33.203,0.000
1714024746.713,-22.461,-26.855,-16.113,-29.785,0.000
1714024746.717,-24.902,-29.785,-19.043,-32.227,0.000
1714024746.721,-23.438,-25.391,-21.484,-27.832,0.000
1714024746.725,-25.879,-26.367,-25.879,-20.996,0.000
1714024746.728,-26.855,-33.203,-25.391,-24.414,0.000
1714024746.732,-26.855,-34.668,-20.996,-26.855,0.000
1714024746.736,-31.738,-25.879,-23.926,-30.273,0.000
1714024746.740,-30.273,-23.438,-26.367,-23.926,0.000
1714024746.744,-28.809,-27.832,-19.043,-16.113,0.000
1714024746.748,-24.902,-27.344,-14.648,-26.855,0.000
1714024746.752,-21.484,-30.762,-21.484,-30.762,0.000
1714024746.756,-27.832,-32.227,-23.926,-27.832,0.000
1714024746.760,-31.250,-32.227,-23.926,-24.414,0.000
1714024746.764,-32.227,-35.156,-24.902,-30.273,0.000
1714024746.768,-28.320,-28.809,-27.832,-35.645,0.000
1714024746.772,-20.996,-21.484,-30.273,-25.391,0.000
1714024746.776,-21.973,-21.973,-24.902,-22.949,0.000
1714024746.780,-21.973,-21.973,-18.066,-36.133,0.000
1714024746.784,-16.602,-16.602,-18.066,-37.598,0.000
1714024746.787,-21.973,-24.902,-23.438,-25.391,0.000
1714024746.791,-28.809,-29.297,-27.344,-26.855,0.000
1714024746.795,-19.531,-21.484,-24.902,-24.414,0.000
1714024746.799,-18.066,-22.461,-24.902,-25.391,0.000
1714024746.803,-27.832,-26.367,-31.738,-28.809,0.000
1714024746.807,-23.926,-31.250,-30.273,-31.738,0.000
1714024746.811,-21.484,-27.344,-20.508,-40.039,0.000
1714024746.815,-14.160,-21.973,-20.996,-35.156,0.000
1714024746.819,-6.348,-21.973,-30.273,-29.785,0.000
1714024746.823,-12.207,-20.508,-33.691,-34.180,0.000
1714024746.826,-12.207,-21.484,-31.250,-33.691,0.000
1714024746.830,-9.277,-20.996,-32.227,-24.902,0.000
1714024746.834,-18.555,-20.996,-28.809,-25.391,0.000
1714024746.838,-26.367,-20.020,-23.926,-33.691,0.000
1714024746.842,-26.367,-20.020,-22.949,-35.156,0.000
1714024746.846,-24.902,-17.090,-19.043,-34.180,0.000
1714024746.850,-23.438,-11.230,-19.531,-37.598,0.000
1714024746.854,-30.273,-16.602,-27.344,-50.781,0.000
1714024746.857,-33.203,-26.367,-23.926,-46.875,0.000
1714024746.861,-33.691,-23.438,-18.555,-39.062,0.000
1714024746.865,-39.551,-23.926,-29.785,-47.852,0.000
1714024746.869,-41.992,-32.715,-36.621,-49.805,0.000
1714024746.873,-42.969,-36.133,-35.156,-45.898,0.000
1714024746.877,-36.621,-33.203,-33.691,-39.551,0.000
1714024746.881,-32.715,-29.297,-29.785,-39.062,0.000
1714024746.885,-39.062,-35.645,-32.227,-41.992,0.000
1714024746.889,-35.156,-39.551,-34.668,-37.598,0.000
1714024746.893,-30.273,-32.715,-30.762,-34.180,0.000
1714024746.896,-27.344,-28.320,-25.391,-33.691,0.000
1714024746.900,-28.809,-26.367,-29.785,-30.273,0.000
1714024746.904,-28.320,-28.320,-30.762,-22.461,0.000
1714024746.908,-25.391,-23.926,-20.508,-15.137,0.000
1714024746.912,-30.273,-18.066,-23.926,-26.367,0.000
1714024746.916,-34.668,-20.020,-35.156,-41.504,0.000
1714024746.920,-38.574,-25.879,-42.480,-37.598,0.000
1714024746.924,-37.109,-26.367,-40.527,-29.785,0.000
1714024746.927,-30.273,-19.531,-30.273,-33.691,0.000
1714024746.931,-28.320,-17.090,-30.762,-37.109,0.000
1714024746.935,-31.250,-19.043,-38.574,-35.156,0.000
1714024746.939,-30.762,-19.531,-37.109,-32.715,0.000
1714024746.943,-30.762,-23.926,-29.297,-31.250,0.000
1714024746.946,-32.227,-31.250,-28.320,-28.809,0.000
1714024746.950,-31.738,-29.785,-35.645,-28.809,0.000
1714024746.954,-33.691,-30.762,-37.109,-31.250,0.000
1714024746.958,-32.227,-30.762,-31.250,-29.785,0.000
1714024746.962,-24.902,-25.391,-30.762,-27.832,0.000
1714024746.966,-24.414,-22.461,-33.203,-26.855,0.000
1714024746.970,-28.809,-22.949,-29.785,-24.414,0.000
1714024746.974,-26.855,-27.344,-27.344,-23.926,0.000
1714024746.978,-21.973,-25.391,-27.344,-29.297,0.000
1714024746.982,-22.461,-20.508,-22.949,-29.785,0.000
1714024746.985,-25.879,-20.996,-19.531,-22.461,0.000
1714024746.991,-25.391,-22.461,-23.926,-26.367,0.000
1714024746.994,-19.531,-20.020,-22.461,-36.133,0.000
1714024746.998,-14.648,-17.090,-18.555,-33.203,0.000
1714024747.002,-21.973,-16.113,-15.137,-37.598,0.000
1714024747.006,-25.879,-20.508,-14.160,-33.203,0.000
1714024747.010,-23.926,-26.855,-24.902,-26.855,0.000
1714024747.014,-32.227,-20.508,-25.879,-37.109,0.000
1714024747.018,-41.992,-16.113,-21.973,-50.293,0.000
1714024747.022,-41.016,-25.391,-27.344,-58.594,0.000
1714024747.026,-42.480,-30.762,-28.809,-65.430,0.000
1714024747.030,-61.523,-32.227,-17.090,-80.566,0.000
1714024747.033,-82.031,-29.785,-7.812,-94.727,0.000
1714024747.038,-84.961,-30.273,-11.719,-91.797,0.000
1714024747.042,-83.984,-33.203,-9.766,-92.285,0.000
1714024747.046,-94.238,-34.668,1.953,-104.492,0.000
1714024747.050,-113.281,-40.039,9.766,-119.629,0.000
1714024747.054,-126.953,-44.922,11.230,-127.930,0.000
1714024747.058,-129.395,-45.410,4.883,-133.301,0.000
1714024747.062,-134.766,-43.457,13.184,-138.184,0.000
1714024747.065,-138.672,-45.410,22.949,-147.949,0.000
1714024747.069,-140.137,-42.969,18.555,-147.949,0.000
1714024747.073,-144.531,-42.969,20.020,-138.184,0.000
1714024747.077,-139.160,-43.457,31.738,-134.277,0.000
1714024747.081,-132.812,-43.457,27.344,-127.930,0.000
1714024747.085,-124.512,-45.898,18.555,-121.094,0.000
1714024747.089,-125.488,-46.387,21.973,-120.117,0.000
1714024747.093,-121.094,-42.969,28.320,-109.375,0.000
1714024747.097,-96.191,-40.527,20.508,-96.191,0.000
1714024747.101,-91.309,-39.551,7.812,-92.773,0.000
1714024747.105,-99.609,-39.062,5.371,-94.727,0.000
1714024747.109,-91.797,-34.668,5.859,-85.449,0.000
1714024747.113,-73.242,-20.020,12.207,-69.336,0.000
1714024747.117,-67.383,-22.461,3.418,-62.988,0.000
1714024747.121,-75.684,-43.945,-10.742,-73.242,0.000
1714024747.124,-86.426,-41.504,-8.789,-82.520,0.000
1714024747.128,-94.727,-26.367,-1.953,-87.402,0.000
1714024747.132,-94.727,-29.297,8.789,-86.426,0.000
1714024747.136,-114.746,-41.504,3.906,-96.680,0.000
1714024747.140,-126.953,-43.457,-1.465,-108.887,0.000
1714024747.144,-116.211,-33.203,12.207,-104.492,0.000
1714024747.148,-124.023,-26.367,17.090,-115.234,0.000
1714024747.152,-137.695,-31.250,6.348,-130.371,0.000
1714024747.156,-140.625,-32.715,5.371,-131.836,0.000
1714024747.160,-131.348,-29.297,11.230,-128.906,0.000
1714024747.164,-122.559,-25.879,7.324,-130.371,0.000
1714024747.168,-120.117,-20.020,9.766,-132.812,0.000
1714024747.171,-118.652,-12.207,12.207,-125.977,0.000
1714024747.175,-116.699,-10.254,9.277,-117.188,0.000
1714024747.179,-106.934,-14.160,9.277,-108.398,0.000
1714024747.183,-91.797,-12.695,10.254,-104.980,0.000
1714024747.187,-84.473,-13.184,6.836,-102.539,0.000
1714024747.191,-74.219,-16.113,10.254,-82.031,0.000
1714024747.195,-65.430,-14.648,7.324,-67.871,0.000
1714024747.199,-62.500,-16.113,-11.230,-67.871,0.000
1714024747.203,-53.223,-22.949,-15.625,-58.594,0.000
1714024747.207,-45.410,-27.832,-28.809,-45.898,0.000
1714024747.210,-40.527,-28.809,-32.227,-43.457,0.000
1714024747.214,-28.320,-26.367,-22.461,-35.645,0.000
1714024747.218,-15.625,-26.367,-31.738,-22.949,0.000
1714024747.222,-13.184,-26.855,-41.016,-24.902,0.000
1714024747.226,0.488,-23.438,-41.504,-23.438,0.000
1714024747.229,15.625,-20.996,-37.598,-12.207,0.000
1714024747.233,11.230,-23.438,-45.410,0.000,0.000
1714024747.237,6.348,-24.414,-56.152,11.230,0.000
1714024747.241,18.555,-21.484,-56.641,14.648,0.000
1714024747.245,28.809,-18.555,-62.500,7.812,0.000
1714024747.249,28.809,-22.461,-66.406,0.977,0.000
1714024747.253,23.926,-31.250,-67.383,0.000,0.000
1714024747.257,23.926,-29.785,-67.871,-0.488,0.000
1714024747.261,27.832,-25.879,-67.383,-2.441,0.000
1714024747.265,32.715,-26.855,-70.801,2.441,0.000
1714024747.269,34.180,-28.809,-69.336,10.742,0.000
1714024747.272,36.133,-25.879,-63.965,23.926,0.000
1714024747.276,46.387,-21.973,-63.477,31.250,0.000
1714024747.280,48.828,-25.879,-65.430,28.320,0.000
1714024747.284,41.504,-29.297,-64.941,20.996,0.000
1714024747.288,37.109,-33.203,-67.383,19.043,0.000
1714024747.291,45.898,-33.203,-64.941,27.832,0.000
1714024747.295,46.387,-24.902,-63.477,30.762,0.000
1714024747.299,38.086,-18.066,-61.523,33.203,0.000
1714024747.303,35.645,-19.531,-53.711,28.809,0.000
1714024747.307,33.203,-19.531,-53.711,25.391,0.000
1714024747.311,35.645,-16.113,-54.688,27.344,0.000
1714024747.315,41.992,-19.531,-51.270,29.785,0.000
1714024747.318,42.480,-19.531,-51.758,27.344,0.000
1714024747.322,40.039,-20.508,-58.105,26.855,0.000
1714024747.326,32.715,-22.461,-62.500,28.320,0.000
1714024747.330,31.250,-15.137,-51.758,32.715,0.000
1714024747.334,33.203,-13.672,-43.457,37.598,0.000
1714024747.338,30.762,-16.113,-47.852,38.574,0.000
1714024747.342,31.250,-15.137,-53.711,41.016,0.000
1714024747.346,29.785,-9.277,-47.852,33.203,0.000
1714024747.349,30.273,-7.812,-44.434,26.367,0.000
1714024747.353,33.691,-8.789,-43.945,33.203,0.000
1714024747.357,28.320,-8.789,-37.598,40.039,0.000
1714024747.361,20.020,-9.277,-40.039,31.250,0.000
1714024747.364,17.578,-10.254,-43.945,21.484,0.000
1714024747.368,13.184,-14.160,-46.875,17.578,0.000
1714024747.372,10.742,-11.230,-45.410,12.695,0.000
1714024747.376,13.184,-6.348,-39.551,8.301,0.000
1714024747.380,10.742,-5.371,-42.969,0.977,0.000
1714024747.384,6.348,-9.766,-49.316,1.953,0.000
1714024747.388,6.836,-11.230,-48.340,0.977,0.000
1714024747.391,11.719,-7.812,-37.598,1.953,0.000
1714024747.395,15.625,-7.812,-38.086,6.348,0.000
1714024747.399,15.625,-7.324,-42.480,2.441,0.000
1714024747.403,11.719,-6.348,-39.062,2.441,0.000
1714024747.407,15.137,-7.812,-37.109,8.789,0.000
1714024747.412,16.602,-6.836,-39.062,6.836,0.000
1714024747.416,3.418,-6.348,-40.527,-0.977,0.000
1714024747.420,-3.906,-7.812,-40.039,-4.883,0.000
1714024747.424,-1.465,-7.324,-31.738,-5.371,0.000
1714024747.428,-2.441,-11.719,-29.297,-1.465,0.000
1714024747.431,-4.395,-16.113,-34.180,-5.859,0.000
1714024747.435,-2.930,-16.602,-27.344,-13.672,0.000
1714024747.439,-0.977,-14.160,-26.855,-8.301,0.000
1714024747.443,3.906,-13.184,-35.645,-3.906,0.000
1714024747.447,4.395,-14.160,-37.598,-7.812,0.000
1714024747.451,2.441,-14.648,-32.227,-13.672,0.000
1714024747.455,5.371,-16.602,-33.691,-6.348,0.000
1714024747.459,8.789,-15.625,-35.156,0.488,0.000
1714024747.463,7.324,-14.648,-31.738,-9.277,0.000
1714024747.467,4.395,-14.648,-33.691,-17.090,0.000
1714024747.471,-3.418,-19.043,-33.203,-17.090,0.000
1714024747.475,-14.160,-26.855,-28.809,-17.578,0.000
1714024747.479,-16.602,-29.785,-29.297,-17.578,0.000
1714024747.483,-20.020,-31.738,-26.855,-10.742,0.000
1714024747.487,-24.902,-23.438,-24.414,-5.859,0.000
1714024747.491,-24.902,-21.973,-33.203,-0.977,0.000
1714024747.495,-20.996,-23.926,-24.414,-3.906,0.000
1714024747.498,-18.066,-12.695,-13.184,-20.996,0.000
1714024747.502,-23.438,-16.602,-26.855,-24.414,0.000
1714024747.507,-23.926,-21.484,-21.973,-19.043,0.000
1714024747.510,-24.414,-19.531,-9.277,-18.066,0.000
1714024747.514,-26.855,-17.090,-11.230,-23.438,0.000
1714024747.518,-25.879,-15.137,-18.066,-32.715,0.000
1714024747.522,-30.762,-20.996,-28.809,-39.551,0.000
1714024747.526,-27.344,-24.902,-22.461,-40.527,0.000
1714024747.530,-22.949,-26.855,-12.695,-33.203,0.000
1714024747.534,-22.461,-22.949,-16.113,-26.367,0.000
1714024747.538,-26.367,-23.926,-18.066,-16.602,0.000
1714024747.542,-30.762,-23.438,-13.184,-20.508,0.000
1714024747.546,-26.855,-24.902,-15.625,-27.344,0.000
1714024747.550,-28.320,-33.691,-20.508,-26.855,0.000
1714024747.553,-31.250,-35.645,-23.438,-33.691,0.000
1714024747.557,-27.832,-30.273,-27.344,-37.598,0.000
1714024747.561,-31.250,-27.832,-33.203,-36.621,0.000
1714024747.565,-29.785,-28.809,-34.180,-36.621,0.000
1714024747.569,-24.414,-29.297,-33.203,-34.180,0.000
1714024747.573,-27.832,-28.809,-30.273,-33.203,0.000
1714024747.577,-28.320,-27.832,-24.902,-30.762,0.000
1714024747.581,-21.484,-29.297,-22.461,-24.414,0.000
1714024747.585,-20.996,-26.367,-25.391,-20.020,0.000
1714024747.589,-22.949,-24.902,-23.926,-22.461,0.000
1714024747.593,-26.855,-26.855,-21.973,-26.855,0.000
1714024747.596,-27.832,-36.133,-23.926,-24.414,0.000
1714024747.600,-24.902,-36.133,-20.508,-18.555,0.000
1714024747.604,-27.344,-25.879,-20.020,-16.113,0.000
1714024747.608,-31.738,-21.484,-19.531,-20.996,0.000
1714024747.612,-31.738,-20.020,-17.090,-20.020,0.000
1714024747.616,-26.855,-16.113,-13.184,-15.625,0.000
1714024747.620,-28.809,-22.949,-15.137,-16.113,0.000
1714024747.623,-31.738,-23.438,-22.949,-18.555,0.000
1714024747.627,-33.691,-15.625,-27.344,-19.531,0.000
1714024747.631,-34.180,-20.996,-20.508,-24.902,0.000
1714024747.635,-35.645,-28.809,-17.090,-33.203,0.000
1714024747.639,-32.227,-25.879,-27.344,-27.344,0.000
1714024747.643,-25.879,-19.043,-23.926,-18.066,0.000
1714024747.647,-26.367,-22.949,-16.113,-25.391,0.000
1714024747.650,-27.344,-27.832,-21.973,-30.762,0.000
1714024747.654,-31.250,-25.391,-21.973,-32.227,0.000
1714024747.658,-29.785,-26.367,-20.020,-27.344,0.000
1714024747.662,-26.855,-27.344,-20.508,-27.832,0.000
1714024747.666,-23.926,-21.484,-18.555,-37.598,0.000
1714024747.670,-15.137,-20.508,-20.996,-25.391,0.000
1714024747.674,-26.367,-27.832,-24.902,-20.020,0.000
1714024747.678,-39.062,-27.344,-21.484,-28.809,0.000
1714024747.682,-37.109,-25.391,-23.438,-30.273,0.000
1714024747.686,-36.133,-29.785,-24.414,-34.668,0.000
1714024747.689,-29.785,-32.715,-18.066,-27.832,0.000
1714024747.693,-31.738,-30.762,-20.020,-30.273,0.000
1714024747.697,-33.691,-30.762,-29.785,-39.062,0.000
1714024747.701,-28.809,-30.762,-27.344,-28.320,0.000
1714024747.704,-33.203,-23.926,-25.879,-29.297,0.000
1714024747.708,-32.227,-23.438,-30.762,-25.879,0.000
1714024747.712,-28.809,-27.344,-34.668,-21.973,0.000
1714024747.716,-36.621,-31.738,-36.621,-27.344,0.000
1714024747.720,-33.203,-33.691,-29.297,-34.668,0.000
1714024747.724,-29.297,-27.344,-21.484,-32.715,0.000
1714024747.728,-28.320,-27.832,-22.949,-17.578,0.000
1714024747.732,-22.461,-29.297,-24.902,-22.461,0.000
1714024747.736,-25.391,-24.414,-24.414,-32.715,0.000
1714024747.739,-24.902,-26.367,-33.203,-24.414,0.000
1714024747.743,-25.391,-28.320,-38.086,-22.949,0.000
1714024747.747,-33.203,-30.762,-40.039,-39.551,0.000
1714024747.750,-30.762,-29.785,-41.016,-38.574,0.000
1714024747.754,-24.902,-29.297,-27.344,-24.414,0.000
1714024747.758,-23.926,-31.250,-19.531,-25.391,0.000
1714024747.762,-30.762,-35.156,-24.414,-30.762,0.000
1714024747.766,-36.133,-36.621,-28.809,-31.738,0.000
1714024747.770,-36.621,-33.203,-26.855,-30.273,0.000
1714024747.774,-30.762,-35.156,-30.273,-35.645,0.000
1714024747.778,-21.973,-30.273,-34.668,-40.039,0.000
1714024747.782,-27.832,-24.414,-32.227,-41.504,0.000
1714024747.787,-31.250,-26.367,-34.668,-34.180,0.000
1714024747.790,-28.320,-26.855,-42.480,-26.855,0.000
1714024747.794,-26.367,-29.785,-41.016,-26.855,0.000
1714024747.798,-21.973,-28.320,-31.738,-34.668,0.000
1714024747.802,-28.809,-27.344,-31.250,-35.645,0.000
1714024747.806,-37.598,-30.762,-37.109,-34.180,0.000
1714024747.810,-34.180,-31.738,-36.621,-37.598,0.000
1714024747.814,-34.180,-34.668,-39.062,-42.969,0.000
1714024747.818,-36.133,-33.203,-47.363,-38.086,0.000
1714024747.822,-33.203,-31.738,-44.922,-24.414,0.000
1714024747.826,-29.297,-31.738,-36.133,-27.344,0.000
1714024747.829,-27.344,-34.180,-32.715,-29.297,0.000
1714024747.834,-33.691,-35.645,-32.227,-30.762,0.000
1714024747.838,-35.645,-41.016,-33.203,-32.715,0.000
1714024747.842,-26.367,-33.203,-31.250,-27.832,0.000
1714024747.846,-30.762,-20.996,-27.832,-29.785,0.000
1714024747.850,-38.574,-25.879,-31.250,-34.668,0.000
1714024747.854,-36.621,-25.879,-38.574,-33.691,0.000
1714024747.858,-35.645,-26.855,-34.180,-32.715,0.000
1714024747.861,-23.438,-23.438,-24.902,-29.297,0.000
1714024747.865,-18.555,-24.414,-27.344,-23.926,0.000
1714024747.869,-21.484,-28.809,-22.949,-17.090,0.000
1714024747.873,-20.508,-29.297,-15.137,-16.602,0.000
1714024747.877,-20.020,-25.879,-18.555,-23.438,0.000
1714024747.881,-23.438,-25.879,-16.602,-32.715,0.000
1714024747.885,-31.250,-30.273,-20.020,-38.574,0.000
1714024747.889,-32.227,-29.297,-28.320,-38.086,0.000
1714024747.893,-26.855,-28.320,-31.738,-32.227,0.000
1714024747.897,-25.879,-28.809,-35.156,-32.227,0.000
1714024747.901,-22.949,-26.855,-27.832,-26.855,0.000
1714024747.905,-20.020,-26.855,-29.297,-23.438,0.000
1714024747.909,-23.438,-31.738,-28.320,-20.996,0.000
1714024747.913,-23.926,-34.668,-24.414,-19.043,0.000
1714024747.916,-20.996,-32.227,-20.508,-24.902,0.000
1714024747.920,-18.555,-30.273,-21.973,-26.855,0.000
1714024747.924,-22.949,-31.250,-29.297,-27.344,0.000
1714024747.928,-24.902,-26.367,-25.391,-31.738,0.000
1714024747.932,-22.461,-23.926,-22.949,-35.645,0.000
1714024747.936,-12.207,-21.973,-27.832,-23.926,0.000
1714024747.940,-16.113,-20.020,-24.414,-16.113,0.000
1714024747.944,-27.832,-24.414,-13.672,-20.508,0.000
1714024747.948,-32.715,-25.879,-10.742,-27.344,0.000
1714024747.952,-30.273,-23.438,-14.648,-31.250,0.000
1714024747.956,-27.344,-27.344,-6.348,-19.043,0.000
1714024747.959,-29.297,-28.320,-0.977,-11.719,0.000
1714024747.963,-27.344,-27.832,-15.137,-26.367,0.000
1714024747.967,-32.227,-32.715,-21.973,-37.598,0.000
1714024747.971,-29.785,-32.227,-12.207,-36.133,0.000
1714024747.975,-31.250,-32.227,-10.742,-33.203,0.000
1714024747.979,-32.227,-27.832,-8.789,-25.879,0.000
1714024747.983,-23.438,-23.926,-11.230,-24.414,0.000
1714024747.987,-24.414,-25.391,-10.254,-32.715,0.000
1714024747.990,-25.879,-22.461,-9.766,-31.738,0.000
1714024747.994,-24.414,-24.414,-20.020,-26.367,0.000
1714024747.998,-28.809,-27.832,-19.531,-30.273,0.000
1714024748.002,-31.250,-31.738,-18.555,-27.344,0.000
1714024748.006,-30.273,-30.762,-17.578,-23.438,0.000
1714024748.010,-33.203,-24.902,-17.090,-27.344,0.000
1714024748.014,-30.762,-21.484,-17.578,-32.227,0.000
1714024748.018,-28.809,-25.391,-10.254,-31.738,0.000
1714024748.021,-33.203,-32.227,-10.742,-32.227,0.000
1714024748.025,-32.715,-32.227,-17.090,-35.156,0.000
1714024748.029,-27.832,-27.344,-20.996,-31.250,0.000
1714024748.033,-28.809,-29.785,-18.555,-32.227,0.000
1714024748.037,-27.344,-32.715,-19.531,-30.273,0.000
1714024748.041,-19.531,-28.320,-18.066,-26.855,0.000
1714024748.045,-19.043,-28.320,-17.578,-28.809,0.000
1714024748.049,-21.973,-25.879,-14.160,-27.344,0.000
1714024748.052,-27.832,-27.344,-8.301,-31.250,0.000
1714024748.056,-27.832,-32.227,-10.254,-29.297,0.000
1714024748.060,-24.414,-29.785,-20.996,-29.785,0.000
1714024748.064,-25.391,-30.273,-32.715,-32.715,0.000
1714024748.067,-28.320,-29.297,-31.738,-33.691,0.000
1714024748.071,-26.855,-25.391,-27.832,-30.273,0.000
1714024748.075,-19.531,-22.949,-22.461,-23.926,0.000
1714024748.079,-19.531,-22.949,-18.066,-24.414,0.000
1714024748.083,-26.855,-21.973,-20.508,-28.320,0.000
1714024748.087,-30.762,-26.367,-20.508,-32.715,0.000
1714024748.091,-20.020,-25.391,-16.113,-30.762,0.000
1714024748.095,-10.742,-19.531,-12.207,-35.156,0.000
1714024748.099,-13.672,-23.926,-13.184,-43.945,0.000
1714024748.103,-14.160,-27.832,-20.508,-44.922,0.000
1714024748.106,-13.184,-30.762,-25.879,-48.828,0.000
1714024748.110,-18.066,-27.344,-23.926,-51.758,0.000
1714024748.113,-26.367,-25.879,-20.508,-47.852,0.000
1714024748.117,-27.344,-27.344,-26.367,-37.109,0.000
1714024748.121,-31.250,-23.438,-28.809,-35.645,0.000
1714024748.125,-32.715,-22.461,-27.344,-40.039,0.000
1714024748.129,-28.809,-22.461,-20.996,-37.598,0.000
1714024748.133,-27.344,-20.996,-19.043,-31.738,0.000
1714024748.137,-29.297,-20.508,-22.461,-29.297,0.000
1714024748.141,-37.598,-20.508,-22.461,-43.945,0.000
1714024748.145,-41.992,-21.484,-29.785,-51.758,0.000
1714024748.149,-41.992,-20.996,-34.668,-41.992,0.000
1714024748.152,-46.875,-24.414,-30.762,-35.156,0.000
1714024748.156,-43.945,-29.785,-27.344,-34.180,0.000
1714024748.161,-34.668,-29.297,-25.879,-32.715,0.000
1714024748.165,-29.297,-24.414,-20.996,-30.762,0.000
1714024748.169,-26.367,-23.926,-17.578,-35.156,0.000
1714024748.173,-22.461,-23.438,-12.695,-34.668,0.000
1714024748.177,-24.414,-21.973,-16.113,-37.109,0.000
1714024748.181,-30.273,-23.438,-28.320,-37.109,0.000
1714024748.185,-30.762,-23.926,-30.273,-34.668,0.000
1714024748.189,-26.367,-22.461,-27.832,-40.527,0.000
1714024748.193,-23.438,-23.926,-27.832,-43.457,0.000
1714024748.197,-28.809,-28.809,-30.273,-45.410,0.000
1714024748.200,-30.762,-30.273,-26.855,-45.898,0.000
1714024748.204,-27.344,-26.855,-22.461,-43.457,0.000
1714024748.209,-25.391,-24.902,-23.438,-45.410,0.000
1714024748.213,-28.809,-25.391,-20.996,-46.387,0.000
1714024748.217,-30.273,-25.391,-19.531,-41.504,0.000
1714024748.221,-27.344,-27.344,-20.020,-36.621,0.000
1714024748.224,-30.762,-31.250,-17.578,-32.715,0.000
1714024748.228,-32.227,-31.250,-17.090,-40.039,0.000
1714024748.232,-34.180,-25.879,-20.020,-44.922,0.000
1714024748.236,-31.250,-24.414,-23.926,-35.645,0.000
1714024748.240,-29.785,-27.832,-25.879,-28.809,0.000
1714024748.244,-37.598,-30.762,-26.367,-27.832,0.000
1714024748.248,-38.574,-27.344,-24.414,-36.621,0.000
1714024748.252,-38.574,-30.762,-23.926,-33.691,0.000
1714024748.256,-39.551,-34.668,-26.367,-23.438,0.000
1714024748.260,-38.086,-29.785,-27.344,-29.297,0.000
1714024748.264,-37.109,-22.949,-28.320,-35.645,0.000
1714024748.268,-34.180,-23.926,-32.227,-34.668,0.000
1714024748.272,-26.855,-31.250,-28.809,-27.832,0.000
1714024748.276,-26.367,-31.738,-23.926,-29.297,0.000
1714024748.280,-30.762,-29.297,-23.926,-34.668,0.000
1714024748.283,-34.180,-30.273,-24.902,-33.203,0.000
1714024748.287,-36.133,-37.598,-21.484,-28.320,0.000
1714024748.291,-42.969,-42.969,-17.578,-28.320,0.000
1714024748.295,-36.621,-36.133,-20.996,-22.949,0.000
1714024748.299,-28.809,-34.180,-28.320,-27.344,0.000
1714024748.303,-36.621,-34.180,-31.738,-41.992,0.000
1714024748.307,-38.086,-31.738,-26.367,-45.898,0.000
1714024748.311,-26.367,-26.855,-31.250,-41.016,0.000
1714024748.315,-23.438,-21.973,-38.574,-47.363,0.000
1714024748.319,-30.273,-24.902,-26.367,-55.664,0.000
1714024748.323,-33.203,-27.344,-28.320,-50.293,0.000
1714024748.327,-33.203,-25.879,-31.250,-45.898,0.000
1714024748.330,-35.645,-26.367,-32.227,-44.434,0.000
1714024748.334,-34.668,-27.832,-30.762,-41.504,0.000
1714024748.338,-37.598,-25.391,-27.832,-45.898,0.000
1714024748.342,-37.598,-25.879,-32.715,-48.340,0.000
1714024748.346,-36.621,-24.414,-31.738,-48.828,0.000
1714024748.350,-36.133,-20.020,-28.320,-51.270,0.000
1714024748.354,-28.809,-19.043,-23.438,-39.551,0.000
1714024748.358,-27.344,-23.438,-24.902,-28.320,0.000
1714024748.361,-28.809,-23.926,-24.414,-36.133,0.000
1714024748.365,-32.227,-20.508,-22.461,-40.039,0.000
1714024748.369,-28.320,-21.973,-30.273,-34.180,0.000
1714024748.373,-25.391,-25.391,-34.668,-33.691,0.000
1714024748.377,-33.203,-27.832,-31.738,-34.668,0.000
1714024748.381,-37.598,-30.273,-31.250,-40.527,0.000
1714024748.385,-37.109,-31.738,-33.691,-42.480,0.000
1714024748.389,-33.691,-32.227,-34.668,-34.180,0.000
1714024748.393,-33.203,-32.715,-30.273,-30.273,0.000
1714024748.396,-29.785,-29.785,-31.250,-31.738,0.000
1714024748.400,-26.367,-31.250,-34.668,-28.320,0.000
1714024748.404,-26.367,-31.250,-27.344,-23.926,0.000
1714024748.408,-28.809,-32.227,-23.438,-25.391,0.000
1714024748.412,-34.180,-39.062,-28.320,-27.344,0.000
1714024748.416,-32.227,-40.039,-26.855,-30.273,0.000
1714024748.420,-27.344,-36.133,-27.344,-24.414,0.000
1714024748.423,-34.180,-37.109,-31.250,-19.531,0.000
1714024748.427,-37.109,-33.203,-26.855,-27.344,0.000
1714024748.431,-37.598,-26.855,-30.762,-34.668,0.000
1714024748.435,-37.598,-25.879,-32.715,-34.668,0.000
1714024748.439,-34.180,-25.391,-33.691,-27.344,0.000
1714024748.442,-37.598,-28.809,-41.016,-29.785,0.000
1714024748.446,-34.180,-27.832,-42.480,-32.715,0.000
1714024748.450,-33.203,-26.855,-38.574,-30.762,0.000
1714024748.454,-39.551,-31.250,-32.715,-34.668,0.000
1714024748.458,-34.180,-31.250,-31.738,-29.297,0.000
1714024748.462,-24.414,-30.762,-32.227,-21.973,0.000
1714024748.466,-28.809,-35.156,-31.250,-24.902,0.000
1714024748.470,-24.414,-31.250,-25.391,-20.020,0.000
1714024748.474,-20.996,-28.809,-21.484,-17.090,0.000
1714024748.478,-25.879,-32.227,-25.391,-25.391,0.000
1714024748.481,-24.902,-32.715,-28.809,-32.715,0.000
1714024748.485,-21.484,-31.738,-29.297,-30.762,0.000
1714024748.488,-21.484,-29.297,-34.180,-28.809,0.000
1714024748.492,-20.996,-28.809,-36.621,-28.809,0.000
1714024748.496,-19.531,-23.438,-34.180,-30.762,0.000
1714024748.500,-21.484,-22.461,-36.133,-31.250,0.000
1714024748.504,-18.555,-23.438,-34.180,-25.391,0.000
1714024748.508,-11.719,-22.949,-26.855,-21.973,0.000
1714024748.512,-16.602,-26.855,-27.832,-28.809,0.000
1714024748.516,-25.391,-22.461,-29.785,-43.457,0.000
1714024748.520,-27.344,-20.020,-26.855,-44.922,0.000
1714024748.524,-23.926,-23.438,-28.320,-37.109,0.000
1714024748.528,-24.414,-25.879,-26.855,-36.133,0.000
1714024748.531,-32.227,-27.344,-20.508,-42.480,0.000
1714024748.536,-31.738,-28.320,-20.508,-38.574,0.000
1714024748.540,-30.762,-29.297,-28.320,-39.062,0.000
1714024748.544,-32.715,-34.180,-32.227,-42.969,0.000
1714024748.548,-23.926,-31.250,-35.156,-37.598,0.000
1714024748.552,-17.578,-22.949,-37.598,-28.320,0.000
1714024748.556,-15.625,-25.391,-36.621,-24.414,0.000
1714024748.560,-21.484,-27.344,-33.203,-30.762,0.000
1714024748.564,-23.438,-22.461,-36.133,-39.551,0.000
1714024748.568,-19.531,-19.043,-35.156,-38.574,0.000
1714024748.571,-24.414,-21.484,-24.902,-35.156,0.000
1714024748.575,-23.438,-23.926,-25.879,-35.645,0.000
1714024748.579,-22.461,-26.855,-24.902,-34.180,0.000
1714024748.584,-26.367,-28.809,-23.438,-29.785,0.000
1714024748.588,-25.391,-33.203,-33.203,-34.668,0.000
1714024748.592,-24.414,-34.668,-28.320,-36.133,0.000
1714024748.596,-24.414,-30.762,-17.578,-37.598,0.000
1714024748.599,-25.391,-27.832,-15.625,-41.504,0.000
1714024748.603,-23.926,-22.461,-12.695,-36.621,0.000
1714024748.607,-23.926,-20.508,-13.672,-31.738,0.000
1714024748.611,-23.926,-16.602,-18.555,-33.203,0.000
1714024748.615,-23.926,-21.973,-27.344,-32.715,0.000
1714024748.619,-25.391,-26.367,-29.297,-31.250,0.000
1714024748.623,-25.391,-20.020,-25.879,-30.762,0.000
1714024748.627,-22.949,-18.066,-22.949,-29.785,0.000
1714024748.631,-18.066,-18.066,-14.648,-31.250,0.000
1714024748.635,-20.996,-18.555,-14.160,-27.344,0.000
1714024748.639,-25.391,-22.461,-22.461,-27.344,0.000
1714024748.643,-22.461,-23.438,-24.902,-26.367,0.000
1714024748.647,-27.832,-25.879,-25.879,-30.762,0.000
1714024748.651,-37.109,-30.273,-22.461,-30.273,0.000
1714024748.654,-38.574,-24.902,-22.949,-29.297,0.000
1714024748.658,-33.691,-21.973,-21.973,-35.156,0.000
1714024748.662,-38.574,-24.414,-22.461,-38.086,0.000
1714024748.666,-39.551,-24.414,-22.461,-35.645,0.000
1714024748.670,-32.715,-27.832,-12.695,-32.227,0.000
1714024748.674,-35.156,-31.250,-15.625,-29.297,0.000
1714024748.678,-33.203,-24.902,-18.066,-29.785,0.000
1714024748.682,-32.227,-22.461,-16.113,-32.227,0.000
1714024748.686,-33.691,-25.879,-20.996,-28.809,0.000
1714024748.690,-36.133,-31.250,-24.414,-31.250,0.000
1714024748.694,-31.738,-29.297,-21.973,-37.109,0.000
1714024748.697,-32.715,-29.297,-23.438,-44.434,0.000
1714024748.701,-40.527,-33.203,-20.020,-45.898,0.000
1714024748.705,-41.016,-33.203,-22.949,-35.156,0.000
1714024748.709,-41.992,-38.574,-29.785,-33.691,0.000
1714024748.713,-43.945,-32.715,-25.879,-41.504,0.000
1714024748.717,-48.828,-26.855,-22.461,-46.387,0.000
1714024748.721,-42.969,-20.020,-16.113,-32.227,0.000
1714024748.726,-32.715,-7.812,-13.184,-25.391,0.000
1714024748.730,-28.320,-9.766,-7.324,-34.668,0.000
1714024748.734,-33.203,-11.230,-10.742,-42.969,0.000
1714024748.738,-44.922,-18.555,-28.320,-53.223,0.000
1714024748.742,-53.223,-26.855,-28.320,-64.941,0.000
1714024748.746,-54.688,-22.461,-22.461,-74.707,0.000
1714024748.750,-53.223,-15.625,-12.695,-83.008,0.000
1714024748.754,-59.082,-17.578,-7.812,-85.449,0.000
1714024748.758,-81.543,-25.391,-5.859,-104.004,0.000
1714024748.762,-104.004,-23.926,-0.977,-126.465,0.000
1714024748.765,-119.141,-22.461,-5.859,-135.742,0.000
1714024748.769,-133.301,-21.973,-0.977,-138.184,0.000
1714024748.773,-147.949,-29.785,5.371,-139.160,0.000
1714024748.777,-151.855,-30.273,5.859,-138.672,0.000
1714024748.780,-150.391,-26.855,14.648,-143.555,0.000
1714024748.784,-149.414,-26.367,20.996,-145.020,0.000
1714024748.788,-138.184,-23.926,23.438,-133.301,0.000
1714024748.792,-131.836,-28.809,20.020,-133.301,0.000
1714024748.796,-132.812,-32.227,14.648,-130.859,0.000
1714024748.800,-121.582,-31.250,12.207,-115.234,0.000
1714024748.804,-108.398,-27.344,12.695,-109.375,0.000
1714024748.808,-100.586,-35.156,11.230,-98.633,0.000
1714024748.812,-86.426,-47.363,5.371,-78.613,0.000
1714024748.816,-71.777,-42.969,1.465,-71.777,0.000
1714024748.821,-75.195,-34.180,-5.371,-89.355,0.000
1714024748.824,-67.383,-34.180,-10.254,-79.102,0.000
1714024748.828,-46.387,-33.691,-13.672,-56.152,0.000
1714024748.832,-50.781,-30.273,-24.902,-62.012,0.000
1714024748.836,-43.457,-32.227,-30.762,-57.129,0.000
1714024748.840,-23.926,-34.180,-34.180,-39.551,0.000
1714024748.844,-21.484,-36.133,-43.457,-32.715,0.000
1714024748.848,-16.602,-35.156,-40.039,-28.809,0.000
1714024748.852,-9.277,-27.832,-33.691,-25.391,0.000
1714024748.856,-0.488,-23.926,-32.715,-19.043,0.000
1714024748.860,1.953,-25.879,-33.691,-16.602,0.000
1714024748.864,3.418,-27.344,-35.645,-10.742,0.000
1714024748.866,4.395,-31.250,-36.621,-10.254,0.000
1714024748.870,0.488,-39.551,-38.574,-4.395,0.000
1714024748.874,2.441,-38.086,-42.480,6.348,0.000
1714024748.878,3.906,-28.809,-42.969,5.371,0.000
1714024748.882,6.836,-28.320,-42.969,-0.977,0.000
1714024748.886,7.812,-27.344,-45.410,4.395,0.000
1714024748.890,10.742,-23.438,-41.504,13.184,0.000
1714024748.894,16.602,-24.902,-40.527,7.812,0.000
1714024748.897,12.207,-31.250,-40.527,-0.488,0.000
1714024748.901,7.324,-36.621,-41.504,5.371,0.000
1714024748.905,11.719,-32.715,-42.480,11.230,0.000
1714024748.909,12.695,-29.785,-43.457,0.488,0.000
1714024748.916,4.883,-27.832,-49.805,-7.812,0.000
1714024748.920,2.441,-20.996,-41.992,-2.441,0.000
1714024748.924,4.395,-16.113,-35.156,4.883,0.000
1714024748.927,-0.488,-17.090,-40.039,2.441,0.000
1714024748.931,-3.418,-26.367,-41.504,-4.883,0.000
1714024748.935,5.371,-25.879,-39.062,0.977,0.000
1714024748.939,4.883,-23.438,-40.527,-1.465,0.000
1714024748.943,-2.930,-26.855,-44.434,-7.812,0.000
1714024748.947,-2.441,-25.391,-46.387,-3.906,0.000
1714024748.951,-6.836,-24.902,-46.387,-4.395,0.000
1714024748.955,-6.836,-26.855,-44.434,-5.859,0.000
1714024748.959,-4.395,-28.320,-44.434,-5.859,0.000
1714024748.963,-5.371,-32.227,-47.852,-10.742,0.000
1714024748.967,-4.883,-30.273,-48.828,-13.672,0.000
1714024748.971,-7.324,-25.391,-43.945,-7.812,0.000
1714024748.974,-5.859,-24.414,-42.480,0.000,0.000
1714024748.978,-5.859,-25.391,-43.945,-2.441,0.000
1714024748.982,-6.348,-30.273,-39.551,-13.184,0.000
1714024748.986,-12.207,-31.738,-37.109,-17.090,0.000
1714024748.990,-10.254,-25.879,-38.574,-14.648,0.000
1714024748.994,-7.324,-28.809,-35.156,-17.578,0.000
1714024748.998,-11.719,-30.273,-32.715,-24.414,0.000
1714024749.002,-8.301,-31.738,-30.273,-25.879,0.000
1714024749.006,-10.254,-38.086,-32.227,-37.598,0.000
1714024749.009,-18.066,-36.621,-36.133,-26.855,0.000
1714024749.013,-20.996,-30.762,-40.527,-18.555,0.000
1714024749.017,-17.578,-24.414,-34.180,-31.738,0.000
1714024749.021,-13.184,-24.902,-31.738,-30.273,0.000
1714024749.025,-14.648,-28.809,-33.691,-27.344,0.000
1714024749.029,-17.090,-27.832,-36.133,-28.320,0.000
1714024749.033,-19.043,-31.738,-30.273,-22.949,0.000
1714024749.037,-15.137,-32.227,-25.879,-17.578,0.000
1714024749.041,-12.695,-34.668,-29.297,-17.578,0.000
1714024749.045,-12.695,-32.715,-26.367,-15.137,0.000
1714024749.049,-13.672,-25.391,-33.691,-21.484,0.000
1714024749.052,-11.719,-23.438,-38.574,-28.809,0.000
1714024749.056,-12.695,-23.926,-31.250,-26.855,0.000
1714024749.060,-15.137,-21.973,-30.762,-23.926,0.000
1714024749.064,-13.184,-25.879,-30.273,-26.367,0.000
1714024749.068,-17.090,-32.227,-27.344,-31.250,0.000
1714024749.072,-22.461,-25.391,-29.297,-31.738,0.000
1714024749.075,-23.438,-21.484,-28.320,-30.273,0.000
1714024749.079,-23.926,-23.926,-28.320,-27.344,0.000
1714024749.083,-24.414,-28.809,-32.227,-25.391,0.000
1714024749.087,-17.578,-26.367,-31.738,-22.949,0.000
1714024749.091,-15.137,-21.973,-26.367,-25.391,0.000
1714024749.095,-14.648,-26.855,-19.531,-22.461,0.000
1714024749.099,-12.695,-28.320,-19.043,-20.996,0.000
1714024749.102,-15.625,-23.438,-22.949,-19.043,0.000
1714024749.106,-20.508,-23.926,-26.855,-22.461,0.000
1714024749.110,-25.391,-28.809,-23.926,-24.414,0.000
1714024749.114,-19.043,-26.367,-26.855,-28.809,0.000
1714024749.118,-14.160,-23.926,-34.668,-32.227,0.000
1714024749.122,-20.508,-22.461,-34.180,-35.645,0.000
1714024749.126,-20.996,-23.926,-35.156,-31.250,0.000
1714024749.130,-20.020,-33.203,-39.062,-20.996,0.000
1714024749.133,-22.949,-30.762,-36.133,-26.855,0.000
1714024749.137,-26.855,-25.391,-32.227,-28.809,0.000
1714024749.141,-24.902,-23.926,-36.133,-21.484,0.000
1714024749.145,-19.043,-19.043,-30.273,-18.066,0.000
1714024749.148,-19.043,-17.578,-20.996,-17.578,0.000
1714024749.152,-17.578,-25.391,-23.438,-19.043,0.000
1714024749.156,-20.508,-31.250,-31.738,-22.949,0.000
1714024749.160,-25.391,-27.344,-30.762,-23.438,0.000
1714024749.164,-30.762,-24.902,-27.344,-30.273,0.000
1714024749.168,-31.738,-25.391,-29.785,-35.645,0.000
1714024749.172,-29.785,-29.785,-32.715,-28.809,0.000
1714024749.176,-30.762,-36.133,-29.785,-22.461,0.000
1714024749.180,-29.297,-32.227,-25.879,-34.668,0.000
1714024749.184,-25.391,-27.832,-28.809,-36.133,0.000
1714024749.188,-24.902,-31.738,-31.250,-25.879,0.000
1714024749.191,-24.414,-31.738,-27.344,-21.973,0.000
1714024749.195,-21.484,-27.832,-27.344,-22.461,0.000
1714024749.198,-23.438,-24.414,-36.133,-28.320,0.000
1714024749.202,-27.344,-24.902,-33.691,-30.762,0.000
1714024749.206,-21.973,-23.438,-21.484,-30.273,0.000
1714024749.210,-20.020,-21.973,-20.508,-32.715,0.000
1714024749.214,-20.996,-23.926,-27.832,-31.738,0.000
1714024749.218,-20.996,-26.367,-31.250,-27.344,0.000
1714024749.222,-26.855,-25.879,-28.809,-23.926,0.000
1714024749.226,-27.344,-27.344,-26.367,-25.879,0.000
1714024749.230,-22.949,-31.250,-31.738,-27.344,0.000
1714024749.234,-28.320,-26.855,-34.180,-33.691,0.000
1714024749.237,-33.203,-21.973,-25.879,-38.086,0.000
1714024749.240,-27.344,-23.926,-22.949,-29.297,0.000
1714024749.244,-23.926,-30.762,-21.973,-27.344,0.000
1714024749.248,-28.809,-27.832,-17.578,-34.180,0.000
1714024749.252,-34.180,-21.973,-20.508,-38.086,0.000
1714024749.256,-33.691,-29.297,-30.273,-42.969,0.000
1714024749.260,-33.691,-36.133,-35.645,-38.574,0.000
1714024749.264,-35.156,-38.574,-37.598,-37.109,0.000
1714024749.268,-35.645,-33.691,-29.785,-41.992,0.000
1714024749.272,-39.062,-28.809,-25.391,-44.434,0.000
1714024749.275,-35.645,-32.715,-34.180,-37.109,0.000
1714024749.279,-29.785,-34.180,-28.320,-32.227,0.000
1714024749.283,-31.738,-34.180,-23.438,-42.480,0.000
1714024749.288,-31.738,-36.133,-34.668,-40.039,0.000
1714024749.292,-32.715,-37.109,-31.250,-35.156,0.000
1714024749.296,-32.715,-31.738,-22.461,-35.156,0.000
1714024749.300,-27.832,-21.484,-25.391,-40.527,0.000
1714024749.304,-25.391,-26.367,-28.809,-37.109,0.000
1714024749.308,-18.555,-32.227,-28.809,-27.344,0.000
1714024749.311,-19.531,-31.738,-29.297,-36.133,0.000
1714024749.315,-22.461,-30.273,-27.832,-38.574,0.000
1714024749.319,-19.043,-26.367,-28.320,-35.645,0.000
1714024749.323,-23.438,-27.344,-29.785,-37.598,0.000
1714024749.327,-24.414,-24.902,-26.855,-37.109,0.000
1714024749.331,-25.391,-18.066,-26.367,-32.227,0.000
1714024749.335,-28.320,-22.949,-25.879,-29.297,0.000
1714024749.339,-28.809,-22.949,-28.809,-34.668,0.000
1714024749.343,-31.250,-25.391,-28.320,-40.039,0.000
1714024749.347,-30.273,-29.297,-26.855,-45.410,0.000
1714024749.351,-21.973,-21.973,-21.973,-38.574,0.000
1714024749.355,-16.113,-21.484,-19.531,-30.762,0.000
1714024749.359,-19.043,-21.973,-20.020,-37.109,0.000
1714024749.363,-18.555,-18.555,-17.578,-44.434,0.000
1714024749.367,-14.648,-20.020,-20.996,-37.109,0.000
1714024749.370,-12.207,-21.484,-22.949,-38.086,0.000
1714024749.374,-4.883,-18.066,-19.531,-42.480,0.000
1714024749.378,1.465,-16.602,-16.113,-39.062,0.000
1714024749.382,-5.371,-17.578,-15.137,-48.340,0.000
1714024749.386,-22.461,-22.949,-17.578,-60.059,0.000
1714024749.390,-26.855,-23.438,-19.531,-54.688,0.000
1714024749.394,-27.344,-23.926,-18.555,-40.039,0.000
1714024749.398,-31.250,-27.344,-23.438,-38.574,0.000
1714024749.402,-31.250,-28.809,-25.391,-43.457,0.000
1714024749.406,-36.133,-30.273,-24.414,-42.480,0.000
1714024749.410,-38.574,-30.273,-28.320,-44.922,0.000
1714024749.414,-32.715,-29.297,-25.391,-43.945,0.000
1714024749.417,-34.668,-31.250,-17.578,-42.969,0.000
1714024749.421,-39.062,-37.598,-22.461,-44.922,0.000
1714024749.425,-41.016,-34.668,-29.785,-38.086,0.000
1714024749.429,-35.156,-30.273,-28.809,-40.039,0.000
1714024749.433,-31.738,-31.738,-25.879,-47.852,0.000
1714024749.437,-28.320,-31.250,-26.855,-41.992,0.000
1714024749.441,-25.879,-27.344,-25.879,-30.762,0.000
1714024749.445,-31.738,-27.832,-25.879,-31.250,0.000
1714024749.449,-30.273,-29.297,-29.785,-32.227,0.000
1714024749.453,-29.785,-27.832,-37.109,-35.156,0.000
1714024749.457,-33.203,-30.762,-37.598,-31.738,0.000
1714024749.460,-34.180,-28.320,-29.297,-28.320,0.000
1714024749.464,-33.691,-24.902,-27.344,-36.621,0.000
1714024749.468,-30.762,-21.484,-27.832,-34.180,0.000
1714024749.472,-27.832,-20.020,-22.461,-28.809,0.000
1714024749.476,-32.715,-24.902,-22.949,-37.109,0.000
1714024749.480,-36.133,-28.809,-27.832,-44.434,0.000
1714024749.483,-32.227,-27.832,-32.715,-39.062,0.000
1714024749.487,-30.273,-26.367,-33.203,-38.086,0.000
1714024749.491,-28.320,-26.367,-28.809,-33.203,0.000
1714024749.495,-23.926,-28.320,-26.367,-30.273,0.000
1714024749.499,-26.367,-32.227,-26.855,-34.180,0.000
1714024749.503,-28.809,-27.832,-24.414,-28.320,0.000
1714024749.507,-24.414,-21.973,-19.531,-23.438,0.000
1714024749.511,-23.438,-24.414,-20.020,-30.273,0.000
1714024749.515,-22.949,-27.344,-24.414,-35.645,0.000
1714024749.519,-20.020,-27.344,-26.367,-29.297,0.000
1714024749.522,-20.996,-23.926,-27.344,-23.438,0.000
1714024749.526,-23.926,-21.973,-25.879,-28.809,0.000
1714024749.530,-22.949,-24.902,-20.508,-32.715,0.000
1714024749.534,-22.461,-21.973,-20.996,-35.645,0.000
1714024749.538,-25.391,-23.438,-28.320,-34.668,0.000
1714024749.541,-28.320,-38.086,-28.809,-35.645,0.000
1714024749.545,-26.855,-41.016,-29.297,-28.809,0.000
1714024749.549,-29.785,-34.668,-27.344,-26.855,0.000
1714024749.553,-27.344,-25.879,-21.484,-33.691,0.000
1714024749.557,-17.090,-16.602,-21.973,-21.973,0.000
1714024749.561,-17.578,-18.066,-23.438,-19.043,0.000
1714024749.565,-20.996,-20.996,-25.879,-31.738,0.000
1714024749.568,-19.531,-23.926,-31.250,-33.203,0.000
1714024749.572,-23.926,-24.414,-28.809,-29.785,0.000
1714024749.576,-21.973,-19.531,-25.879,-27.832,0.000
1714024749.580,-16.602,-17.578,-29.785,-28.320,0.000
1714024749.584,-23.438,-19.043,-31.250,-34.668,0.000
1714024749.588,-31.250,-25.879,-28.809,-34.668,0.000
1714024749.592,-23.438,-25.879,-27.832,-25.879,0.000
1714024749.595,-20.020,-20.508,-28.320,-28.809,0.000
1714024749.599,-25.879,-24.902,-28.809,-37.109,0.000
1714024749.603,-22.461,-25.391,-26.855,-29.785,0.000
1714024749.607,-21.484,-20.020,-23.926,-30.273,0.000
1714024749.611,-27.832,-24.414,-23.926,-39.062,0.000
1714024749.614,-27.832,-26.855,-23.926,-43.945,0.000
1714024749.618,-29.297,-29.297,-29.785,-41.016,0.000
1714024749.622,-25.879,-27.344,-30.762,-30.762,0.000
1714024749.626,-21.973,-23.926,-22.461,-31.738,0.000
1714024749.630,-25.879,-25.391,-19.043,-39.551,0.000
1714024749.634,-30.273,-28.809,-26.855,-34.180,0.000
1714024749.638,-36.133,-34.668,-33.691,-33.203,0.000
1714024749.642,-35.645,-30.762,-30.762,-40.039,0.000
1714024749.645,-29.297,-27.344,-27.832,-37.598,0.000
1714024749.649,-28.320,-22.949,-23.926,-39.551,0.000
1714024749.653,-30.273,-23.926,-20.020,-39.062,0.000
1714024749.657,-27.344,-26.367,-20.508,-40.527,0.000
1714024749.662,-29.297,-23.926,-20.020,-45.898,0.000
1714024749.666,-30.762,-22.949,-18.555,-41.016,0.000
1714024749.670,-29.785,-24.902,-24.902,-35.645,0.000
1714024749.674,-27.832,-28.320,-24.902,-32.715,0.000
1714024749.678,-23.438,-29.785,-21.973,-35.156,0.000
1714024749.681,-28.809,-30.762,-27.832,-42.969,0.000
1714024749.685,-34.668,-33.203,-24.902,-44.434,0.000
1714024749.689,-31.738,-28.809,-29.297,-37.598,0.000
1714024749.693,-24.902,-21.484,-36.621,-30.273,0.000
1714024749.697,-26.367,-29.785,-29.297,-30.273,0.000
1714024749.701,-31.738,-25.879,-23.926,-35.156,0.000
1714024749.705,-32.715,-20.508,-24.902,-33.691,0.000
1714024749.709,-36.133,-25.391,-26.367,-34.180,0.000
1714024749.713,-33.203,-23.926,-28.809,-34.180,0.000
1714024749.717,-31.738,-24.902,-29.785,-31.250,0.000
1714024749.721,-30.762,-30.273,-34.180,-31.738,0.000
1714024749.725,-25.879,-34.668,-30.762,-30.762,0.000
1714024749.729,-28.809,-32.227,-23.438,-29.785,0.000
1714024749.733,-32.227,-26.367,-25.391,-40.039,0.000
1714024749.737,-31.738,-27.344,-27.344,-48.340,0.000
1714024749.741,-25.879,-29.785,-22.461,-32.715,0.000
1714024749.745,-22.461,-22.949,-19.531,-25.391,0.000
1714024749.749,-30.273,-20.996,-28.809,-45.410,0.000
1714024749.752,-35.156,-28.809,-40.527,-45.898,0.000
1714024749.757,-34.180,-31.250,-36.621,-35.645,0.000
1714024749.761,-35.645,-30.762,-31.250,-39.062,0.000
1714024749.764,-41.992,-33.691,-33.691,-42.480,0.000
1714024749.768,-42.480,-35.645,-36.133,-41.992,0.000
1714024749.772,-38.086,-38.086,-26.855,-39.062,0.000
1714024749.776,-35.156,-39.551,-19.531,-40.527,0.000
1714024749.780,-36.133,-41.992,-22.949,-42.480,0.000
1714024749.784,-37.109,-40.527,-31.250,-43.945,0.000
1714024749.788,-29.297,-36.133,-36.133,-36.133,0.000
1714024749.792,-26.855,-32.715,-31.738,-31.250,0.000
1714024749.796,-27.344,-32.227,-22.461,-36.621,0.000
1714024749.800,-26.855,-33.691,-23.926,-36.621,0.000
1714024749.803,-24.902,-32.227,-23.926,-39.062,0.000
1714024749.807,-28.320,-35.156,-20.996,-43.945,0.000
1714024749.811,-23.438,-32.227,-20.508,-39.551,0.000
1714024749.815,-17.578,-26.855,-19.531,-39.551,0.000
1714024749.819,-26.855,-26.855,-23.438,-37.109,0.000
1714024749.823,-34.180,-30.762,-30.273,-29.297,0.000
1714024749.827,-30.762,-31.738,-37.109,-27.832,0.000
1714024749.831,-23.438,-32.227,-35.645,-29.785,0.000
1714024749.835,-25.391,-34.180,-28.809,-29.785,0.000
1714024749.839,-26.367,-28.809,-26.855,-31.250,0.000
1714024749.842,-20.020,-27.344,-30.273,-29.297,0.000
1714024749.846,-20.508,-28.320,-33.691,-31.738,0.000
1714024749.850,-19.531,-28.320,-37.598,-37.598,0.000
1714024749.854,-20.020,-30.762,-34.668,-34.180,0.000
1714024749.858,-22.949,-35.156,-34.180,-35.645,0.000
1714024749.862,-20.020,-34.180,-29.297,-32.715,0.000
1714024749.866,-23.438,-34.668,-25.879,-28.809,0.000
1714024749.869,-29.785,-31.738,-32.715,-37.598,0.000
1714024749.873,-26.367,-23.438,-28.809,-36.621,0.000
1714024749.877,-24.902,-26.367,-29.785,-25.879,0.000
1714024749.881,-29.297,-28.809,-26.367,-31.250,0.000
1714024749.885,-31.738,-30.273,-16.602,-33.203,0.000
1714024749.889,-30.273,-32.227,-19.531,-22.461,0.000
1714024749.893,-31.250,-29.785,-20.996,-31.738,0.000
1714024749.896,-34.180,-30.762,-22.949,-42.480,0.000
1714024749.900,-32.715,-30.273,-27.344,-40.527,0.000
1714024749.904,-32.715,-32.715,-28.809,-43.945,0.000
1714024749.908,-31.250,-34.668,-23.926,-41.504,0.000
1714024749.912,-23.438,-31.250,-18.555,-29.297,0.000
1714024749.916,-20.508,-29.297,-27.344,-28.809,0.000
1714024749.920,-25.391,-33.203,-33.203,-26.855,0.000
1714024749.924,-24.414,-33.203,-30.762,-18.555,0.000
1714024749.928,-21.973,-25.879,-25.391,-24.414,0.000
1714024749.932,-27.832,-26.855,-21.484,-39.062,0.000
1714024749.935,-27.344,-28.809,-20.996,-40.039,0.000
1714024749.939,-23.926,-29.297,-23.926,-32.227,0.000
1714024749.943,-28.320,-27.832,-20.020,-29.297,0.000
1714024749.947,-25.879,-25.391,-16.602,-27.832,0.000
1714024749.950,-19.531,-24.902,-20.508,-31.738,0.000
1714024749.954,-20.996,-22.461,-20.996,-31.250,0.000
1714024749.958,-19.531,-23.926,-14.648,-23.926,0.000
1714024749.962,-25.391,-30.762,-18.555,-34.668,0.000
1714024749.966,-39.551,-31.738,-30.273,-44.922,0.000
1714024749.970,-37.109,-34.668,-26.367,-37.109,0.000
1714024749.974,-29.785,-37.109,-20.996,-38.574,0.000
1714024749.978,-31.738,-33.691,-23.438,-41.992,0.000
1714024749.982,-20.996,-28.809,-22.949,-35.156,0.000
1714024749.986,-18.555,-28.809,-26.855,-40.527,0.000
1714024749.989,-21.484,-26.855,-35.645,-46.387,0.000
1714024749.993,-15.625,-25.879,-37.109,-42.969,0.000
1714024749.997,-18.555,-28.809,-29.785,-41.016,0.000
1714024750.000,-24.414,-31.250,-27.344,-37.598,0.000
1714024750.004,-32.715,-33.203,-30.762,-34.180,0.000
1714024750.008,-41.016,-39.551,-31.738,-38.574,0.000
1714024750.012,-45.898,-41.016,-29.785,-45.410,0.000
1714024750.016,-48.828,-31.250,-23.438,-45.410,0.000
1714024750.020,-52.734,-30.762,-25.879,-45.898,0.000
1714024750.024,-47.363,-29.785,-31.250,-43.945,0.000
1714024750.028,-39.551,-28.320,-28.809,-43.945,0.000
1714024750.032,-41.992,-32.227,-31.250,-49.316,0.000
1714024750.037,-41.992,-36.621,-36.621,-41.992,0.000
1714024750.040,-35.156,-31.250,-33.691,-32.715,0.000
1714024750.044,-39.062,-27.344,-33.691,-34.180,0.000
1714024750.048,-43.945,-27.832,-31.738,-37.109,0.000
1714024750.052,-45.898,-25.879,-22.461,-32.715,0.000
1714024750.056,-48.340,-26.855,-24.414,-32.227,0.000
1714024750.060,-44.434,-28.320,-25.391,-39.551,0.000
1714024750.064,-44.434,-26.855,-23.438,-38.086,0.000
1714024750.068,-39.551,-30.762,-27.832,-29.297,0.000
1714024750.072,-31.738,-34.180,-31.250,-16.602,0.000
1714024750.076,-29.297,-31.738,-28.320,-25.391,0.000
1714024750.080,-29.785,-29.785,-26.855,-40.039,0.000
1714024750.084,-30.273,-28.320,-25.391,-40.527,0.000
1714024750.088,-34.180,-30.273,-21.484,-40.527,0.000
1714024750.092,-34.668,-26.367,-21.484,-38.574,0.000
1714024750.096,-35.156,-26.367,-21.973,-37.109,0.000
1714024750.100,-36.621,-30.762,-23.438,-40.527,0.000
1714024750.103,-38.086,-31.250,-29.297,-40.527,0.000
1714024750.107,-43.457,-32.227,-37.109,-36.133,0.000
1714024750.111,-44.434,-31.250,-28.320,-38.086,0.000
1714024750.115,-40.527,-29.785,-20.508,-32.227,0.000
1714024750.119,-37.598,-26.367,-22.949,-31.738,0.000
1714024750.123,-35.645,-21.973,-19.043,-39.062,0.000
1714024750.127,-40.039,-29.297,-23.926,-38.574,0.000
1714024750.131,-43.457,-33.691,-31.250,-38.086,0.000
1714024750.135,-37.598,-26.855,-26.367,-34.180,0.000
1714024750.139,-38.086,-20.508,-15.137,-37.109,0.000
1714024750.143,-41.016,-25.391,-11.230,-38.574,0.000
1714024750.147,-38.086,-28.320,-16.602,-34.668,0.000
1714024750.151,-39.062,-21.973,-8.789,-40.527,0.000
1714024750.155,-41.992,-25.879,-8.301,-44.922,0.000
1714024750.158,-44.922,-32.227,-22.949,-43.457,0.000
1714024750.162,-54.688,-32.715,-23.438,-49.805,0.000
1714024750.166,-62.988,-34.668,-13.672,-60.547,0.000
1714024750.170,-71.289,-32.715,-5.859,-73.730,0.000
1714024750.174,-77.637,-28.320,-2.441,-77.637,0.000
1714024750.178,-86.914,-30.762,-4.395,-87.891,0.000
1714024750.182,-99.121,-37.598,-7.812,-104.980,0.000
1714024750.186,-104.492,-28.809,0.488,-110.840,0.000
1714024750.190,-111.816,-22.461,3.906,-113.770,0.000
1714024750.194,-113.281,-23.926,7.812,-120.605,0.000
1714024750.198,-117.188,-19.043,13.184,-132.324,0.000
1714024750.201,-127.930,-17.090,5.371,-139.160,0.000
1714024750.205,-135.742,-20.996,0.000,-137.695,0.000
1714024750.209,-134.277,-20.996,8.301,-131.348,0.000
1714024750.213,-135.254,-21.484,19.043,-137.695,0.000
1714024750.217,-140.137,-23.438,13.672,-144.043,0.000
1714024750.221,-133.301,-22.461,13.184,-131.348,0.000
1714024750.225,-129.395,-22.949,19.531,-122.559,0.000
1714024750.229,-122.559,-20.996,20.996,-124.512,0.000
1714024750.233,-116.211,-22.949,20.020,-125.488,0.000
1714024750.236,-124.023,-29.297,19.531,-125.977,0.000
1714024750.240,-122.070,-28.320,18.066,-114.258,0.000
1714024750.244,-103.027,-25.391,15.625,-101.562,0.000
1714024750.248,-98.633,-30.273,10.254,-102.539,0.000
1714024750.252,-102.539,-30.762,4.395,-95.703,0.000
1714024750.256,-86.914,-27.832,7.812,-83.496,0.000
1714024750.260,-73.242,-31.738,6.348,-80.078,0.000
1714024750.264,-69.824,-34.668,-8.301,-76.172,0.000
1714024750.268,-63.965,-33.691,-13.184,-64.453,0.000
1714024750.271,-57.617,-31.738,-0.488,-51.758,0.000
1714024750.275,-52.734,-33.691,-0.977,-47.363,0.000
1714024750.279,-44.922,-33.691,-9.766,-45.410,0.000
1714024750.283,-38.574,-29.297,-22.949,-42.480,0.000
1714024750.287,-35.645,-31.738,-28.809,-35.156,0.000
1714024750.291,-30.273,-36.133,-20.996,-26.855,0.000
1714024750.295,-27.832,-40.039,-23.926,-23.438,0.000
1714024750.298,-25.391,-39.551,-32.715,-21.484,0.000
1714024750.302,-18.555,-30.273,-33.203,-18.555,0.000
1714024750.306,-12.207,-27.344,-31.250,-12.695,0.000
1714024750.310,-11.230,-34.668,-34.180,-19.531,0.000
1714024750.314,-7.812,-33.691,-35.645,-14.648,0.000
1714024750.317,0.488,-30.762,-41.016,-6.836,0.000
1714024750.321,4.395,-36.133,-50.781,-8.301,0.000
1714024750.325,3.906,-33.691,-49.316,-3.418,0.000
1714024750.329,14.160,-27.344,-40.527,-0.488,0.000
1714024750.333,17.578,-24.414,-43.457,-3.906,0.000
1714024750.337,10.254,-27.344,-50.293,-1.465,0.000
1714024750.341,12.695,-32.715,-49.316,7.812,0.000
1714024750.345,16.113,-33.691,-46.387,10.254,0.000
1714024750.349,21.973,-25.391,-41.016,9.277,0.000
1714024750.353,19.043,-23.926,-40.039,8.789,0.000
1714024750.356,11.719,-28.320,-46.387,10.742,0.000
1714024750.360,13.672,-25.879,-47.852,12.695,0.000
1714024750.363,19.531,-24.414,-46.875,11.719,0.000
1714024750.367,20.996,-29.785,-55.176,15.137,0.000
1714024750.371,25.391,-24.902,-58.594,20.508,0.000
1714024750.375,20.996,-21.484,-54.688,11.230,0.000
1714024750.379,15.137,-25.879,-53.223,-3.418,0.000
1714024750.383,20.020,-28.320,-53.223,2.441,0.000
1714024750.387,24.902,-20.996,-47.363,7.812,0.000
1714024750.391,23.926,-10.742,-40.039,4.395,0.000
1714024750.395,24.414,-13.672,-47.363,4.883,0.000
1714024750.399,21.484,-16.113,-62.012,5.859,0.000
1714024750.403,19.531,-11.719,-61.035,12.207,0.000
1714024750.406,24.414,-9.277,-43.945,17.578,0.000
1714024750.411,25.391,-15.625,-39.551,15.137,0.000
1714024750.415,20.996,-22.461,-52.734,8.789,0.000
1714024750.419,18.066,-20.508,-60.059,6.348,0.000
1714024750.423,21.973,-17.090,-47.852,11.230,0.000
1714024750.427,15.137,-22.461,-40.527,10.254,0.000
1714024750.431,2.930,-24.902,-48.828,-1.953,0.000
1714024750.435,3.418,-24.414,-55.664,-5.859,0.000
1714024750.439,7.324,-26.367,-52.734,5.859,0.000
1714024750.443,7.324,-25.879,-49.316,1.465,0.000
1714024750.446,5.371,-26.367,-55.176,-8.789,0.000
1714024750.450,6.348,-24.414,-50.293,-6.836,0.000
1714024750.454,0.000,-26.855,-46.875,-6.348,0.000
1714024750.459,-3.418,-30.762,-56.152,-11.230,0.000
1714024750.463,-2.930,-27.832,-61.035,-11.719,0.000
1714024750.467,-9.766,-28.809,-58.105,-13.184,0.000
1714024750.470,-13.184,-40.527,-60.059,-13.672,0.000
1714024750.474,-9.277,-39.062,-59.570,-12.207,0.000
1714024750.478,-4.883,-25.391,-48.828,-15.625,0.000
1714024750.482,-3.906,-21.484,-41.016,-13.184,0.000
1714024750.486,-6.348,-28.320,-46.387,-11.230,0.000
1714024750.490,-5.371,-30.273,-54.688,-8.301,0.000
1714024750.494,-7.324,-29.297,-53.711,-11.719,0.000
1714024750.498,-10.254,-27.344,-41.016,-23.926,0.000
1714024750.502,-12.695,-24.414,-34.668,-22.949,0.000
1714024750.506,-18.066,-27.832,-41.504,-15.137,0.000
1714024750.510,-11.230,-26.367,-44.434,-10.254,0.000
1714024750.514,-5.371,-20.020,-42.480,-18.066,0.000
1714024750.518,-11.719,-23.926,-43.945,-19.531,0.000
1714024750.522,-9.766,-30.273,-41.992,-11.230,0.000
1714024750.526,-9.766,-26.367,-34.180,-5.859,0.000
1714024750.529,-16.602,-25.391,-34.180,-15.625,0.000
1714024750.533,-12.695,-22.949,-36.621,-20.996,0.000
1714024750.537,-9.277,-17.578,-35.645,-12.695,0.000
1714024750.541,-11.230,-16.602,-25.879,-15.137,0.000
1714024750.545,-12.207,-19.043,-29.785,-21.973,0.000
1714024750.549,-5.859,-19.531,-35.156,-16.602,0.000
1714024750.553,-6.836,-22.461,-34.668,-12.207,0.000
1714024750.557,-11.230,-24.902,-36.621,-11.230,0.000
1714024750.561,-5.371,-20.996,-35.156,-9.277,0.000
1714024750.565,-4.883,-18.066,-35.156,-13.184,0.000
1714024750.569,-12.695,-13.184,-32.227,-17.090,0.000
1714024750.573,-19.043,-17.578,-36.621,-17.090,0.000
1714024750.576,-18.066,-17.578,-31.738,-20.508,0.000
1714024750.580,-18.555,-23.926,-27.344,-19.531,0.000
1714024750.584,-20.508,-28.320,-34.180,-20.996,0.000
1714024750.588,-20.508,-27.832,-36.133,-30.762,0.000
1714024750.592,-16.602,-31.250,-34.180,-28.320,0.000
1714024750.596,-10.254,-24.902,-34.668,-28.320,0.000
1714024750.600,-4.883,-22.461,-39.062,-28.809,0.000
1714024750.604,-3.906,-27.832,-37.598,-27.344,0.000
1714024750.607,-1.953,-27.832,-39.551,-24.414,0.000
1714024750.611,-9.766,-33.691,-34.668,-21.973,0.000
1714024750.615,-22.461,-39.551,-35.645,-29.785,0.000
1714024750.619,-26.367,-41.016,-41.504,-36.133,0.000
1714024750.623,-26.367,-40.527,-34.668,-22.461,0.000
1714024750.627,-29.785,-37.109,-31.250,-9.277,0.000
1714024750.631,-29.297,-30.762,-27.344,-13.184,0.000
1714024750.635,-33.203,-28.320,-24.414,-20.996,0.000
1714024750.639,-39.062,-34.668,-24.414,-21.484,0.000
1714024750.643,-34.668,-32.715,-18.555,-19.531,0.000
1714024750.646,-28.320,-24.414,-18.555,-21.973,0.000
1714024750.650,-31.250,-23.926,-26.367,-23.438,0.000
1714024750.654,-30.762,-31.250,-30.762,-19.043,0.000
1714024750.658,-25.391,-35.156,-22.949,-16.602,0.000
1714024750.662,-26.855,-30.762,-20.508,-20.020,0.000
1714024750.666,-24.414,-24.902,-21.484,-17.578,0.000
1714024750.670,-27.832,-27.832,-26.855,-18.555,0.000
1714024750.673,-35.645,-26.855,-27.344,-16.602,0.000
1714024750.677,-33.691,-17.578,-15.625,-20.996,0.000
1714024750.681,-25.879,-16.113,-21.484,-24.902,0.000
1714024750.685,-20.508,-14.648,-23.438,-19.043,0.000
1714024750.689,-20.508,-14.160,-22.461,-14.160,0.000
1714024750.694,-19.531,-16.113,-23.926,-21.484,0.000
1714024750.698,-24.414,-19.043,-20.020,-30.273,0.000
1714024750.702,-31.250,-21.973,-23.438,-27.344,0.000
1714024750.706,-25.879,-21.484,-25.391,-20.996,0.000
1714024750.710,-24.902,-26.855,-21.973,-21.484,0.000
1714024750.714,-31.250,-34.668,-26.855,-32.227,0.000
1714024750.718,-33.203,-32.715,-31.250,-30.273,0.000
1714024750.722,-30.762,-36.133,-23.926,-20.020,0.000
1714024750.726,-32.227,-39.551,-29.785,-24.902,0.000
1714024750.730,-33.203,-35.645,-34.668,-28.809,0.000
1714024750.733,-28.809,-34.180,-30.273,-27.344,0.000
1714024750.737,-29.785,-31.738,-26.367,-24.902,0.000
1714024750.740,-25.879,-28.320,-25.391,-23.926,0.000
1714024750.744,-20.508,-28.320,-30.273,-23.438,0.000
1714024750.748,-24.902,-31.738,-28.809,-20.508,0.000
1714024750.752,-26.855,-34.180,-21.973,-20.996,0.000
1714024750.756,-28.809,-33.203,-26.367,-28.809,0.000
1714024750.760,-32.715,-27.832,-30.762,-33.691,0.000
1714024750.764,-29.785,-24.414,-32.715,-32.715,0.000
1714024750.768,-26.855,-25.391,-27.832,-36.133,0.000
1714024750.771,-27.832,-24.414,-25.879,-31.738,0.000
1714024750.775,-25.879,-26.855,-33.691,-28.809,0.000
1714024750.779,-27.344,-32.715,-35.645,-40.039,0.000
1714024750.783,-25.879,-34.668,-24.414,-37.598,0.000
1714024750.788,-20.020,-34.668,-19.043,-20.020,0.000
1714024750.792,-6.836,-33.691,-26.855,-6.348,0.000
1714024750.796,-11.230,-26.855,-28.320,-16.113,0.000
1714024750.800,-32.715,-20.508,-26.855,-40.527,0.000
1714024750.803,-29.785,-18.555,-30.273,-41.504,0.000
1714024750.807,-14.648,-17.090,-30.762,-27.344,0.000
1714024750.811,-14.160,-16.602,-23.926,-29.297,0.000
1714024750.815,-26.855,-21.484,-31.250,-41.016,0.000
1714024750.819,-35.156,-22.461,-33.203,-43.457,0.000
1714024750.823,-30.762,-19.531,-27.832,-32.227,0.000
1714024750.827,-22.949,-19.043,-29.297,-26.855,0.000
1714024750.831,-24.902,-20.996,-31.250,-34.180,0.000
1714024750.835,-21.973,-20.508,-33.691,-34.668,0.000
1714024750.839,-23.438,-25.391,-33.691,-32.227,0.000
1714024750.843,-24.902,-28.809,-31.738,-33.203,0.000
1714024750.847,-18.066,-30.762,-32.227,-30.273,0.000
1714024750.851,-25.391,-36.621,-36.133,-35.156,0.000
1714024750.855,-29.297,-28.320,-33.691,-39.062,0.000
1714024750.859,-23.438,-22.949,-26.855,-27.344,0.000
1714024750.862,-22.949,-26.855,-19.043,-26.367,0.000
1714024750.866,-21.484,-27.344,-20.996,-25.391,0.000
1714024750.870,-25.391,-26.855,-31.250,-22.949,0.000
1714024750.874,-30.762,-24.414,-29.785,-29.297,0.000
1714024750.878,-31.738,-24.902,-24.414,-23.926,0.000
1714024750.882,-27.344,-26.367,-19.043,-19.531,0.000
1714024750.886,-24.414,-24.902,-16.113,-13.184,0.000
1714024750.890,-28.320,-25.879,-17.090,-12.207,0.000
1714024750.894,-30.762,-26.367,-19.043,-23.438,0.000
1714024750.898,-31.738,-30.273,-24.902,-33.203,0.000
1714024750.902,-33.203,-31.250,-35.645,-37.109,0.000
1714024750.906,-34.668,-28.320,-36.621,-38.086,0.000
1714024750.909,-36.133,-26.855,-32.227,-34.668,0.000
1714024750.913,-29.297,-25.391,-35.156,-26.367,0.000
1714024750.917,-25.391,-24.414,-33.203,-33.691,0.000
1714024750.921,-30.273,-28.809,-28.320,-43.945,0.000
1714024750.925,-33.203,-32.227,-26.367,-41.504,0.000
1714024750.929,-33.203,-27.832,-28.809,-37.598,0.000
1714024750.933,-35.156,-27.344,-33.203,-36.133,0.000
1714024750.937,-36.133,-28.809,-29.785,-33.691,0.000
1714024750.941,-33.203,-29.785,-28.809,-27.832,0.000
1714024750.945,-33.203,-34.668,-32.715,-30.273,0.000
1714024750.948,-42.480,-33.203,-36.133,-45.410,0.000
1714024750.952,-46.387,-33.203,-39.062,-51.270,0.000
1714024750.956,-37.598,-35.156,-38.574,-40.527,0.000
1714024750.960,-37.598,-34.180,-35.645,-34.668,0.000
1714024750.964,-40.039,-27.832,-30.762,-43.457,0.000
1714024750.968,-36.133,-25.879,-29.785,-45.410,0.000
1714024750.972,-33.691,-31.738,-30.762,-39.062,0.000
1714024750.976,-28.809,-31.738,-31.250,-29.785,0.000
1714024750.979,-29.297,-28.809,-32.227,-33.203,0.000
1714024750.983,-28.320,-31.250,-35.645,-39.062,0.000
1714024750.987,-24.902,-35.645,-36.621,-37.598,0.000
1714024750.991,-31.738,-34.668,-32.715,-37.109,0.000
1714024750.995,-28.809,-35.645,-29.297,-29.297,0.000
1714024750.999,-28.809,-31.738,-28.809,-25.391,0.000
1714024751.003,-33.691,-29.785,-36.133,-29.297,0.000
1714024751.007,-28.320,-31.250,-34.180,-22.949,0.000
1714024751.011,-29.785,-26.367,-27.344,-19.043,0.000
1714024751.015,-38.086,-29.297,-32.227,-27.832,0.000
1714024751.019,-36.133,-28.809,-35.156,-30.762,0.000
1714024751.022,-33.203,-28.320,-30.762,-21.484,0.000
1714024751.026,-37.109,-34.668,-35.645,-22.949,0.000
1714024751.030,-35.645,-30.273,-38.086,-29.297,0.000
1714024751.034,-31.250,-24.414,-30.762,-28.320,0.000
1714024751.038,-29.297,-29.297,-30.273,-26.855,0.000
1714024751.042,-28.320,-28.809,-32.715,-30.762,0.000
1714024751.045,-27.832,-25.879,-30.762,-30.762,0.000
1714024751.049,-25.391,-26.855,-27.344,-24.902,0.000
1714024751.053,-26.367,-23.438,-28.809,-27.832,0.000
1714024751.057,-25.879,-23.438,-32.715,-29.297,0.000
1714024751.061,-30.273,-30.762,-28.320,-31.250,0.000
1714024751.065,-31.250,-34.668,-23.926,-29.785,0.000
1714024751.068,-22.949,-34.180,-28.320,-25.879,0.000
1714024751.072,-24.902,-32.227,-26.855,-25.391,0.000
1714024751.076,-27.344,-31.738,-25.391,-24.414,0.000
1714024751.080,-25.879,-30.273,-29.785,-25.879,0.000
1714024751.084,-26.855,-31.250,-31.738,-25.391,0.000
1714024751.088,-29.297,-38.086,-26.855,-23.926,0.000
1714024751.092,-26.367,-35.156,-21.973,-17.578,0.000
1714024751.095,-27.344,-28.809,-23.926,-25.879,0.000
1714024751.099,-30.273,-31.250,-27.832,-39.062,0.000
1714024751.103,-31.250,-43.945,-26.855,-33.691,0.000
1714024751.107,-29.785,-40.039,-18.555,-28.809,0.000
1714024751.111,-26.367,-21.484,-18.555,-29.297,0.000
1714024751.114,-28.320,-25.391,-28.809,-35.156,0.000
1714024751.118,-32.715,-23.438,-29.297,-34.180,0.000
1714024751.122,-30.273,-12.207,-19.043,-20.996,0.000
1714024751.126,-26.367,-10.254,-14.648,-16.602,0.000
1714024751.130,-22.461,-14.160,-19.043,-21.484,0.000
1714024751.134,-19.531,-16.113,-19.531,-16.602,0.000
1714024751.138,-22.461,-18.066,-14.648,-9.766,0.000
1714024751.142,-20.996,-21.484,-12.207,-13.672,0.000
1714024751.145,-21.973,-27.344,-20.508,-24.902,0.000
1714024751.149,-25.391,-27.344,-28.320,-29.297,0.000
1714024751.153,-23.926,-29.785,-28.320,-21.484,0.000
1714024751.157,-19.531,-32.715,-25.391,-20.996,0.000
1714024751.162,-17.090,-29.785,-23.926,-23.926,0.000
1714024751.166,-20.020,-25.879,-23.438,-28.320,0.000
1714024751.170,-11.230,-21.973,-18.066,-21.973,0.000
1714024751.174,1.465,-25.391,-15.625,-1.953,0.000
1714024751.177,-16.113,-31.738,-13.672,-8.789,0.000
1714024751.181,-38.574,-33.203,-18.066,-37.109,0.000
1714024751.185,-31.250,-27.344,-19.043,-40.527,0.000
1714024751.189,-21.973,-26.855,-18.066,-32.715,0.000
1714024751.193,-29.297,-32.715,-21.973,-30.762,0.000
1714024751.197,-29.785,-34.180,-24.414,-24.414,0.000
1714024751.201,-26.855,-36.133,-21.973,-22.461,0.000
1714024751.205,-28.809,-36.621,-20.020,-25.391,0.000
1714024751.209,-26.855,-33.691,-20.020,-26.855,0.000
1714024751.213,-28.320,-35.645,-21.973,-28.809,0.000
1714024751.217,-34.668,-38.086,-30.762,-33.203,0.000
1714024751.221,-29.297,-32.715,-29.785,-34.668,0.000
1714024751.225,-27.344,-33.691,-22.461,-34.668,0.000
1714024751.229,-22.461,-35.156,-22.949,-31.738,0.000
1714024751.233,-17.090,-33.203,-20.020,-30.273,0.000
1714024751.237,-18.066,-31.250,-21.973,-36.133,0.000
1714024751.241,-13.672,-29.785,-25.879,-33.691,0.000
1714024751.245,-16.113,-28.809,-18.066,-25.879,0.000
1714024751.248,-24.414,-24.414,-15.137,-30.762,0.000
1714024751.252,-29.297,-27.832,-25.879,-34.180,0.000
1714024751.256,-31.738,-32.227,-23.926,-25.879,0.000
1714024751.260,-31.250,-30.273,-15.625,-15.625,0.000
1714024751.264,-32.227,-29.297,-14.648,-21.484,0.000
1714024751.268,-35.645,-33.203,-21.973,-28.809,0.000
1714024751.272,-37.598,-37.109,-24.414,-25.391,0.000
1714024751.276,-36.621,-33.691,-20.508,-18.555,0.000
1714024751.280,-31.738,-26.367,-26.855,-17.578,0.000
1714024751.284,-30.273,-24.414,-27.344,-26.367,0.000
1714024751.288,-32.227,-25.391,-25.879,-25.879,0.000
1714024751.292,-33.691,-28.809,-21.484,-21.484,0.000
1714024751.296,-35.645,-28.809,-21.484,-33.203,0.000
1714024751.299,-28.809,-27.344,-22.461,-33.203,0.000
1714024751.303,-23.926,-26.855,-16.113,-25.391,0.000
1714024751.307,-21.973,-19.531,-16.602,-28.320,0.000
1714024751.311,-20.020,-20.020,-23.926,-28.320,0.000
1714024751.315,-27.832,-23.438,-26.855,-27.344,0.000
1714024751.319,-29.785,-23.438,-23.438,-25.391,0.000
1714024751.323,-25.391,-28.320,-23.926,-25.879,0.000
1714024751.327,-28.809,-29.785,-25.879,-32.715,0.000
1714024751.331,-32.227,-27.832,-25.391,-36.133,0.000
1714024751.335,-34.668,-31.738,-24.902,-34.668,0.000
1714024751.338,-36.133,-29.297,-21.484,-38.086,0.000
1714024751.342,-35.645,-28.320,-21.973,-35.156,0.000
1714024751.346,-34.668,-27.344,-29.297,-33.203,0.000
1714024751.350,-32.715,-28.320,-29.785,-33.691,0.000
1714024751.354,-33.691,-34.180,-27.344,-39.062,0.000
1714024751.358,-34.668,-29.297,-27.832,-36.621,0.000
1714024751.362,-35.645,-27.344,-30.762,-34.668,0.000
1714024751.365,-36.133,-27.344,-30.762,-36.133,0.000
1714024751.369,-43.945,-29.297,-25.879,-39.551,0.000
1714024751.373,-47.852,-32.715,-26.367,-38.574,0.000
1714024751.377,-43.945,-29.785,-28.809,-33.691,0.000
1714024751.381,-46.875,-29.785,-30.273,-37.109,0.000
1714024751.385,-60.059,-31.250,-33.691,-34.180,0.000
1714024751.389,-73.730,-27.832,-39.551,-29.785,0.000
1714024751.393,-74.707,-24.902,-35.156,-29.785,0.000
1714024751.396,-67.871,-25.391,-30.273,-26.367,0.000
1714024751.400,-68.359,-26.855,-32.227,-30.762,0.000
1714024751.404,-68.359,-27.344,-27.832,-30.762,0.000
1714024751.408,-63.477,-23.438,-22.949,-20.020,0.000
1714024751.412,-55.176,-21.484,-27.832,-22.949,0.000
1714024751.416,-51.758,-23.926,-27.344,-30.762,0.000
1714024751.420,-54.199,-28.809,-26.367,-23.926,0.000
1714024751.424,-55.176,-27.344,-30.273,-12.695,0.000
1714024751.428,-54.199,-28.320,-29.785,-19.043,0.000
1714024751.432,-53.711,-29.297,-27.832,-27.832,0.000
1714024751.435,-53.223,-28.320,-22.949,-22.461,0.000
1714024751.439,-49.316,-32.715,-20.996,-15.625,0.000
1714024751.443,-46.875,-30.762,-22.949,-18.555,0.000
1714024751.447,-46.875,-27.344,-24.902,-22.949,0.000
1714024751.450,-47.852,-25.879,-29.297,-26.855,0.000
1714024751.454,-50.781,-28.809,-25.879,-30.273,0.000
1714024751.458,-47.852,-32.227,-20.996,-21.973,0.000
1714024751.462,-48.828,-35.156,-20.508,-24.902,0.000
1714024751.466,-49.316,-35.156,-19.531,-26.367,0.000
1714024751.470,-42.480,-32.715,-17.090,-21.484,0.000
1714024751.474,-39.551,-31.738,-23.438,-24.902,0.000
1714024751.478,-39.062,-34.668,-28.809,-30.273,0.000
1714024751.482,-35.645,-38.086,-27.832,-36.133,0.000
1714024751.486,-35.156,-36.133,-28.809,-39.062,0.000
1714024751.489,-35.645,-31.738,-28.320,-41.504,0.000
1714024751.493,-32.715,-26.855,-24.414,-35.156,0.000
1714024751.497,-35.645,-25.879,-23.438,-32.227,0.000
1714024751.500,-39.551,-29.785,-28.809,-33.203,0.000
1714024751.504,-35.645,-27.832,-32.227,-36.133,0.000
1714024751.508,-34.668,-28.809,-31.738,-35.645,0.000
1714024751.512,-36.621,-37.109,-34.668,-35.645,0.000
1714024751.516,-31.738,-35.156,-29.297,-39.551,0.000
1714024751.520,-30.273,-33.691,-25.879,-34.180,0.000
1714024751.524,-33.691,-31.250,-26.855,-33.691,0.000
1714024751.528,-35.645,-30.762,-28.320,-41.992,0.000
1714024751.532,-35.156,-28.320,-28.320,-42.969,0.000
1714024751.538,-39.551,-28.809,-27.832,-38.574,0.000
1714024751.542,-42.969,-33.203,-27.344,-45.410,0.000
1714024751.546,-37.598,-30.273,-26.855,-49.316,0.000
1714024751.550,-34.668,-30.273,-29.297,-45.898,0.000
1714024751.554,-26.367,-34.668,-34.180,-36.133,0.000
1714024751.558,-27.344,-35.156,-34.668,-28.809,0.000
1714024751.562,-41.016,-31.738,-25.391,-37.109,0.000
1714024751.566,-41.504,-29.297,-19.531,-40.527,0.000
1714024751.570,-31.250,-31.738,-18.066,-32.715,0.000
1714024751.573,-30.273,-30.273,-14.160,-23.438,0.000
1714024751.577,-34.668,-26.367,-19.531,-23.926,0.000
1714024751.581,-32.715,-30.762,-25.391,-35.645,0.000
1714024751.586,-26.367,-35.156,-19.043,-34.668,0.000
1714024751.589,-24.414,-29.785,-16.113,-23.926,0.000
1714024751.593,-28.809,-27.344,-20.020,-23.438,0.000
1714024751.597,-28.809,-29.297,-21.973,-27.344,0.000
1714024751.601,-29.785,-30.273,-16.113,-30.762,0.000
1714024751.605,-38.086,-36.133,-18.555,-34.668,0.000
1714024751.609,-38.086,-33.203,-21.484,-32.715,0.000
1714024751.613,-36.133,-26.855,-16.602,-43.457,0.000
1714024751.617,-34.180,-27.832,-21.484,-51.758,0.000
1714024751.621,-30.762,-26.855,-25.879,-43.457,0.000
1714024751.625,-31.738,-33.691,-23.926,-41.016,0.000
1714024751.629,-31.250,-36.621,-23.438,-43.457,0.000
1714024751.633,-28.809,-33.691,-29.785,-35.645,0.000
1714024751.637,-32.227,-33.691,-26.855,-34.180,0.000
1714024751.640,-33.691,-31.738,-24.414,-41.992,0.000
1714024751.644,-30.273,-27.832,-29.785,-35.156,0.000
1714024751.648,-26.855,-26.855,-24.902,-29.297,0.000
1714024751.652,-24.902,-30.762,-29.297,-30.762,0.000
1714024751.656,-27.832,-30.762,-36.621,-34.668,0.000
1714024751.660,-28.320,-26.855,-36.621,-33.203,0.000
1714024751.664,-27.344,-30.273,-37.598,-25.391,0.000
1714024751.668,-34.180,-35.645,-31.738,-31.250,0.000
1714024751.672,-37.109,-28.320,-31.738,-35.645,0.000
1714024751.676,-32.715,-23.926,-36.133,-28.320,0.000
1714024751.679,-30.273,-26.855,-33.691,-35.645,0.000
1714024751.683,-30.762,-29.297,-31.250,-38.574,0.000
1714024751.687,-29.785,-28.809,-34.180,-31.738,0.000
1714024751.691,-30.762,-30.762,-30.273,-33.691,0.000
1714024751.695,-31.250,-32.715,-25.879,-36.621,0.000
1714024751.699,-31.250,-30.273,-26.855,-35.156,0.000
1714024751.703,-33.203,-25.879,-22.461,-36.621,0.000
1714024751.707,-38.086,-24.414,-21.484,-32.715,0.000
1714024751.711,-36.621,-23.438,-25.391,-28.809,0.000
1714024751.714,-31.250,-23.438,-22.461,-29.297,0.000
1714024751.718,-33.203,-31.250,-21.484,-28.320,0.000
1714024751.722,-34.180,-35.156,-23.926,-33.691,0.000
1714024751.726,-32.227,-31.738,-25.879,-38.574,0.000
1714024751.730,-30.762,-25.879,-27.344,-35.645,0.000
1714024751.734,-36.133,-25.391,-30.273,-38.574,0.000
1714024751.738,-44.434,-25.879,-34.668,-45.898,0.000
1714024751.742,-40.527,-26.855,-31.738,-41.016,0.000
1714024751.745,-33.203,-26.855,-22.949,-34.180,0.000
1714024751.749,-35.645,-25.879,-21.484,-38.574,0.000
1714024751.753,-32.227,-27.344,-27.344,-29.785,0.000
1714024751.757,-34.180,-30.273,-32.227,-30.762,0.000
1714024751.761,-34.180,-24.902,-25.879,-35.645,0.000
1714024751.765,-29.297,-23.438,-26.855,-33.691,0.000
1714024751.769,-31.250,-26.367,-31.250,-37.109,0.000
1714024751.772,-27.344,-29.297,-26.855,-29.785,0.000
1714024751.776,-26.367,-29.785,-28.809,-29.785,0.000
1714024751.780,-33.691,-28.320,-29.785,-39.551,0.000
1714024751.784,-32.715,-31.738,-29.297,-37.109,0.000
1714024751.788,-19.043,-28.320,-28.320,-17.578,0.000
1714024751.792,-20.508,-24.902,-31.738,-17.578,0.000
1714024751.796,-30.273,-27.832,-38.574,-31.250,0.000
1714024751.800,-29.297,-25.879,-38.574,-32.715,0.000
1714024751.803,-29.297,-20.020,-31.250,-37.109,0.000
1714024751.807,-27.832,-14.648,-31.250,-38.574,0.000
1714024751.811,-29.785,-13.672,-33.691,-42.480,0.000
1714024751.815,-31.250,-19.043,-32.715,-46.387,0.000
1714024751.820,-26.367,-15.137,-33.691,-38.574,0.000
1714024751.824,-27.832,-16.113,-34.668,-33.203,0.000
1714024751.828,-34.180,-30.762,-34.180,-38.086,0.000
1714024751.832,-32.227,-28.809,-35.645,-41.016,0.000
1714024751.836,-28.809,-15.137,-35.156,-42.969,0.000
1714024751.840,-33.203,-13.184,-35.156,-45.410,0.000
1714024751.844,-32.227,-13.672,-35.156,-36.133,0.000
1714024751.848,-24.902,-8.789,-27.832,-28.320,0.000
1714024751.851,-27.832,-15.137,-27.344,-37.109,0.000
1714024751.855,-28.809,-18.066,-33.691,-34.180,0.000
1714024751.859,-26.367,-14.160,-31.738,-30.273,0.000
1714024751.863,-29.785,-17.578,-31.250,-35.156,0.000
1714024751.866,-30.762,-20.508,-30.762,-35.156,0.000
1714024751.870,-27.832,-19.531,-30.273,-28.320,0.000
1714024751.874,-20.996,-16.602,-26.367,-25.391,0.000
1714024751.878,-17.578,-17.090,-21.484,-24.414,0.000
1714024751.882,-15.137,-17.578,-20.508,-29.785,0.000
1714024751.886,-12.207,-17.578,-27.344,-33.203,0.000
1714024751.889,-11.230,-22.461,-32.227,-32.227,0.000
1714024751.893,-6.836,-21.484,-28.320,-24.902,0.000
1714024751.897,-4.395,-16.113,-33.203,-34.180,0.000
1714024751.901,-4.395,-19.531,-36.133,-39.551,0.000
1714024751.905,-5.859,-20.508,-31.250,-22.949,0.000
1714024751.909,-8.301,-20.508,-21.973,-22.461,0.000
1714024751.914,-11.719,-22.949,-21.973,-19.043,0.000
1714024751.917,-20.996,-20.996,-25.879,-18.066,0.000
1714024751.921,-30.762,-20.996,-23.926,-17.578,0.000
1714024751.925,-31.738,-18.555,-26.367,-7.324,0.000
1714024751.929,-25.391,-17.578,-23.926,-9.277,0.000
1714024751.933,-23.926,-20.020,-25.879,-21.973,0.000
1714024751.937,-30.762,-25.879,-27.344,-23.926,0.000
1714024751.941,-32.715,-30.762,-16.602,-19.531,0.000
1714024751.945,-21.973,-25.391,-15.625,-20.996,0.000
1714024751.949,-28.809,-29.785,-29.785,-30.762,0.000
1714024751.953,-37.598,-34.668,-37.598,-39.551,0.000
1714024751.956,-29.297,-27.832,-32.715,-38.086,0.000
1714024751.963,-30.762,-23.438,-30.762,-29.785,0.000
1714024751.966,-34.180,-27.832,-33.691,-31.738,0.000
1714024751.970,-39.062,-32.227,-32.227,-40.039,0.000
1714024751.974,-41.016,-28.809,-27.344,-35.645,0.000
1714024751.978,-32.715,-26.855,-22.949,-27.832,0.000
1714024751.982,-29.297,-26.855,-25.391,-35.156,0.000
1714024751.986,-31.738,-27.344,-31.250,-42.969,0.000
1714024751.990,-34.180,-27.344,-36.621,-40.039,0.000
1714024751.994,-31.250,-26.855,-38.574,-34.180,0.000
1714024751.998,-37.109,-29.785,-40.039,-40.039,0.000
1714024752.002,-36.133,-25.879,-34.180,-43.945,0.000
1714024752.005,-25.879,-25.391,-27.344,-38.574,0.000
1714024752.009,-25.391,-27.832,-26.855,-32.715,0.000
1714024752.013,-24.902,-19.043,-26.367,-32.227,0.000
1714024752.017,-26.367,-22.461,-33.691,-41.504,0.000
1714024752.021,-35.156,-31.250,-36.133,-40.527,0.000
1714024752.025,-41.016,-30.762,-37.109,-42.969,0.000
1714024752.029,-38.086,-28.320,-38.574,-40.039,0.000
1714024752.033,-35.645,-27.344,-35.645,-38.086,0.000
1714024752.037,-33.691,-31.250,-37.109,-42.480,0.000
1714024752.041,-32.715,-34.180,-36.133,-37.109,0.000
1714024752.044,-32.227,-28.809,-26.855,-36.621,0.000
1714024752.048,-30.762,-26.367,-27.832,-40.039,0.000
1714024752.052,-32.715,-30.762,-39.551,-41.016,0.000
1714024752.056,-33.203,-34.668,-42.969,-37.109,0.000
1714024752.060,-31.250,-33.203,-39.551,-38.086,0.000
1714024752.064,-26.855,-28.320,-34.668,-41.504,0.000
1714024752.068,-27.344,-31.250,-36.133,-39.551,0.000
1714024752.071,-30.273,-33.691,-37.598,-38.574,0.000
1714024752.075,-30.273,-32.715,-29.297,-34.668,0.000
1714024752.079,-32.715,-35.156,-25.391,-33.691,0.000
1714024752.083,-29.785,-36.133,-29.297,-30.762,0.000
1714024752.087,-26.855,-33.203,-29.297,-29.297,0.000
1714024752.091,-23.438,-27.832,-21.484,-27.832,0.000
1714024752.095,-21.973,-30.273,-17.090,-25.879,0.000
1714024752.099,-24.414,-32.715,-12.695,-27.344,0.000
1714024752.102,-26.855,-33.203,-14.648,-28.320,0.000
1714024752.106,-28.809,-33.203,-18.555,-28.809,0.000
1714024752.110,-32.227,-29.785,-16.113,-28.320,0.000
1714024752.114,-35.156,-30.273,-19.531,-35.645,0.000
1714024752.118,-37.598,-34.668,-33.203,-41.992,0.000
1714024752.122,-38.086,-35.645,-37.109,-42.969,0.000
1714024752.126,-31.738,-31.250,-32.227,-33.691,0.000
1714024752.129,-29.785,-31.738,-32.227,-29.297,0.000
1714024752.133,-35.645,-30.273,-28.320,-38.086,0.000
1714024752.137,-36.621,-28.809,-28.809,-46.387,0.000
1714024752.141,-34.668,-29.297,-25.391,-41.504,0.000
1714024752.145,-39.062,-31.250,-22.949,-40.527,0.000
1714024752.148,-41.504,-33.203,-25.391,-45.410,0.000
1714024752.152,-39.062,-33.691,-29.785,-48.828,0.000
1714024752.156,-36.133,-35.156,-34.180,-46.387,0.000
1714024752.160,-35.156,-28.320,-25.879,-36.621,0.000
1714024752.164,-36.621,-27.344,-24.902,-36.133,0.000
1714024752.168,-35.156,-30.273,-27.832,-43.945,0.000
1714024752.172,-24.902,-27.344,-28.320,-38.086,0.000
1714024752.176,-9.277,-23.438,-26.367,-17.578,0.000
1714024752.180,-12.207,-22.949,-16.113,-21.973,0.000
1714024752.183,-29.297,-28.809,-14.648,-36.133,0.000
1714024752.187,-30.273,-30.762,-24.414,-35.645,0.000
1714024752.191,-32.715,-28.809,-23.926,-35.156,0.000
1714024752.194,-39.551,-31.250,-20.508,-37.109,0.000
1714024752.198,-35.645,-31.738,-17.090,-32.715,0.000
1714024752.202,-35.156,-29.297,-18.066,-37.109,0.000
1714024752.206,-36.621,-29.297,-18.066,-38.086,0.000
1714024752.210,-31.738,-27.344,-17.090,-32.227,0.000
1714024752.214,-28.809,-25.391,-17.578,-31.738,0.000
1714024752.218,-27.832,-27.832,-26.855,-24.902,0.000
1714024752.222,-26.367,-24.414,-29.785,-25.879,0.000
1714024752.226,-28.320,-19.531,-22.461,-27.832,0.000
1714024752.230,-29.297,-24.902,-24.902,-28.809,0.000
1714024752.233,-28.320,-32.227,-29.297,-37.109,0.000
1714024752.237,-29.297,-30.762,-24.414,-30.762,0.000
1714024752.240,-24.902,-27.832,-19.531,-18.066,0.000
1714024752.244,-21.484,-24.902,-20.996,-19.043,0.000
1714024752.248,-25.879,-22.949,-20.020,-30.273,0.000
1714024752.252,-34.668,-25.391,-19.531,-38.086,0.000
1714024752.256,-31.250,-24.414,-23.438,-32.227,0.000
1714024752.260,-26.367,-28.320,-34.180,-29.297,0.000
1714024752.264,-29.785,-28.809,-33.691,-32.227,0.000
1714024752.268,-28.320,-25.879,-20.996,-26.855,0.000
1714024752.272,-29.297,-27.344,-20.508,-24.414,0.000
1714024752.275,-34.180,-25.879,-24.414,-27.832,0.000
1714024752.279,-33.691,-24.902,-25.879,-32.715,0.000
1714024752.283,-31.738,-27.832,-26.855,-33.203,0.000
1714024752.288,-31.738,-31.250,-24.902,-31.738,0.000
1714024752.292,-28.809,-27.832,-22.461,-29.297,0.000
1714024752.296,-28.809,-28.320,-20.996,-31.250,0.000
1714024752.300,-33.691,-25.879,-21.484,-32.715,0.000
1714024752.303,-31.738,-22.949,-18.555,-21.484,0.000
1714024752.307,-25.391,-27.832,-16.113,-17.090,0.000
1714024752.311,-24.414,-24.902,-19.531,-21.973,0.000
1714024752.315,-24.902,-25.391,-25.391,-31.250,0.000
1714024752.319,-25.391,-28.809,-24.414,-30.273,0.000
1714024752.323,-23.926,-27.344,-19.531,-17.578,0.000
1714024752.327,-24.414,-24.902,-18.555,-23.926,0.000
1714024752.331,-24.902,-23.438,-24.414,-35.156,0.000
1714024752.335,-21.484,-25.879,-28.809,-31.250,0.000
1714024752.339,-24.414,-29.785,-30.273,-27.344,0.000
1714024752.343,-31.250,-29.297,-31.250,-28.320,0.000
1714024752.347,-27.832,-23.438,-24.414,-28.320,0.000
1714024752.351,-26.367,-26.367,-24.902,-32.227,0.000
1714024752.355,-30.273,-33.203,-29.785,-36.621,0.000
1714024752.359,-32.227,-32.227,-22.949,-38.086,0.000
1714024752.362,-34.180,-29.297,-21.973,-41.016,0.000
1714024752.366,-35.645,-31.738,-29.785,-41.016,0.000
1714024752.370,-38.574,-31.250,-29.785,-36.621,0.000
1714024752.374,-39.062,-28.320,-24.414,-39.062,0.000
1714024752.378,-37.109,-35.645,-25.879,-40.527,0.000
1714024752.382,-38.574,-37.598,-28.809,-42.969,0.000
1714024752.386,-35.156,-37.598,-34.668,-43.457,0.000
1714024752.390,-35.645,-41.016,-33.203,-46.875,0.000
1714024752.394,-36.621,-45.898,-26.855,-46.387,0.000
1714024752.398,-28.809,-41.992,-28.809,-42.480,0.000
1714024752.402,-34.668,-32.715,-37.598,-53.711,0.000
1714024752.406,-40.527,-29.785,-36.621,-50.781,0.000
1714024752.409,-37.109,-29.297,-27.344,-39.062,0.000
1714024752.413,-29.785,-27.344,-30.273,-33.203,0.000
1714024752.417,-33.691,-26.855,-29.785,-36.133,0.000
1714024752.421,-37.109,-32.715,-31.738,-44.922,0.000
1714024752.425,-34.180,-35.156,-37.598,-40.527,0.000
1714024752.429,-37.109,-34.180,-41.016,-46.387,0.000
1714024752.433,-41.016,-35.645,-38.574,-54.688,0.000
1714024752.437,-37.598,-32.715,-30.273,-49.805,0.000
1714024752.441,-34.668,-30.273,-32.227,-39.062,0.000
1714024752.445,-37.109,-35.156,-33.691,-29.297,0.000
1714024752.448,-31.738,-33.691,-30.273,-35.645,0.000
1714024752.452,-29.297,-30.762,-27.832,-40.039,0.000
1714024752.456,-33.203,-31.250,-29.785,-30.762,0.000
1714024752.460,-36.133,-30.762,-23.438,-24.902,0.000
1714024752.464,-35.645,-31.250,-16.113,-28.320,0.000
1714024752.468,-29.297,-29.785,-25.879,-27.832,0.000
1714024752.472,-30.273,-26.367,-31.738,-29.785,0.000
1714024752.476,-31.250,-26.367,-31.738,-33.691,0.000
1714024752.479,-31.250,-24.414,-33.691,-38.086,0.000
1714024752.483,-31.738,-22.949,-37.109,-40.527,0.000
1714024752.487,-31.738,-24.414,-37.109,-38.574,0.000
1714024752.491,-24.902,-24.414,-23.438,-29.297,0.000
1714024752.495,-19.043,-22.949,-19.043,-29.785,0.000
1714024752.499,-28.320,-27.832,-30.762,-40.039,0.000
1714024752.503,-34.180,-29.785,-38.574,-37.598,0.000
1714024752.507,-32.715,-26.367,-33.691,-29.785,0.000
1714024752.511,-30.273,-27.832,-26.855,-34.668,0.000
1714024752.515,-25.391,-24.902,-28.320,-41.992,0.000
1714024752.519,-22.949,-26.367,-25.879,-39.062,0.000
1714024752.522,-25.391,-30.762,-23.926,-35.156,0.000
1714024752.526,-26.855,-27.832,-28.320,-33.691,0.000
1714024752.530,-22.949,-20.996,-28.320,-30.273,0.000
1714024752.534,-22.461,-17.090,-20.020,-25.879,0.000
1714024752.537,-23.438,-21.484,-18.066,-24.902,0.000
1714024752.541,-25.391,-27.344,-30.273,-27.344,0.000
1714024752.545,-24.414,-27.344,-31.250,-26.367,0.000
1714024752.549,-27.344,-24.414,-24.902,-26.367,0.000
1714024752.553,-28.320,-24.902,-25.391,-32.227,0.000
1714024752.557,-28.320,-28.320,-25.879,-32.715,0.000
1714024752.561,-33.203,-32.227,-31.250,-25.391,0.000
1714024752.565,-28.809,-28.809,-27.832,-26.855,0.000
1714024752.568,-30.762,-26.367,-20.508,-36.621,0.000
1714024752.572,-37.598,-33.691,-20.508,-35.645,0.000
1714024752.576,-31.250,-32.227,-20.020,-33.691,0.000
1714024752.580,-26.855,-27.344,-21.973,-34.180,0.000
1714024752.584,-30.762,-26.367,-24.902,-32.227,0.000
1714024752.588,-31.738,-24.902,-24.414,-28.809,0.000
1714024752.592,-22.949,-24.414,-19.531,-19.531,0.000
1714024752.595,-21.973,-21.973,-18.555,-21.973,0.000
1714024752.599,-32.715,-26.367,-19.531,-31.738,0.000
1714024752.603,-33.203,-31.250,-18.555,-27.344,0.000
1714024752.607,-24.414,-26.367,-20.996,-24.902,0.000
1714024752.611,-24.414,-23.926,-22.461,-31.738,0.000
1714024752.614,-25.391,-28.320,-18.555,-29.297,0.000
1714024752.618,-20.508,-30.762,-18.066,-27.344,0.000
1714024752.622,-18.555,-28.809,-18.555,-33.203,0.000
1714024752.626,-12.207,-27.344,-17.090,-29.297,0.000
1714024752.630,-4.883,-31.250,-21.484,-29.297,0.000
1714024752.634,-10.254,-34.180,-26.367,-38.086,0.000
1714024752.638,-11.230,-30.762,-26.367,-38.086,0.000
1714024752.641,-11.719,-26.367,-25.391,-31.250,0.000
1714024752.645,-17.578,-23.926,-26.855,-29.785,0.000
1714024752.649,-24.414,-28.320,-28.809,-29.785,0.000
1714024752.653,-32.227,-30.762,-29.785,-25.391,0.000
1714024752.657,-34.180,-31.250,-21.484,-29.785,0.000
1714024752.662,-34.668,-35.156,-21.973,-32.715,0.000
1714024752.666,-33.203,-32.227,-22.461,-36.133,0.000
1714024752.670,-26.855,-29.785,-14.160,-33.691,0.000
1714024752.674,-25.879,-31.738,-21.973,-22.461,0.000
1714024752.677,-21.973,-30.762,-26.855,-19.531,0.000
1714024752.681,-22.461,-27.344,-24.902,-26.855,0.000
1714024752.685,-26.367,-27.344,-25.391,-31.738,0.000
1714024752.689,-29.297,-25.879,-22.461,-39.551,0.000
1714024752.693,-25.879,-26.367,-21.484,-35.645,0.000
1714024752.697,-26.855,-28.809,-26.367,-30.762,0.000
1714024752.701,-32.227,-24.414,-21.484,-36.621,0.000
1714024752.705,-29.297,-24.902,-19.043,-34.180,0.000
1714024752.709,-25.391,-31.738,-25.879,-31.250,0.000
1714024752.713,-29.297,-30.273,-30.273,-33.203,0.000
1714024752.717,-35.156,-26.855,-28.320,-36.621,0.000
1714024752.721,-35.645,-30.273,-27.344,-34.180,0.000
1714024752.725,-40.527,-35.156,-30.762,-34.180,0.000
1714024752.729,-44.434,-37.598,-32.227,-40.039,0.000
1714024752.733,-36.621,-33.203,-27.832,-38.574,0.000
1714024752.737,-31.738,-26.367,-27.344,-36.621,0.000
1714024752.741,-29.297,-27.344,-29.297,-28.809,0.000
1714024752.744,-30.273,-33.203,-31.738,-29.297,0.000
1714024752.748,-41.016,-30.762,-32.715,-44.434,0.000
1714024752.752,-37.598,-28.809,-34.180,-43.945,0.000
1714024752.758,-34.668,-31.738,-26.367,-36.621,0.000
1714024752.762,-41.016,-34.668,-23.926,-35.156,0.000
1714024752.766,-37.598,-32.715,-22.461,-34.668,0.000
1714024752.770,-35.645,-31.738,-20.508,-38.086,0.000
1714024752.774,-35.645,-36.621,-23.438,-32.715,0.000
1714024752.778,-34.180,-35.156,-23.926,-26.855,0.000
1714024752.782,-38.086,-30.762,-27.832,-36.133,0.000
1714024752.786,-42.480,-30.762,-34.180,-39.551,0.000
1714024752.790,-39.062,-32.715,-35.645,-30.762,0.000
1714024752.793,-35.645,-29.785,-29.297,-26.855,0.000
1714024752.797,-32.715,-29.297,-25.879,-29.785,0.000
1714024752.801,-31.250,-33.691,-26.855,-28.809,0.000
1714024752.805,-28.809,-32.227,-29.785,-30.762,0.000
1714024752.809,-30.273,-31.250,-26.367,-28.809,0.000
1714024752.813,-31.250,-29.297,-19.043,-27.344,0.000
1714024752.817,-27.832,-27.832,-23.438,-28.809,0.000
1714024752.821,-28.809,-28.320,-30.273,-26.367,0.000
1714024752.824,-29.785,-27.832,-28.320,-22.461,0.000
1714024752.828,-21.973,-24.902,-18.066,-17.090,0.000
1714024752.832,-18.555,-25.391,-20.020,-22.461,0.000
1714024752.836,-25.879,-30.762,-23.926,-38.574,0.000
1714024752.840,-28.809,-31.738,-23.438,-41.504,0.000
1714024752.844,-29.297,-29.785,-24.414,-38.086,0.000
1714024752.848,-23.926,-26.367,-25.391,-31.738,0.000
1714024752.851,-28.809,-27.344,-28.809,-34.180,0.000
1714024752.855,-32.715,-27.832,-28.320,-41.016,0.000
1714024752.859,-25.391,-22.461,-25.879,-30.762,0.000
1714024752.863,-24.414,-21.484,-22.949,-26.367,0.000
1714024752.867,-31.738,-26.367,-23.926,-32.227,0.000
1714024752.871,-34.668,-28.320,-30.273,-31.738,0.000
1714024752.875,-33.691,-31.738,-31.738,-26.367,0.000
1714024752.879,-29.785,-30.762,-26.855,-19.531,0.000
1714024752.883,-23.926,-25.391,-20.020,-21.973,0.000
1714024752.886,-27.832,-25.391,-22.949,-30.273,0.000
1714024752.890,-30.273,-29.297,-32.715,-29.785,0.000
1714024752.894,-29.297,-33.691,-33.203,-29.297,0.000
1714024752.898,-27.344,-32.715,-31.738,-25.879,0.000
1714024752.902,-20.508,-25.879,-27.832,-21.484,0.000
1714024752.905,-17.578,-26.367,-23.438,-19.043,0.000
1714024752.909,-21.484,-25.391,-15.625,-16.602,0.000
1714024752.913,-27.344,-27.344,-13.672,-20.020,0.000
1714024752.917,-25.391,-34.668,-24.902,-26.367,0.000
1714024752.921,-26.367,-38.086,-29.297,-20.508,0.000
1714024752.925,-31.250,-31.738,-27.344,-12.207,0.000
1714024752.929,-28.320,-22.949,-23.926,-18.066,0.000
1714024752.933,-26.367,-23.438,-24.902,-30.273,0.000
1714024752.937,-24.414,-28.320,-26.367,-33.203,0.000
1714024752.941,-25.879,-29.297,-25.879,-30.273,0.000
1714024752.944,-35.156,-26.855,-19.043,-36.133,0.000
1714024752.948,-35.645,-27.832,-19.531,-39.062,0.000
1714024752.952,-34.180,-30.762,-24.902,-37.598,0.000
1714024752.955,-38.574,-29.785,-20.996,-35.156,0.000
1714024752.959,-40.039,-30.273,-20.996,-41.504,0.000
1714024752.963,-36.621,-31.250,-28.320,-52.734,0.000
1714024752.967,-33.691,-27.832,-33.203,-48.828,0.000
1714024752.971,-32.715,-23.926,-25.391,-40.527,0.000
1714024752.975,-27.832,-24.414,-20.508,-33.691,0.000
1714024752.979,-27.832,-27.832,-24.902,-34.180,0.000
1714024752.983,-32.715,-31.250,-24.902,-40.039,0.000
1714024752.987,-25.879,-27.832,-22.949,-36.133,0.000
1714024752.990,-25.391,-28.320,-23.438,-33.203,0.000
1714024752.994,-31.250,-29.785,-23.926,-33.203,0.000
1714024752.997,-23.926,-22.949,-22.949,-28.320,0.000
1714024753.001,-21.484,-22.461,-21.973,-25.879,0.000
1714024753.005,-27.344,-22.949,-20.020,-28.809,0.000
1714024753.009,-24.902,-24.902,-18.066,-20.508,0.000
1714024753.013,-22.461,-27.832,-23.438,-24.902,0.000
1714024753.017,-21.484,-21.973,-25.391,-33.203,0.000
1714024753.021,-25.879,-19.531,-24.902,-30.762,0.000
1714024753.025,-24.414,-24.902,-25.879,-23.926,0.000
1714024753.029,-23.438,-26.855,-20.996,-23.438,0.000
1714024753.033,-27.344,-28.320,-21.973,-32.715,0.000
1714024753.037,-23.438,-28.320,-21.484,-30.273,0.000
1714024753.041,-18.555,-23.438,-18.555,-32.715,0.000
1714024753.045,-17.578,-25.391,-29.297,-37.109,0.000
1714024753.049,-24.414,-27.832,-33.691,-39.062,0.000
1714024753.053,-31.250,-27.344,-30.273,-42.480,0.000
1714024753.057,-29.297,-27.832,-30.762,-38.574,0.000
1714024753.061,-23.438,-26.855,-27.832,-34.668,0.000
1714024753.065,-22.461,-25.391,-24.414,-37.109,0.000
1714024753.069,-27.344,-27.832,-25.879,-38.086,0.000
1714024753.073,-35.156,-34.668,-32.715,-30.273,0.000
1714024753.076,-32.715,-31.250,-32.715,-26.367,0.000
1714024753.080,-26.367,-26.367,-31.250,-34.668,0.000
1714024753.085,-29.297,-27.832,-34.668,-33.691,0.000
1714024753.089,-27.344,-24.414,-36.133,-27.832,0.000
1714024753.093,-25.879,-23.438,-34.668,-27.832,0.000
1714024753.096,-28.809,-26.367,-25.879,-24.902,0.000
1714024753.100,-23.438,-24.414,-18.066,-25.879,0.000
1714024753.104,-22.461,-23.926,-24.902,-35.156,0.000
1714024753.108,-26.367,-21.484,-25.391,-31.250,0.000
1714024753.112,-25.391,-18.555,-22.461,-28.809,0.000
1714024753.116,-27.832,-26.855,-26.855,-32.227,0.000
1714024753.120,-34.180,-33.203,-27.832,-27.344,0.000
1714024753.124,-34.668,-29.785,-27.832,-28.320,0.000
1714024753.128,-29.785,-30.762,-25.879,-31.250,0.000
1714024753.132,-31.250,-31.250,-26.367,-36.621,0.000
1714024753.136,-30.762,-27.832,-31.738,-32.715,0.000
1714024753.140,-27.344,-22.949,-34.180,-28.809,0.000
1714024753.143,-25.879,-24.902,-30.762,-28.809,0.000
1714024753.147,-21.973,-27.832,-23.926,-27.832,0.000
1714024753.151,-25.391,-28.320,-22.949,-28.320,0.000
1714024753.155,-31.738,-26.367,-19.531,-23.926,0.000
1714024753.159,-30.762,-26.367,-25.391,-28.809,0.000
1714024753.163,-29.785,-31.250,-32.715,-33.691,0.000
1714024753.167,-37.109,-29.785,-25.879,-39.551,0.000
1714024753.171,-37.598,-26.855,-23.926,-38.574,0.000
1714024753.175,-34.180,-27.344,-30.762,-34.668,0.000
1714024753.179,-29.785,-25.391,-31.738,-40.527,0.000
1714024753.183,-26.367,-23.438,-28.809,-36.133,0.000
1714024753.186,-33.691,-24.902,-25.879,-33.203,0.000
1714024753.190,-37.598,-28.809,-23.438,-35.156,0.000
1714024753.194,-36.621,-27.344,-23.926,-36.621,0.000
1714024753.198,-36.621,-26.855,-27.344,-42.969,0.000
1714024753.202,-34.180,-29.297,-32.227,-45.410,0.000
1714024753.206,-32.715,-27.344,-34.668,-38.574,0.000
1714024753.210,-28.809,-27.344,-28.809,-28.320,0.000
1714024753.214,-29.785,-33.203,-23.926,-33.203,0.000
1714024753.218,-37.109,-40.527,-28.320,-41.504,0.000
1714024753.222,-30.273,-32.715,-29.785,-32.715,0.000
1714024753.225,-21.484,-27.344,-26.367,-24.902,0.000
1714024753.229,-23.926,-30.762,-16.113,-29.297,0.000
1714024753.233,-32.715,-29.785,-19.531,-35.156,0.000
1714024753.237,-39.062,-31.250,-30.273,-35.156,0.000
1714024753.241,-41.504,-30.762,-30.762,-33.203,0.000
1714024753.245,-39.551,-26.855,-30.762,-35.156,0.000
1714024753.249,-37.109,-27.832,-30.273,-40.527,0.000
1714024753.253,-34.668,-24.902,-33.203,-35.645,0.000
1714024753.257,-33.691,-26.367,-36.133,-30.273,0.000
1714024753.260,-30.273,-25.391,-33.203,-31.250,0.000
1714024753.264,-32.227,-24.902,-28.809,-32.715,0.000
1714024753.268,-32.715,-24.902,-26.855,-35.156,0.000
1714024753.272,-30.273,-22.461,-27.344,-33.691,0.000
1714024753.276,-32.227,-25.879,-32.227,-34.668,0.000
1714024753.280,-31.250,-23.926,-37.109,-40.039,0.000
1714024753.283,-34.668,-22.461,-35.645,-45.410,0.000
1714024753.287,-36.621,-26.367,-32.715,-39.062,0.000
1714024753.291,-35.156,-27.344,-32.227,-30.273,0.000
1714024753.295,-31.250,-26.855,-32.227,-25.391,0.000
1714024753.299,-31.738,-26.855,-33.203,-29.785,0.000
1714024753.303,-34.180,-26.855,-35.156,-35.156,0.000
1714024753.307,-33.203,-27.832,-38.574,-27.344,0.000
1714024753.311,-27.344,-24.414,-30.762,-27.832,0.000
1714024753.315,-25.391,-24.414,-27.832,-31.738,0.000
1714024753.318,-23.926,-26.367,-29.297,-27.344,0.000
1714024753.322,-21.973,-26.855,-32.715,-22.461,0.000
1714024753.326,-13.672,-28.809,-30.273,-25.879,0.000
1714024753.330,-8.789,-30.762,-20.508,-34.180,0.000
1714024753.334,-9.766,-31.250,-24.414,-37.598,0.000
1714024753.337,-8.789,-26.367,-33.203,-34.180,0.000
1714024753.341,-5.859,-26.367,-35.156,-28.809,0.000
1714024753.345,-9.766,-26.367,-25.879,-31.738,0.000
1714024753.349,-14.160,-22.949,-21.484,-36.621,0.000
1714024753.353,-18.066,-24.902,-25.879,-35.645,0.000
1714024753.357,-21.973,-23.926,-22.949,-25.879,0.000
1714024753.361,-32.715,-25.391,-21.484,-20.996,0.000
1714024753.364,-40.527,-28.320,-20.508,-27.344,0.000
1714024753.368,-40.039,-27.832,-16.602,-25.879,0.000
1714024753.372,-43.945,-30.273,-17.578,-20.020,0.000
1714024753.376,-43.457,-28.809,-19.531,-23.926,0.000
1714024753.380,-47.363,-28.320,-21.484,-35.645,0.000
1714024753.383,-40.527,-31.250,-23.438,-27.832,0.000
1714024753.387,-26.367,-28.320,-23.438,-5.371,0.000
1714024753.391,-30.762,-21.973,-17.090,-14.648,0.000
1714024753.395,-34.668,-18.555,-17.578,-35.645,0.000
1714024753.399,-30.273,-19.531,-25.391,-31.738,0.000
1714024753.403,-29.785,-20.996,-27.344,-25.391,0.000
1714024753.407,-33.203,-26.855,-29.297,-31.738,0.000
1714024753.412,-30.762,-25.879,-30.273,-36.621,0.000
1714024753.416,-33.691,-20.020,-30.273,-38.574,0.000
1714024753.420,-30.273,-19.043,-26.367,-32.227,0.000
1714024753.423,-23.926,-20.508,-20.508,-25.879,0.000
1714024753.427,-29.297,-22.461,-20.508,-30.273,0.000
1714024753.431,-31.250,-24.902,-21.973,-35.645,0.000
1714024753.435,-27.344,-30.273,-25.391,-34.180,0.000
1714024753.439,-31.738,-32.227,-29.297,-31.738,0.000
1714024753.443,-29.785,-31.250,-24.902,-31.250,0.000
1714024753.447,-23.438,-29.297,-21.973,-24.414,0.000
1714024753.451,-25.391,-24.902,-23.926,-28.809,0.000
1714024753.455,-22.461,-22.461,-23.438,-26.367,0.000
1714024753.459,-20.020,-25.879,-20.996,-16.113,0.000
1714024753.463,-26.367,-31.738,-28.320,-25.391,0.000
1714024753.467,-34.180,-28.809,-35.645,-34.180,0.000
1714024753.471,-31.738,-30.273,-32.227,-27.832,0.000
1714024753.475,-30.762,-35.156,-31.738,-30.273,0.000
1714024753.479,-37.598,-31.738,-36.133,-44.434,0.000
1714024753.483,-33.203,-29.297,-35.156,-44.922,0.000
1714024753.486,-26.367,-27.832,-26.855,-39.551,0.000
1714024753.490,-23.926,-28.809,-32.715,-29.297,0.000
1714024753.494,-22.461,-27.344,-39.062,-24.414,0.000
1714024753.498,-26.367,-23.926,-31.250,-39.062,0.000
1714024753.502,-27.832,-23.438,-28.320,-39.062,0.000
1714024753.506,-27.344,-21.973,-33.203,-26.367,0.000
1714024753.510,-24.414,-22.461,-33.691,-25.879,0.000
1714024753.514,-19.531,-21.973,-26.367,-30.762,0.000
1714024753.518,-20.020,-18.555,-21.484,-21.973,0.000
1714024753.522,-20.996,-23.438,-21.484,-22.461,0.000
1714024753.526,-23.926,-28.809,-24.902,-23.438,0.000
1714024753.530,-29.297,-27.344,-26.855,-24.902,0.000
1714024753.534,-31.250,-29.785,-30.273,-33.691,0.000
1714024753.537,-29.297,-31.250,-34.180,-29.785,0.000
1714024753.541,-27.832,-24.414,-24.902,-17.578,0.000
1714024753.545,-24.902,-24.414,-21.973,-21.484,0.000
1714024753.549,-23.926,-29.785,-26.855,-30.273,0.000
1714024753.553,-26.855,-28.809,-29.297,-30.762,0.000
1714024753.557,-24.902,-27.344,-30.273,-24.902,0.000
1714024753.561,-20.996,-26.367,-32.227,-25.879,0.000
1714024753.565,-21.973,-27.832,-29.297,-33.203,0.000
1714024753.569,-21.973,-23.926,-26.367,-31.738,0.000
1714024753.573,-24.902,-23.438,-30.762,-30.273,0.000
1714024753.577,-29.297,-26.367,-31.738,-36.621,0.000
1714024753.581,-25.879,-25.391,-29.297,-40.039,0.000
1714024753.584,-24.902,-22.461,-28.320,-39.062,0.000
1714024753.588,-28.320,-23.926,-31.738,-37.598,0.000
1714024753.592,-30.762,-29.785,-32.227,-39.062,0.000
1714024753.596,-32.227,-29.297,-30.273,-39.551,0.000
1714024753.600,-34.668,-28.320,-27.344,-41.016,0.000
1714024753.604,-31.738,-25.879,-27.344,-37.109,0.000
1714024753.608,-26.855,-26.855,-30.273,-31.738,0.000
1714024753.612,-24.902,-23.926,-20.508,-33.691,0.000
1714024753.615,-25.391,-22.949,-20.508,-33.203,0.000
1714024753.619,-30.762,-22.949,-31.738,-31.738,0.000
1714024753.623,-34.180,-22.949,-33.203,-38.574,0.000
1714024753.627,-26.367,-24.414,-27.832,-33.691,0.000
1714024753.631,-21.973,-23.438,-21.484,-29.297,0.000
1714024753.635,-25.879,-19.531,-26.367,-35.645,0.000
1714024753.639,-27.344,-19.043,-32.715,-34.668,0.000
1714024753.643,-28.320,-24.902,-29.297,-31.738,0.000
1714024753.646,-27.344,-26.855,-28.320,-33.691,0.000
1714024753.650,-28.809,-28.320,-33.203,-37.598,0.000
1714024753.654,-34.668,-31.250,-32.715,-34.180,0.000
1714024753.658,-32.227,-28.809,-30.273,-28.320,0.000
1714024753.662,-30.762,-23.926,-36.133,-33.203,0.000
1714024753.666,-33.203,-22.949,-38.574,-40.039,0.000
1714024753.670,-30.273,-27.832,-36.621,-34.668,0.000
1714024753.674,-30.273,-28.320,-32.227,-30.762,0.000
1714024753.678,-26.367,-21.484,-29.785,-37.109,0.000
1714024753.681,-25.391,-24.414,-33.691,-41.992,0.000
1714024753.685,-26.855,-26.367,-30.273,-36.133,0.000
1714024753.689,-22.461,-20.996,-23.926,-30.273,0.000
1714024753.693,-23.438,-22.949,-26.367,-35.645,0.000
1714024753.696,-26.367,-24.414,-30.273,-41.016,0.000
1714024753.700,-28.809,-23.438,-26.367,-35.645,0.000
1714024753.704,-28.809,-24.902,-23.438,-26.855,0.000
1714024753.708,-32.715,-26.367,-27.344,-31.250,0.000
1714024753.712,-36.621,-25.879,-28.809,-40.527,0.000
1714024753.716,-31.250,-27.344,-33.203,-39.062,0.000
1714024753.720,-38.086,-31.250,-35.645,-39.062,0.000
1714024753.724,-44.434,-29.297,-33.203,-41.016,0.000
1714024753.728,-40.527,-27.344,-30.762,-37.109,0.000
1714024753.732,-41.992,-26.855,-28.320,-40.527,0.000
1714024753.736,-42.480,-21.484,-28.320,-41.504,0.000
1714024753.739,-31.250,-16.602,-28.320,-29.785,0.000
1714024753.743,-28.320,-20.996,-26.367,-33.203,0.000
1714024753.746,-35.156,-25.391,-28.809,-46.387,0.000
1714024753.750,-26.855,-19.043,-24.414,-34.668,0.000
1714024753.754,-17.090,-18.555,-17.578,-19.531,0.000
1714024753.758,-30.762,-28.320,-18.066,-30.762,0.000
1714024753.762,-42.480,-28.809,-20.508,-42.480,0.000
1714024753.766,-40.527,-23.438,-13.184,-44.922,0.000
1714024753.770,-41.016,-26.367,-1.465,-38.574,0.000
1714024753.774,-40.527,-30.762,-9.277,-37.598,0.000
1714024753.778,-44.922,-32.227,-15.625,-46.875,0.000
1714024753.782,-56.152,-33.203,-11.719,-63.477,0.000
1714024753.787,-67.383,-36.621,-13.184,-69.336,0.000
1714024753.791,-73.730,-41.992,-8.789,-69.336,0.000
1714024753.794,-77.637,-36.621,-1.465,-79.590,0.000
1714024753.798,-82.031,-33.691,0.488,-90.332,0.000
1714024753.802,-89.844,-38.086,-1.465,-90.820,0.000
1714024753.806,-93.262,-37.109,1.953,-85.938,0.000
1714024753.810,-97.656,-40.527,7.812,-93.750,0.000
1714024753.814,-105.957,-38.086,9.277,-108.887,0.000
1714024753.818,-104.004,-35.156,9.766,-107.910,0.000
1714024753.822,-105.957,-40.039,6.836,-99.609,0.000
1714024753.826,-113.281,-34.668,5.371,-107.422,0.000
1714024753.830,-109.375,-28.320,4.883,-116.211,0.000
1714024753.834,-99.609,-27.344,1.465,-115.234,0.000
1714024753.838,-97.168,-25.879,3.906,-112.305,0.000
1714024753.842,-99.121,-21.973,2.930,-109.375,0.000
1714024753.846,-93.750,-19.531,2.930,-106.934,0.000
1714024753.850,-85.449,-23.926,-0.488,-97.168,0.000
1714024753.854,-79.590,-29.785,-5.859,-86.914,0.000
1714024753.857,-75.195,-31.250,-6.348,-81.055,0.000
1714024753.861,-71.777,-29.785,-6.836,-81.055,0.000
1714024753.865,-64.453,-30.762,-12.695,-75.195,0.000
1714024753.869,-58.105,-35.156,-20.996,-64.453,0.000
1714024753.873,-54.688,-37.109,-22.461,-65.918,0.000
1714024753.877,-45.898,-32.227,-22.949,-63.477,0.000
1714024753.881,-35.156,-24.902,-22.461,-51.758,0.000
1714024753.885,-33.691,-28.320,-19.531,-39.062,0.000
1714024753.889,-34.668,-35.156,-19.531,-35.645,0.000
1714024753.893,-30.762,-36.133,-25.391,-34.180,0.000
1714024753.897,-27.832,-33.203,-24.414,-33.691,0.000
1714024753.901,-30.273,-33.691,-20.508,-42.969,0.000
1714024753.905,-29.297,-30.273,-25.391,-41.992,0.000
1714024753.909,-28.809,-30.273,-24.902,-39.062,0.000
1714024753.912,-27.832,-27.832,-18.555,-32.715,0.000
1714024753.916,-22.461,-21.973,-11.719,-28.809,0.000
1714024753.920,-29.785,-31.738,-20.508,-43.457,0.000
1714024753.924,-36.133,-36.621,-35.156,-52.246,0.000
1714024753.928,-41.992,-40.039,-31.738,-62.012,0.000
1714024753.932,-50.781,-39.062,-29.785,-77.148,0.000
1714024753.936,-65.430,-35.156,-25.391,-92.285,0.000
1714024753.940,-82.520,-35.156,-14.648,-101.074,0.000
1714024753.944,-88.379,-27.832,-4.395,-99.121,0.000
1714024753.948,-92.285,-22.461,-0.488,-101.562,0.000
1714024753.952,-95.703,-27.344,-2.930,-107.910,0.000
1714024753.956,-94.238,-29.785,-4.395,-105.469,0.000
1714024753.959,-98.145,-21.973,3.906,-100.586,0.000
1714024753.963,-100.586,-24.414,14.160,-109.863,0.000
1714024753.967,-90.820,-24.902,16.113,-104.492,0.000
1714024753.971,-86.426,-21.973,13.672,-94.727,0.000
1714024753.975,-88.379,-26.855,12.695,-92.773,0.000
1714024753.979,-84.473,-25.879,14.160,-89.844,0.000
1714024753.983,-74.219,-24.414,10.742,-82.520,0.000
1714024753.987,-68.359,-23.438,3.418,-78.125,0.000
1714024753.990,-67.871,-24.414,-4.395,-77.637,0.000
1714024753.994,-61.035,-28.809,-11.719,-69.336,0.000
1714024753.998,-46.387,-28.320,-10.254,-58.594,0.000
1714024754.002,-37.109,-35.645,-11.230,-42.480,0.000
1714024754.006,-36.621,-45.410,-20.996,-36.621,0.000
1714024754.010,-29.785,-42.480,-25.879,-37.598,0.000
1714024754.014,-21.973,-38.574,-26.855,-26.367,0.000
1714024754.018,-16.602,-37.598,-29.785,-21.484,0.000
1714024754.021,-9.277,-34.180,-32.227,-22.949,0.000
1714024754.025,-1.953,-34.180,-39.062,-14.160,0.000
1714024754.029,12.207,-33.203,-42.480,-2.441,0.000
1714024754.033,12.695,-32.715,-43.457,-16.602,0.000
1714024754.037,14.648,-32.715,-48.340,-14.648,0.000
1714024754.041,23.926,-32.715,-47.363,1.953,0.000
1714024754.045,28.320,-32.227,-51.270,2.930,0.000
1714024754.049,27.832,-29.785,-49.316,0.977,0.000
1714024754.053,29.785,-29.785,-43.457,2.930,0.000
1714024754.056,40.527,-25.391,-47.363,11.230,0.000
1714024754.060,40.527,-22.949,-47.363,17.090,0.000
1714024754.064,34.668,-22.949,-45.410,20.020,0.000
1714024754.067,31.738,-23.438,-49.805,18.066,0.000
1714024754.071,24.902,-22.949,-55.176,15.625,0.000
1714024754.075,15.137,-26.367,-57.129,5.371,0.000
1714024754.079,12.207,-30.762,-56.152,-4.395,0.000
1714024754.083,20.020,-29.785,-54.199,3.418,0.000
1714024754.087,22.461,-27.344,-52.734,5.371,0.000
1714024754.091,19.043,-29.785,-52.734,11.230,0.000
1714024754.095,20.020,-24.414,-46.875,16.113,0.000
1714024754.099,17.090,-21.484,-39.551,7.812,0.000
1714024754.103,12.207,-30.762,-39.062,8.789,0.000
1714024754.107,9.766,-31.738,-43.945,10.742,0.000
1714024754.110,8.301,-25.391,-46.387,7.812,0.000
1714024754.114,9.277,-24.902,-45.410,2.930,0.000
1714024754.117,7.812,-28.809,-47.852,-0.977,0.000
1714024754.121,7.324,-30.273,-46.387,2.441,0.000
1714024754.125,10.254,-32.227,-43.457,0.488,0.000
1714024754.129,12.695,-28.320,-39.551,-6.836,0.000
1714024754.133,11.719,-21.973,-42.480,0.000,0.000
1714024754.137,4.883,-24.414,-52.246,2.930,0.000
1714024754.141,3.906,-22.949,-46.387,-2.441,0.000
1714024754.145,8.789,-18.066,-41.016,-8.301,0.000
1714024754.149,9.766,-15.137,-43.945,-11.230,0.000
1714024754.153,9.766,-15.137,-45.898,-4.395,0.000
1714024754.157,13.672,-14.160,-45.410,1.953,0.000
1714024754.161,14.160,-15.137,-46.387,0.488,0.000
1714024754.165,7.812,-16.602,-46.875,-12.695,0.000
1714024754.169,3.418,-15.625,-47.363,-13.672,0.000
1714024754.173,1.465,-14.648,-42.480,1.465,0.000
1714024754.177,-3.418,-22.461,-42.480,-0.977,0.000
1714024754.181,-11.719,-25.879,-47.363,-14.160,0.000
1714024754.185,-12.207,-25.391,-43.457,-15.137,0.000
1714024754.189,-7.812,-27.832,-36.133,-8.301,0.000
1714024754.193,-3.906,-26.367,-39.551,-0.488,0.000
1714024754.197,-5.859,-26.855,-44.922,-1.953,0.000
1714024754.200,-1.465,-25.879,-41.016,-4.395,0.000
1714024754.204,3.906,-24.414,-44.434,-8.301,0.000
1714024754.209,-2.930,-23.926,-46.875,-14.160,0.000
1714024754.213,-4.395,-25.391,-42.969,-14.160,0.000
1714024754.217,-8.789,-29.297,-36.621,-16.602,0.000
1714024754.221,-14.160,-26.855,-33.691,-16.113,0.000
1714024754.225,-10.742,-28.320,-38.574,-10.254,0.000
1714024754.228,-6.348,-28.809,-39.551,-12.695,0.000
1714024754.232,-9.277,-27.832,-32.227,-18.066,0.000
1714024754.236,-13.672,-27.344,-28.809,-15.625,0.000
1714024754.240,-13.672,-22.461,-37.109,-5.371,0.000
1714024754.244,-18.555,-23.926,-41.016,-3.906,0.000
1714024754.248,-24.414,-26.855,-40.527,-18.066,0.000
1714024754.252,-22.461,-27.832,-38.574,-17.090,0.000
1714024754.256,-20.020,-32.715,-37.109,-16.602,0.000
1714024754.260,-20.020,-29.297,-36.133,-22.461,0.000
1714024754.264,-19.043,-24.414,-31.738,-28.320,0.000
1714024754.268,-21.484,-26.855,-33.691,-27.832,0.000
1714024754.272,-20.996,-25.391,-33.203,-25.879,0.000
1714024754.276,-11.230,-23.926,-26.855,-20.996,0.000
1714024754.280,-9.766,-22.949,-26.367,-19.043,0.000
1714024754.284,-14.648,-21.484,-29.785,-25.879,0.000
1714024754.287,-16.602,-26.367,-37.598,-20.020,0.000
1714024754.291,-12.695,-23.926,-36.133,-14.160,0.000
1714024754.295,-8.301,-14.648,-27.344,-18.066,0.000
1714024754.299,-12.695,-14.648,-24.902,-24.414,0.000
1714024754.303,-15.137,-18.555,-23.926,-23.438,0.000
1714024754.307,-12.695,-15.625,-22.949,-12.695,0.000
1714024754.311,-10.742,-17.090,-24.902,-10.742,0.000
1714024754.315,-15.625,-22.461,-25.879,-16.602,0.000
1714024754.319,-19.043,-20.996,-29.297,-16.113,0.000
1714024754.323,-16.602,-19.043,-34.180,-12.207,0.000
1714024754.327,-10.254,-15.137,-25.391,-9.277,0.000
1714024754.331,-8.301,-16.113,-26.855,-15.625,0.000
1714024754.334,-8.301,-18.555,-31.250,-19.531,0.000
1714024754.338,-8.301,-17.578,-26.855,-21.973,0.000
1714024754.342,-13.184,-18.555,-27.344,-23.438,0.000
1714024754.346,-15.137,-21.484,-28.320,-22.461,0.000
1714024754.350,-16.113,-28.320,-30.273,-26.855,0.000
1714024754.354,-15.137,-27.344,-29.785,-23.926,0.000
