timestamps,TP9,AF7,AF8,TP10,Right AUX
1714025634.229,-138.672,-29.785,30.273,-133.301,0.000
1714025634.233,-136.230,-34.668,35.645,-130.371,0.000
1714025634.237,-141.113,-32.715,44.922,-128.906,0.000
1714025634.241,-138.672,-26.855,47.852,-122.559,0.000
1714025634.245,-117.676,-32.715,49.316,-108.887,0.000
1714025634.249,-121.582,-44.434,40.039,-107.910,0.000
1714025634.253,-122.559,-43.457,29.785,-103.516,0.000
1714025634.257,-105.957,-42.480,30.273,-92.285,0.000
1714025634.261,-93.262,-42.969,32.227,-85.449,0.000
1714025634.265,-81.055,-42.969,20.508,-73.730,0.000
1714025634.269,-71.777,-44.922,18.555,-65.918,0.000
1714025634.272,-66.406,-41.016,18.555,-62.500,0.000
1714025634.278,-53.711,-39.062,14.648,-48.828,0.000
1714025634.282,-39.062,-36.621,10.742,-39.551,0.000
1714025634.286,-33.691,-35.156,-1.465,-39.062,0.000
1714025634.290,-30.762,-37.598,-21.484,-39.062,0.000
1714025634.294,-26.855,-43.945,-24.902,-34.668,0.000
1714025634.298,-20.020,-44.922,-20.020,-23.926,0.000
1714025634.301,-10.742,-41.016,-23.926,-15.137,0.000
1714025634.305,-10.742,-38.574,-21.484,-15.137,0.000
1714025634.309,-10.742,-38.574,-28.320,-9.277,0.000
1714025634.313,-6.348,-40.527,-35.645,2.441,0.000
1714025634.317,-1.953,-41.992,-31.250,-0.488,0.000
1714025634.321,-1.465,-45.410,-34.668,-5.371,0.000
1714025634.326,1.465,-41.016,-40.039,3.418,0.000
1714025634.330,5.859,-36.133,-38.086,7.324,0.000
1714025634.333,2.441,-39.062,-41.016,1.465,0.000
1714025634.337,-0.488,-40.527,-46.875,3.418,0.000
1714025634.341,2.930,-35.645,-44.434,8.301,0.000
1714025634.345,0.977,-32.715,-43.945,3.906,0.000
1714025634.349,0.488,-33.691,-50.293,0.000,0.000
1714025634.353,3.906,-31.250,-50.293,0.977,0.000
1714025634.357,4.883,-30.762,-47.852,8.301,0.000
1714025634.361,4.883,-30.273,-47.363,3.906,0.000
1714025634.365,6.836,-23.438,-41.992,-1.953,0.000
1714025634.369,6.836,-22.949,-45.898,2.930,0.000
1714025634.372,3.906,-24.902,-54.688,3.906,0.000
1714025634.376,4.395,-23.438,-48.828,0.977,0.000
1714025634.380,6.348,-25.879,-46.875,-0.488,0.000
1714025634.384,4.883,-24.414,-47.852,0.977,0.000
1714025634.388,10.742,-22.461,-46.875,0.977,0.000
1714025634.392,21.484,-18.066,-45.898,-3.906,0.000
1714025634.396,21.973,-11.230,-42.969,-2.930,0.000
1714025634.400,22.461,-16.602,-54.199,1.465,0.000
1714025634.404,28.320,-21.484,-60.059,3.418,0.000
1714025634.408,34.668,-14.160,-47.363,5.859,0.000
1714025634.411,31.738,-12.207,-39.551,9.277,0.000
1714025634.415,20.020,-18.555,-38.086,13.672,0.000
1714025634.419,4.395,-23.438,-47.852,2.930,0.000
1714025634.422,-5.859,-25.879,-51.758,-8.301,0.000
1714025634.426,-7.324,-28.809,-48.340,-4.883,0.000
1714025634.430,-9.277,-29.785,-42.969,0.000,0.000
1714025634.434,-8.789,-25.391,-34.668,3.418,0.000
1714025634.438,-6.836,-22.949,-37.109,6.348,0.000
1714025634.442,-4.883,-26.855,-41.504,4.883,0.000
1714025634.446,-3.418,-24.902,-44.922,4.883,0.000
1714025634.450,-13.672,-20.020,-46.387,-0.488,0.000
1714025634.454,-14.160,-28.320,-43.457,-4.883,0.000
1714025634.458,-15.137,-33.691,-38.086,-3.906,0.000
1714025634.461,-18.555,-23.926,-34.668,-6.836,0.000
1714025634.464,-20.508,-22.949,-40.527,-7.812,0.000
1714025634.468,-16.602,-21.484,-37.109,-4.395,0.000
1714025634.472,-14.160,-23.438,-35.645,-9.766,0.000
1714025634.476,-19.531,-26.855,-44.434,-26.367,0.000
1714025634.480,-13.672,-23.438,-41.504,-22.949,0.000
1714025634.484,-7.324,-24.414,-35.645,-9.766,0.000
1714025634.488,-3.906,-24.414,-30.273,-7.812,0.000
1714025634.492,-7.812,-30.273,-27.344,-11.230,0.000
1714025634.496,-9.766,-24.414,-24.902,-7.812,0.000
1714025634.500,-0.977,-13.184,-23.926,-4.395,0.000
1714025634.503,-3.906,-15.625,-25.391,-10.742,0.000
1714025634.507,-10.742,-17.578,-32.715,-19.531,0.000
1714025634.510,-6.348,-19.531,-27.832,-19.531,0.000
1714025634.514,-5.859,-21.484,-26.367,-18.555,0.000
1714025634.518,-8.789,-19.043,-26.855,-15.137,0.000
1714025634.522,-5.859,-16.602,-26.367,-8.301,0.000
1714025634.525,-8.789,-21.973,-32.715,-15.625,0.000
1714025634.529,-15.625,-23.926,-33.203,-19.043,0.000
1714025634.533,-7.812,-18.066,-36.133,-9.277,0.000
1714025634.537,-7.324,-17.090,-35.156,-8.301,0.000
1714025634.541,-15.137,-19.531,-25.391,-18.066,0.000
1714025634.545,-10.742,-19.531,-20.996,-14.160,0.000
1714025634.549,-9.766,-19.043,-29.297,-11.719,0.000
1714025634.553,-20.020,-17.578,-39.551,-25.879,0.000
1714025634.555,-18.555,-17.090,-33.691,-30.273,0.000
1714025634.559,-16.113,-19.531,-31.250,-33.203,0.000
1714025634.563,-19.043,-27.344,-48.340,-26.855,0.000
1714025634.567,-20.996,-22.949,-53.223,-22.461,0.000
1714025634.571,-24.902,-20.996,-33.691,-23.926,0.000
1714025634.575,-22.949,-22.461,-22.461,-21.484,0.000
1714025634.578,-18.066,-27.344,-23.438,-16.602,0.000
1714025634.582,-19.531,-29.785,-16.602,-21.484,0.000
1714025634.586,-26.367,-26.367,-26.855,-35.645,0.000
1714025634.590,-29.297,-29.297,-43.945,-34.668,0.000
1714025634.594,-27.344,-26.855,-34.668,-27.344,0.000
1714025634.598,-23.926,-24.414,-27.832,-24.414,0.000
1714025634.600,-23.926,-26.367,-37.109,-22.949,0.000
1714025634.604,-28.809,-25.879,-37.598,-28.809,0.000
1714025634.608,-24.414,-24.902,-30.273,-21.484,0.000
1714025634.612,-23.438,-25.391,-29.785,-14.648,0.000
1714025634.616,-26.367,-24.902,-36.133,-21.484,0.000
1714025634.620,-23.438,-19.531,-38.574,-22.949,0.000
1714025634.624,-26.367,-20.020,-36.133,-29.785,0.000
1714025634.628,-28.320,-30.273,-33.203,-30.762,0.000
1714025634.631,-25.879,-32.227,-29.297,-23.438,0.000
1714025634.635,-23.926,-29.785,-29.785,-19.043,0.000
1714025634.639,-22.461,-28.320,-32.715,-22.461,0.000
1714025634.643,-21.484,-26.855,-32.227,-18.555,0.000
1714025634.650,-23.926,-28.320,-29.297,-14.160,0.000
1714025634.654,-17.578,-28.320,-22.949,-15.137,0.000
1714025634.658,-9.277,-21.973,-28.809,-15.625,0.000
1714025634.662,-19.043,-22.461,-33.691,-18.066,0.000
1714025634.665,-20.996,-26.855,-30.762,-20.996,0.000
1714025634.669,-15.137,-26.855,-30.762,-25.879,0.000
1714025634.673,-20.020,-28.809,-28.320,-30.762,0.000
1714025634.677,-20.508,-24.902,-33.203,-34.668,0.000
1714025634.681,-23.926,-23.438,-29.785,-29.785,0.000
1714025634.685,-23.926,-28.320,-26.855,-21.484,0.000
1714025634.689,-16.602,-29.785,-36.133,-29.785,0.000
1714025634.693,-20.996,-30.273,-41.992,-33.203,0.000
1714025634.698,-23.438,-26.367,-45.898,-23.926,0.000
1714025634.702,-26.367,-32.715,-41.992,-26.855,0.000
1714025634.706,-33.691,-31.738,-36.621,-32.715,0.000
1714025634.710,-32.715,-22.949,-36.133,-26.367,0.000
1714025634.714,-33.203,-22.949,-33.203,-26.367,0.000
1714025634.718,-28.320,-25.879,-26.367,-23.926,0.000
1714025634.722,-23.438,-26.367,-23.438,-21.484,0.000
1714025634.725,-26.855,-28.320,-32.227,-32.715,0.000
1714025634.729,-19.043,-27.344,-33.203,-24.902,0.000
1714025634.733,-15.137,-21.484,-26.855,-17.578,0.000
1714025634.737,-23.438,-24.414,-27.832,-29.785,0.000
1714025634.741,-28.809,-21.973,-26.367,-37.598,0.000
1714025634.745,-30.273,-20.996,-25.391,-39.062,0.000
1714025634.749,-27.832,-21.973,-22.949,-36.133,0.000
1714025634.753,-20.996,-22.461,-15.137,-31.250,0.000
1714025634.757,-20.508,-26.367,-15.137,-25.879,0.000
1714025634.761,-30.273,-27.832,-21.484,-30.273,0.000
1714025634.765,-29.785,-29.297,-24.414,-26.855,0.000
1714025634.769,-22.461,-25.879,-24.902,-17.090,0.000
1714025634.773,-26.367,-26.855,-28.809,-22.461,0.000
1714025634.777,-26.855,-27.832,-33.203,-18.555,0.000
1714025634.780,-21.973,-22.949,-26.855,-18.555,0.000
1714025634.784,-17.090,-19.043,-22.949,-18.555,0.000
1714025634.788,-10.742,-19.043,-21.484,-13.672,0.000
1714025634.792,-22.461,-27.344,-11.719,-29.785,0.000
1714025634.796,-25.879,-24.414,-9.277,-22.949,0.000
1714025634.800,-20.508,-24.414,-21.484,-16.113,0.000
1714025634.804,-27.344,-32.715,-28.809,-24.414,0.000
1714025634.808,-16.602,-23.438,-29.785,-16.602,0.000
1714025634.812,-12.695,-19.531,-26.855,-22.461,0.000
1714025634.816,-18.066,-19.531,-24.414,-28.320,0.000
1714025634.819,-20.508,-17.578,-30.273,-21.484,0.000
1714025634.823,-25.879,-20.508,-29.297,-24.414,0.000
1714025634.827,-24.902,-17.090,-28.320,-28.809,0.000
1714025634.831,-20.020,-19.043,-28.809,-21.973,0.000
1714025634.835,-20.996,-24.902,-32.715,-22.461,0.000
1714025634.838,-26.855,-23.438,-35.156,-32.715,0.000
1714025634.842,-31.250,-26.367,-26.855,-32.715,0.000
1714025634.846,-28.809,-28.320,-33.203,-27.832,0.000
1714025634.850,-23.438,-25.879,-40.527,-34.668,0.000
1714025634.854,-30.762,-26.855,-39.062,-34.668,0.000
1714025634.858,-33.203,-23.438,-38.086,-22.461,0.000
1714025634.862,-27.344,-22.949,-35.156,-10.254,0.000
1714025634.866,-28.809,-28.320,-29.297,-2.930,0.000
1714025634.869,-35.645,-26.855,-23.438,-13.184,0.000
1714025634.873,-38.574,-26.855,-24.902,-17.578,0.000
1714025634.877,-32.227,-25.879,-27.344,-31.738,0.000
1714025634.881,-22.949,-18.555,-22.949,-41.992,0.000
1714025634.884,-26.855,-17.090,-22.949,-38.086,0.000
1714025634.888,-24.414,-19.531,-27.344,-33.203,0.000
1714025634.892,-20.020,-18.555,-25.879,-29.785,0.000
1714025634.896,-25.879,-20.996,-24.902,-32.715,0.000
1714025634.900,-19.531,-24.902,-26.855,-24.414,0.000
1714025634.904,-15.137,-22.461,-34.180,-23.926,0.000
1714025634.908,-19.043,-27.344,-34.668,-26.855,0.000
1714025634.911,-22.949,-29.297,-21.484,-22.949,0.000
1714025634.915,-24.902,-23.438,-22.949,-29.297,0.000
1714025634.919,-20.508,-21.484,-29.785,-23.926,0.000
1714025634.923,-13.672,-18.555,-22.949,-15.137,0.000
1714025634.927,-14.160,-18.555,-16.113,-13.184,0.000
1714025634.930,-14.648,-21.484,-23.926,-20.996,0.000
1714025634.933,-15.137,-21.484,-31.738,-29.297,0.000
1714025634.937,-18.555,-20.508,-33.203,-21.484,0.000
1714025634.941,-21.973,-17.090,-33.691,-21.484,0.000
1714025634.945,-20.996,-18.555,-28.809,-20.996,0.000
1714025634.949,-14.160,-21.484,-24.902,-16.113,0.000
1714025634.953,-15.137,-19.531,-26.367,-15.625,0.000
1714025634.957,-23.926,-16.113,-22.461,-17.090,0.000
1714025634.961,-27.832,-19.043,-20.508,-22.461,0.000
1714025634.965,-29.297,-23.438,-23.926,-26.367,0.000
1714025634.969,-36.621,-26.367,-31.250,-28.809,0.000
1714025634.973,-41.992,-28.320,-34.668,-34.668,0.000
1714025634.975,-42.969,-24.902,-31.250,-32.715,0.000
1714025634.979,-34.668,-20.996,-25.879,-16.113,0.000
1714025634.983,-28.320,-22.949,-24.902,-15.137,0.000
1714025634.987,-31.250,-29.297,-27.832,-20.996,0.000
1714025634.991,-31.738,-25.879,-31.738,-18.066,0.000
1714025634.994,-33.203,-20.996,-41.992,-20.508,0.000
1714025634.998,-31.738,-18.066,-36.133,-22.949,0.000
1714025635.002,-27.832,-18.066,-24.902,-27.832,0.000
1714025635.006,-32.227,-19.531,-26.855,-38.086,0.000
1714025635.010,-30.273,-20.996,-28.809,-30.273,0.000
1714025635.014,-29.785,-20.508,-23.926,-21.484,0.000
1714025635.018,-36.133,-21.973,-29.785,-34.668,0.000
1714025635.025,-29.785,-24.902,-33.691,-33.691,0.000
1714025635.029,-27.832,-22.949,-22.461,-31.738,0.000
1714025635.033,-36.133,-24.414,-21.484,-41.992,0.000
1714025635.037,-34.180,-22.461,-33.203,-46.875,0.000
1714025635.040,-37.598,-24.414,-41.016,-46.387,0.000
1714025635.044,-42.969,-27.832,-36.133,-41.992,0.000
1714025635.048,-41.504,-25.391,-27.344,-46.875,0.000
1714025635.052,-42.969,-23.926,-23.438,-55.176,0.000
1714025635.056,-44.922,-20.996,-21.484,-53.223,0.000
1714025635.060,-52.246,-24.414,-17.578,-45.410,0.000
1714025635.064,-60.059,-24.414,-18.555,-53.711,0.000
1714025635.068,-62.988,-19.531,-26.367,-63.477,0.000
1714025635.073,-67.383,-21.484,-24.414,-66.895,0.000
1714025635.077,-76.660,-24.902,-10.742,-73.730,0.000
1714025635.081,-85.938,-27.344,-8.301,-88.379,0.000
1714025635.085,-86.914,-31.250,-15.625,-99.121,0.000
1714025635.089,-73.242,-31.738,-11.230,-99.121,0.000
1714025635.093,-79.590,-29.297,-3.418,-104.492,0.000
1714025635.096,-98.145,-31.738,4.883,-117.676,0.000
1714025635.100,-93.750,-24.902,10.254,-117.188,0.000
1714025635.104,-86.914,-18.555,13.672,-97.168,0.000
1714025635.108,-88.379,-24.414,15.625,-100.586,0.000
1714025635.112,-95.703,-25.391,19.531,-106.445,0.000
1714025635.116,-109.375,-28.809,24.902,-104.492,0.000
1714025635.121,-119.141,-30.762,22.949,-108.887,0.000
1714025635.124,-114.258,-26.855,15.625,-102.539,0.000
1714025635.128,-116.699,-30.762,17.578,-105.957,0.000
1714025635.132,-123.535,-33.691,22.461,-108.398,0.000
1714025635.136,-110.840,-27.344,24.414,-96.680,0.000
1714025635.140,-101.074,-31.250,23.926,-91.309,0.000
1714025635.144,-98.633,-31.738,16.113,-94.727,0.000
1714025635.148,-83.496,-28.809,11.230,-84.473,0.000
1714025635.152,-78.125,-32.227,16.113,-76.172,0.000
1714025635.156,-84.961,-27.832,16.113,-83.984,0.000
1714025635.160,-74.707,-25.391,16.602,-77.637,0.000
1714025635.163,-78.613,-27.344,10.254,-79.590,0.000
1714025635.167,-74.707,-21.484,5.371,-67.383,0.000
1714025635.171,-60.547,-27.832,8.789,-46.875,0.000
1714025635.175,-65.430,-33.203,8.301,-59.082,0.000
1714025635.179,-62.500,-30.273,3.418,-69.824,0.000
1714025635.183,-63.477,-31.250,0.000,-80.078,0.000
1714025635.187,-64.453,-29.297,-1.953,-72.266,0.000
1714025635.191,-65.430,-33.203,-7.812,-72.266,0.000
1714025635.195,-75.684,-32.227,-8.301,-78.613,0.000
1714025635.199,-85.938,-29.297,-4.395,-80.566,0.000
1714025635.202,-92.285,-25.391,-1.465,-94.238,0.000
1714025635.206,-87.891,-25.391,-4.395,-96.680,0.000
1714025635.210,-86.914,-28.809,-0.977,-96.680,0.000
1714025635.213,-83.496,-22.949,10.742,-91.309,0.000
1714025635.217,-83.984,-18.555,4.883,-94.727,0.000
1714025635.221,-87.891,-17.578,-7.324,-103.516,0.000
1714025635.225,-87.891,-17.578,-9.766,-94.238,0.000
1714025635.229,-86.426,-20.996,-6.348,-88.379,0.000
1714025635.233,-83.984,-27.344,0.488,-93.262,0.000
1714025635.237,-81.543,-28.320,-4.395,-91.797,0.000
1714025635.241,-76.172,-29.785,-13.672,-86.914,0.000
1714025635.244,-76.172,-30.762,-7.324,-79.590,0.000
1714025635.248,-71.777,-26.367,-0.488,-65.918,0.000
1714025635.252,-59.082,-25.391,-7.812,-57.617,0.000
1714025635.256,-50.293,-25.391,-15.137,-53.711,0.000
1714025635.259,-46.875,-23.438,-13.672,-46.387,0.000
1714025635.263,-44.922,-27.344,-14.160,-37.598,0.000
1714025635.267,-31.250,-26.855,-14.648,-27.832,0.000
1714025635.271,-20.020,-19.043,-18.066,-22.949,0.000
1714025635.274,-17.090,-20.020,-22.949,-19.043,0.000
1714025635.278,-3.906,-25.391,-22.949,-11.719,0.000
1714025635.282,6.348,-26.367,-25.391,1.953,0.000
1714025635.286,7.324,-25.879,-37.109,1.953,0.000
1714025635.290,4.395,-27.832,-46.875,-10.254,0.000
1714025635.294,9.277,-29.785,-55.664,-5.859,0.000
1714025635.298,16.113,-31.250,-56.152,4.883,0.000
1714025635.302,14.160,-35.645,-51.270,6.836,0.000
1714025635.304,11.719,-33.691,-52.246,2.930,0.000
1714025635.308,10.742,-33.691,-52.734,5.371,0.000
1714025635.312,11.230,-42.969,-45.898,15.625,0.000
1714025635.316,18.066,-43.945,-47.852,15.137,0.000
1714025635.320,21.973,-38.086,-58.105,7.324,0.000
1714025635.324,27.344,-37.109,-59.082,10.254,0.000
1714025635.328,31.738,-35.645,-52.246,22.461,0.000
1714025635.332,30.273,-30.273,-45.898,24.902,0.000
1714025635.336,27.344,-31.250,-44.922,13.184,0.000
1714025635.340,24.414,-34.668,-52.246,8.301,0.000
1714025635.343,27.832,-32.715,-61.035,15.137,0.000
1714025635.347,29.785,-27.344,-57.129,21.973,0.000
1714025635.354,28.320,-27.832,-51.758,24.414,0.000
1714025635.358,27.344,-29.785,-60.059,20.996,0.000
1714025635.362,23.438,-35.645,-64.453,16.602,0.000
1714025635.366,25.391,-37.109,-56.641,20.996,0.000
1714025635.370,30.762,-32.227,-47.852,26.855,0.000
1714025635.374,25.391,-33.691,-43.945,25.879,0.000
1714025635.378,17.578,-33.203,-45.898,20.996,0.000
1714025635.382,13.184,-28.809,-44.922,13.184,0.000
1714025635.386,12.695,-27.832,-46.875,12.207,0.000
1714025635.389,16.113,-28.809,-53.711,15.625,0.000
1714025635.393,16.113,-21.973,-47.363,18.066,0.000
1714025635.397,14.160,-21.973,-37.109,15.625,0.000
1714025635.403,14.160,-26.367,-39.551,10.254,0.000
1714025635.407,13.184,-27.344,-41.016,16.113,0.000
1714025635.411,9.766,-28.809,-39.551,15.137,0.000
1714025635.415,9.277,-24.414,-36.133,8.301,0.000
1714025635.419,11.230,-22.461,-32.227,18.555,0.000
1714025635.423,10.254,-27.832,-42.480,17.578,0.000
1714025635.426,1.465,-26.855,-47.363,3.418,0.000
1714025635.430,-0.977,-24.414,-46.387,-1.465,0.000
1714025635.434,3.418,-30.273,-47.363,3.906,0.000
1714025635.438,5.371,-27.344,-37.598,15.137,0.000
1714025635.442,6.836,-17.578,-32.715,14.160,0.000
1714025635.446,5.859,-13.184,-38.574,12.207,0.000
1714025635.450,0.977,-13.672,-39.551,15.625,0.000
1714025635.454,0.977,-12.695,-36.133,16.113,0.000
1714025635.458,1.465,-12.207,-34.668,9.766,0.000
1714025635.462,-0.488,-15.137,-37.598,0.000,0.000
1714025635.466,-1.953,-16.602,-44.922,-6.348,0.000
1714025635.470,0.977,-13.672,-41.016,-6.836,0.000
1714025635.474,-5.859,-15.625,-33.691,-6.836,0.000
1714025635.478,-7.324,-14.160,-29.785,-8.789,0.000
1714025635.482,1.953,-15.137,-30.273,2.441,0.000
1714025635.485,-2.930,-20.508,-39.062,8.301,0.000
1714025635.489,-3.418,-15.625,-42.969,3.418,0.000
1714025635.493,-0.488,-15.625,-41.992,1.953,0.000
1714025635.497,-4.883,-16.113,-38.086,-2.930,0.000
1714025635.501,-3.418,-12.207,-29.785,-1.953,0.000
1714025635.505,-1.465,-14.648,-38.574,-2.930,0.000
1714025635.509,-2.441,-18.066,-50.781,-11.719,0.000
1714025635.513,-0.488,-20.020,-42.480,-15.625,0.000
1714025635.516,-6.836,-22.949,-40.527,-15.137,0.000
1714025635.520,-13.184,-24.414,-37.598,-15.625,0.000
1714025635.524,-11.230,-25.879,-34.668,-14.160,0.000
1714025635.528,-10.742,-30.273,-34.180,-11.230,0.000
1714025635.532,-16.113,-28.809,-35.156,-13.184,0.000
1714025635.536,-15.625,-21.484,-40.527,-16.602,0.000
1714025635.540,-4.883,-18.555,-36.133,-18.066,0.000
1714025635.543,-0.488,-20.996,-33.203,-21.484,0.000
1714025635.547,-11.719,-22.461,-36.621,-29.297,0.000
1714025635.551,-15.625,-23.438,-38.086,-28.809,0.000
1714025635.555,-11.230,-24.414,-34.668,-19.531,0.000
1714025635.559,-11.719,-21.973,-33.691,-15.625,0.000
1714025635.563,-13.184,-26.855,-29.785,-23.926,0.000
1714025635.567,-13.672,-25.391,-22.949,-25.391,0.000
1714025635.571,-8.301,-17.578,-23.438,-13.184,0.000
1714025635.575,-14.160,-24.902,-26.367,-21.484,0.000
1714025635.579,-20.020,-25.879,-28.809,-34.180,0.000
1714025635.582,-19.531,-19.043,-33.203,-25.879,0.000
1714025635.586,-19.043,-12.695,-28.809,-18.066,0.000
1714025635.589,-11.230,-9.766,-24.902,-14.648,0.000
1714025635.593,-6.348,-11.719,-31.250,-17.090,0.000
1714025635.597,-8.301,-20.508,-36.621,-19.531,0.000
1714025635.601,-14.648,-21.973,-33.203,-20.996,0.000
1714025635.605,-18.555,-19.531,-35.156,-22.461,0.000
1714025635.609,-25.391,-27.344,-40.039,-26.855,0.000
1714025635.613,-29.785,-28.320,-47.852,-24.414,0.000
1714025635.616,-23.926,-21.484,-51.270,-13.184,0.000
1714025635.620,-17.090,-20.020,-39.062,-16.602,0.000
1714025635.624,-20.020,-27.832,-35.645,-30.273,0.000
1714025635.628,-19.043,-24.902,-36.621,-24.414,0.000
1714025635.632,-14.160,-19.043,-28.320,-15.137,0.000
1714025635.635,-21.484,-25.879,-27.832,-21.484,0.000
1714025635.639,-26.855,-26.855,-37.598,-27.832,0.000
1714025635.642,-31.738,-23.438,-37.109,-24.414,0.000
1714025635.646,-33.691,-18.066,-34.180,-22.461,0.000
1714025635.650,-30.762,-15.625,-34.668,-20.996,0.000
1714025635.654,-28.809,-18.555,-37.109,-20.020,0.000
1714025635.658,-26.855,-23.926,-40.527,-18.555,0.000
1714025635.662,-27.344,-26.855,-32.715,-21.973,0.000
1714025635.666,-31.738,-28.809,-34.180,-34.180,0.000
1714025635.670,-34.668,-29.785,-40.039,-33.203,0.000
1714025635.674,-31.250,-30.273,-35.645,-36.133,0.000
1714025635.678,-31.738,-31.738,-37.109,-30.762,0.000
1714025635.680,-28.320,-34.180,-34.668,-22.949,0.000
1714025635.684,-23.438,-35.645,-28.320,-23.438,0.000
1714025635.688,-24.902,-25.391,-31.738,-20.020,0.000
1714025635.692,-23.926,-21.484,-25.879,-15.137,0.000
1714025635.696,-22.461,-30.273,-24.414,-16.113,0.000
1714025635.700,-24.414,-31.250,-37.109,-19.531,0.000
1714025635.704,-27.344,-25.879,-38.086,-20.020,0.000
1714025635.708,-28.809,-24.902,-32.227,-25.391,0.000
1714025635.711,-25.879,-26.367,-31.250,-32.227,0.000
1714025635.715,-27.344,-28.809,-38.086,-34.668,0.000
1714025635.719,-27.832,-27.344,-31.250,-32.227,0.000
1714025635.723,-25.391,-27.832,-28.320,-29.297,0.000
1714025635.730,-27.832,-28.320,-42.969,-27.832,0.000
1714025635.734,-31.250,-29.297,-41.992,-26.367,0.000
1714025635.738,-23.438,-30.762,-38.086,-33.203,0.000
1714025635.742,-18.555,-29.785,-31.738,-40.527,0.000
1714025635.746,-24.902,-26.855,-34.180,-36.133,0.000
1714025635.750,-23.926,-20.996,-34.180,-31.250,0.000
1714025635.753,-18.555,-23.438,-20.508,-29.297,0.000
1714025635.757,-23.926,-25.879,-23.438,-29.785,0.000
1714025635.761,-26.367,-23.438,-30.762,-32.227,0.000
1714025635.765,-24.902,-23.438,-31.250,-26.855,0.000
1714025635.769,-21.484,-21.973,-28.809,-29.297,0.000
1714025635.773,-18.066,-22.949,-25.391,-36.621,0.000
1714025635.778,-14.160,-23.926,-26.855,-40.039,0.000
1714025635.782,-5.371,-20.508,-28.320,-37.109,0.000
1714025635.786,-0.488,-19.043,-31.250,-33.691,0.000
1714025635.790,-5.371,-24.414,-32.715,-41.016,0.000
1714025635.794,-8.789,-24.414,-33.691,-41.992,0.000
1714025635.798,-12.695,-22.949,-36.621,-33.203,0.000
1714025635.802,-20.020,-22.461,-29.785,-29.785,0.000
1714025635.806,-20.996,-22.461,-28.809,-29.297,0.000
1714025635.810,-20.508,-22.949,-20.996,-20.020,0.000
1714025635.814,-25.879,-27.832,-17.090,-17.578,0.000
1714025635.817,-34.180,-31.738,-29.785,-31.738,0.000
1714025635.821,-35.156,-34.180,-32.227,-37.109,0.000
1714025635.826,-31.250,-29.785,-32.715,-38.086,0.000
1714025635.830,-32.715,-21.484,-33.203,-39.551,0.000
1714025635.834,-40.039,-23.438,-15.137,-43.945,0.000
1714025635.837,-40.039,-23.438,-3.906,-40.039,0.000
1714025635.841,-43.457,-24.414,-17.090,-39.551,0.000
1714025635.845,-63.965,-37.598,-27.832,-60.059,0.000
1714025635.849,-76.660,-32.715,-20.508,-68.848,0.000
1714025635.853,-75.684,-25.879,-14.160,-73.730,0.000
1714025635.857,-69.336,-27.832,-11.719,-68.848,0.000
1714025635.861,-82.031,-31.738,-5.859,-75.684,0.000
1714025635.865,-111.816,-40.039,-5.371,-108.398,0.000
1714025635.869,-127.441,-40.039,-4.395,-124.023,0.000
1714025635.872,-130.371,-35.645,5.859,-130.371,0.000
1714025635.876,-132.812,-31.250,19.531,-141.113,0.000
1714025635.880,-140.625,-34.668,17.578,-143.066,0.000
1714025635.884,-150.879,-41.504,18.555,-148.438,0.000
1714025635.888,-150.391,-37.109,26.367,-151.855,0.000
1714025635.892,-130.371,-29.785,27.344,-135.742,0.000
1714025635.896,-127.930,-35.156,27.344,-130.371,0.000
1714025635.900,-122.070,-35.645,22.461,-119.629,0.000
1714025635.903,-101.074,-37.109,17.090,-96.191,0.000
1714025635.907,-97.168,-36.621,21.973,-101.074,0.000
1714025635.911,-94.727,-31.250,11.719,-100.098,0.000
1714025635.915,-80.566,-37.598,-0.488,-76.660,0.000
1714025635.918,-70.801,-38.086,4.883,-70.312,0.000
1714025635.922,-62.012,-42.969,6.836,-64.941,0.000
1714025635.926,-52.246,-45.898,-8.789,-57.129,0.000
1714025635.930,-53.223,-34.668,-19.531,-53.223,0.000
1714025635.934,-44.434,-31.250,-23.926,-45.898,0.000
1714025635.938,-28.809,-33.203,-31.250,-40.039,0.000
1714025635.942,-27.832,-30.762,-37.109,-48.340,0.000
1714025635.946,-23.438,-31.250,-39.062,-37.598,0.000
1714025635.950,-15.625,-31.250,-34.668,-14.160,0.000
1714025635.954,-16.602,-29.297,-34.668,-19.531,0.000
1714025635.957,-10.742,-33.203,-34.668,-17.578,0.000
1714025635.961,-9.277,-35.645,-35.645,-10.254,0.000
1714025635.964,-15.137,-35.645,-42.480,-12.207,0.000
1714025635.968,-6.348,-30.273,-48.340,-8.789,0.000
1714025635.972,2.930,-31.738,-49.805,-0.488,0.000
1714025635.976,0.000,-35.645,-41.504,-5.371,0.000
1714025635.980,-2.930,-32.227,-41.016,-4.883,0.000
1714025635.984,-2.441,-26.367,-35.645,7.324,0.000
1714025635.987,-11.230,-24.414,-30.273,0.977,0.000
1714025635.991,-14.160,-19.043,-35.156,-6.348,0.000
1714025635.995,-16.113,-23.438,-38.086,-4.883,0.000
1714025635.999,-24.414,-21.484,-35.156,-19.531,0.000
1714025636.003,-37.109,-20.020,-41.504,-38.086,0.000
1714025636.007,-43.945,-29.297,-42.969,-50.293,0.000
1714025636.009,-58.105,-20.996,-33.203,-64.941,0.000
1714025636.013,-78.125,-10.742,-27.344,-78.125,0.000
1714025636.017,-99.609,-10.254,-30.762,-98.145,0.000
1714025636.021,-110.840,-14.648,-28.809,-115.723,0.000
1714025636.025,-111.328,-17.090,-19.531,-123.047,0.000
1714025636.029,-120.605,-14.648,-15.137,-127.441,0.000
1714025636.033,-132.324,-11.719,-10.742,-127.441,0.000
1714025636.037,-127.441,-11.719,-7.812,-118.164,0.000
1714025636.041,-125.000,-11.230,-5.371,-119.629,0.000
1714025636.045,-121.094,-9.277,-0.977,-114.258,0.000
1714025636.049,-104.980,-7.324,-1.465,-105.957,0.000
1714025636.052,-99.121,-1.953,-6.348,-107.422,0.000
1714025636.055,-88.867,-4.883,-3.906,-102.539,0.000
1714025636.059,-78.125,-2.930,-6.348,-93.750,0.000
1714025636.063,-76.660,-0.488,-16.113,-79.590,0.000
1714025636.066,-63.965,-10.742,-16.113,-67.383,0.000
1714025636.070,-46.387,-8.301,-10.742,-62.012,0.000
1714025636.074,-40.527,-9.766,-21.484,-56.641,0.000
1714025636.078,-36.133,-20.996,-29.785,-42.969,0.000
1714025636.082,-27.832,-21.973,-28.320,-27.344,0.000
1714025636.086,-20.508,-28.809,-24.902,-27.344,0.000
1714025636.090,-9.766,-37.109,-29.297,3.418,0.000
1714025636.094,-8.789,-34.668,-40.527,7.324,0.000
1714025636.098,-6.836,-34.180,-41.016,-18.066,0.000
1714025636.105,7.324,-34.668,-44.434,1.465,0.000
1714025636.109,9.277,-36.133,-47.852,1.465,0.000
1714025636.113,8.301,-38.574,-46.387,-1.953,0.000
1714025636.116,15.625,-34.668,-46.875,10.742,0.000
1714025636.120,23.926,-33.203,-41.992,19.043,0.000
1714025636.124,25.391,-35.156,-40.039,19.043,0.000
1714025636.128,22.949,-32.227,-45.410,23.926,0.000
1714025636.132,22.949,-30.273,-43.945,25.391,0.000
1714025636.136,25.391,-27.832,-48.828,22.949,0.000
1714025636.140,20.020,-29.297,-55.176,18.066,0.000
1714025636.144,26.367,-29.297,-51.758,20.996,0.000
1714025636.148,36.621,-25.879,-51.270,27.344,0.000
1714025636.153,34.668,-22.461,-51.758,28.320,0.000
1714025636.157,37.598,-21.484,-53.711,27.832,0.000
1714025636.161,38.574,-26.367,-55.176,27.344,0.000
1714025636.165,35.156,-32.227,-47.852,30.273,0.000
1714025636.169,27.832,-31.250,-45.898,29.785,0.000
1714025636.172,22.949,-25.391,-55.176,21.973,0.000
1714025636.176,25.391,-26.367,-51.270,17.578,0.000
1714025636.180,26.367,-30.762,-46.875,17.578,0.000
1714025636.184,20.508,-32.227,-51.270,18.555,0.000
1714025636.188,18.066,-33.691,-46.875,25.391,0.000
1714025636.192,19.043,-31.738,-39.062,23.438,0.000
1714025636.196,19.531,-23.438,-32.715,18.555,0.000
1714025636.200,14.648,-17.578,-36.133,20.508,0.000
1714025636.204,8.301,-23.438,-50.293,17.578,0.000
1714025636.208,6.348,-26.855,-47.852,13.184,0.000
1714025636.212,9.277,-27.832,-42.480,16.602,0.000
1714025636.216,11.719,-28.320,-42.969,18.066,0.000
1714025636.220,9.766,-26.367,-39.062,15.137,0.000
1714025636.224,14.648,-26.855,-34.180,15.137,0.000
1714025636.228,12.207,-26.367,-34.180,11.230,0.000
1714025636.232,1.953,-26.855,-42.480,12.695,0.000
1714025636.235,3.418,-24.414,-39.062,16.113,0.000
1714025636.239,1.465,-19.043,-29.297,3.418,0.000
1714025636.243,-0.977,-20.996,-30.273,-0.977,0.000
1714025636.247,3.418,-25.879,-33.203,-2.930,0.000
1714025636.251,1.465,-23.438,-39.062,-6.836,0.000
1714025636.255,-0.977,-20.996,-44.434,-2.930,0.000
1714025636.259,3.906,-19.043,-41.504,0.000,0.000
1714025636.262,2.930,-20.020,-40.039,2.930,0.000
1714025636.266,-8.301,-24.902,-41.504,-2.441,0.000
1714025636.270,-8.789,-25.879,-35.156,-4.395,0.000
1714025636.274,0.488,-21.973,-28.320,0.000,0.000
1714025636.278,2.930,-16.602,-23.926,0.977,0.000
1714025636.282,-6.836,-14.648,-20.508,-3.906,0.000
1714025636.286,-2.930,-21.484,-30.273,-6.836,0.000
1714025636.290,4.395,-18.555,-33.691,-5.371,0.000
1714025636.293,-2.930,-17.090,-31.738,-10.742,0.000
1714025636.297,-5.371,-19.043,-39.062,-10.742,0.000
1714025636.301,-3.906,-16.113,-41.016,-6.836,0.000
1714025636.305,-3.418,-19.531,-36.133,-1.953,0.000
1714025636.309,-4.883,-21.973,-33.203,-1.953,0.000
1714025636.313,-4.883,-24.902,-33.203,-11.719,0.000
1714025636.317,-3.906,-23.926,-33.203,-16.113,0.000
1714025636.321,-1.953,-18.555,-32.227,-7.812,0.000
1714025636.325,-4.395,-10.742,-30.762,-7.812,0.000
1714025636.329,-6.836,-12.207,-33.691,-17.090,0.000
1714025636.332,-5.371,-16.602,-36.621,-14.648,0.000
1714025636.336,-3.418,-17.090,-26.855,-7.812,0.000
1714025636.339,-4.883,-19.531,-19.043,-7.812,0.000
1714025636.343,-13.672,-19.043,-23.438,-20.996,0.000
1714025636.347,-16.113,-19.043,-27.344,-20.020,0.000
1714025636.351,-8.789,-19.043,-29.785,-9.766,0.000
1714025636.355,-9.277,-20.996,-27.344,-13.184,0.000
1714025636.358,-11.719,-22.461,-25.879,-15.625,0.000
1714025636.362,-10.254,-24.414,-35.156,-17.578,0.000
1714025636.366,-12.695,-22.461,-41.016,-16.602,0.000
1714025636.370,-12.207,-15.625,-35.645,-13.672,0.000
1714025636.374,-20.996,-18.555,-35.645,-21.484,0.000
1714025636.378,-26.855,-21.484,-34.180,-19.043,0.000
1714025636.382,-16.602,-21.484,-24.902,-11.719,0.000
1714025636.384,-19.531,-22.461,-28.809,-18.066,0.000
1714025636.388,-28.809,-24.414,-42.480,-22.949,0.000
1714025636.392,-30.273,-27.344,-42.480,-18.555,0.000
1714025636.396,-20.996,-22.461,-31.738,-16.602,0.000
1714025636.400,-14.648,-20.996,-29.785,-12.207,0.000
1714025636.404,-15.137,-27.344,-33.691,-10.254,0.000
1714025636.408,-14.648,-28.320,-32.227,-5.859,0.000
1714025636.412,-20.508,-25.879,-26.855,-3.906,0.000
1714025636.416,-26.855,-27.344,-32.227,-13.184,0.000
1714025636.420,-22.949,-32.227,-36.133,-13.672,0.000
1714025636.424,-22.949,-33.203,-31.738,-16.113,0.000
1714025636.427,-29.297,-27.344,-27.832,-20.508,0.000
1714025636.430,-24.414,-23.438,-30.762,-20.020,0.000
1714025636.434,-15.137,-20.996,-26.367,-19.043,0.000
1714025636.438,-18.555,-22.949,-20.996,-19.043,0.000
1714025636.442,-15.137,-28.320,-29.297,-21.973,0.000
1714025636.446,-12.695,-29.785,-36.133,-22.949,0.000
1714025636.450,-12.695,-30.762,-41.016,-22.461,0.000
1714025636.453,-4.395,-27.832,-40.039,-20.508,0.000
1714025636.457,-0.977,-32.715,-37.598,-26.367,0.000
1714025636.461,-5.371,-38.086,-27.344,-24.414,0.000
1714025636.465,-11.719,-33.203,-22.461,-12.207,0.000
1714025636.469,-14.160,-35.645,-24.414,-14.648,0.000
1714025636.473,-24.902,-43.945,-33.691,-21.484,0.000
1714025636.475,-34.180,-41.504,-41.992,-22.461,0.000
1714025636.479,-38.086,-36.621,-34.668,-20.508,0.000
1714025636.483,-34.668,-28.320,-27.344,-14.160,0.000
1714025636.487,-30.273,-24.414,-29.785,-18.066,0.000
1714025636.491,-28.320,-29.297,-34.180,-23.926,0.000
1714025636.495,-27.344,-34.668,-29.785,-15.137,0.000
1714025636.499,-31.250,-33.203,-21.484,-14.160,0.000
1714025636.503,-30.762,-29.785,-28.320,-27.344,0.000
1714025636.506,-32.715,-30.762,-38.086,-33.203,0.000
1714025636.510,-36.133,-30.762,-43.945,-26.367,0.000
1714025636.514,-32.715,-29.785,-41.992,-24.414,0.000
1714025636.518,-28.809,-28.809,-30.273,-22.949,0.000
1714025636.525,-28.320,-27.832,-20.508,-22.461,0.000
1714025636.529,-28.809,-29.785,-26.855,-29.297,0.000
1714025636.533,-31.250,-35.645,-42.969,-32.227,0.000
1714025636.537,-29.297,-31.738,-41.992,-32.715,0.000
1714025636.540,-24.414,-30.273,-35.156,-34.180,0.000
1714025636.544,-30.273,-37.109,-37.598,-41.992,0.000
1714025636.548,-28.809,-31.738,-35.645,-42.480,0.000
1714025636.552,-22.461,-28.809,-25.391,-39.062,0.000
1714025636.556,-25.391,-31.250,-24.414,-40.039,0.000
1714025636.560,-20.996,-30.273,-28.809,-37.109,0.000
1714025636.564,-20.020,-32.227,-33.691,-38.086,0.000
1714025636.568,-24.414,-33.203,-34.180,-38.574,0.000
1714025636.573,-24.902,-33.203,-35.156,-40.039,0.000
1714025636.577,-27.832,-36.621,-39.551,-43.945,0.000
1714025636.581,-30.762,-39.551,-32.227,-41.504,0.000
1714025636.585,-26.855,-42.969,-31.738,-38.574,0.000
1714025636.589,-18.555,-36.621,-28.320,-23.926,0.000
1714025636.593,-20.996,-29.785,-20.996,-25.391,0.000
1714025636.597,-27.344,-32.715,-25.391,-38.086,0.000
1714025636.601,-15.625,-31.250,-29.785,-22.949,0.000
1714025636.605,-15.625,-34.180,-32.227,-16.602,0.000
1714025636.608,-30.762,-35.645,-35.156,-33.691,0.000
1714025636.612,-25.391,-28.809,-31.250,-38.574,0.000
1714025636.616,-18.066,-24.902,-26.367,-35.645,0.000
1714025636.621,-25.879,-27.832,-28.320,-42.480,0.000
1714025636.624,-29.785,-32.227,-33.691,-43.457,0.000
1714025636.628,-28.809,-33.691,-34.668,-37.109,0.000
1714025636.632,-27.344,-32.227,-31.738,-36.621,0.000
1714025636.636,-30.762,-30.762,-31.738,-37.109,0.000
1714025636.640,-35.156,-29.785,-31.250,-37.109,0.000
1714025636.644,-27.832,-23.926,-27.344,-39.551,0.000
1714025636.648,-22.461,-25.391,-27.832,-36.621,0.000
1714025636.652,-30.762,-30.762,-39.551,-25.391,0.000
1714025636.656,-34.180,-26.367,-40.527,-34.180,0.000
1714025636.660,-29.785,-27.832,-36.133,-40.039,0.000
1714025636.663,-26.855,-32.715,-40.039,-38.086,0.000
1714025636.667,-31.250,-30.762,-31.738,-35.645,0.000
1714025636.671,-33.691,-30.762,-25.879,-33.691,0.000
1714025636.675,-30.273,-28.320,-33.691,-39.062,0.000
1714025636.679,-25.391,-29.785,-29.297,-34.180,0.000
1714025636.683,-27.344,-33.691,-26.367,-32.715,0.000
1714025636.687,-33.691,-33.691,-36.621,-41.016,0.000
1714025636.691,-36.133,-34.180,-43.457,-45.898,0.000
1714025636.695,-35.156,-36.133,-45.410,-39.062,0.000
1714025636.699,-33.691,-34.668,-41.016,-35.645,0.000
1714025636.702,-26.855,-34.180,-34.180,-38.086,0.000
1714025636.706,-21.484,-35.645,-28.809,-35.645,0.000
1714025636.710,-28.809,-29.785,-29.785,-34.180,0.000
1714025636.713,-27.832,-26.855,-25.391,-21.484,0.000
1714025636.717,-23.926,-27.344,-21.484,-20.020,0.000
1714025636.721,-20.508,-29.297,-25.391,-24.902,0.000
1714025636.725,-20.996,-35.156,-29.785,-26.367,0.000
1714025636.729,-20.508,-36.621,-31.250,-27.344,0.000
1714025636.733,-13.672,-31.738,-25.391,-23.438,0.000
1714025636.737,-20.508,-30.762,-27.344,-24.414,0.000
1714025636.741,-23.438,-31.738,-32.715,-25.391,0.000
1714025636.744,-25.879,-29.297,-28.809,-25.879,0.000
1714025636.748,-29.785,-27.832,-27.832,-28.320,0.000
1714025636.752,-26.367,-21.973,-32.227,-30.273,0.000
1714025636.756,-28.320,-20.996,-38.086,-35.156,0.000
1714025636.759,-32.227,-29.785,-40.527,-41.016,0.000
1714025636.763,-33.691,-34.180,-31.738,-35.645,0.000
1714025636.767,-40.527,-39.062,-31.738,-29.785,0.000
1714025636.771,-42.480,-39.551,-31.738,-32.715,0.000
1714025636.775,-31.250,-34.668,-25.391,-25.879,0.000
1714025636.778,-32.227,-30.762,-29.297,-27.344,0.000
1714025636.782,-37.598,-30.273,-28.809,-26.855,0.000
1714025636.786,-37.598,-34.668,-35.156,-19.043,0.000
1714025636.790,-35.156,-34.180,-39.062,-27.832,0.000
1714025636.794,-36.133,-33.203,-36.621,-36.621,0.000
1714025636.798,-32.227,-30.273,-30.273,-26.367,0.000
1714025636.802,-28.809,-28.320,-22.461,-24.902,0.000
1714025636.804,-26.367,-28.320,-16.602,-27.832,0.000
1714025636.808,-23.438,-24.902,-12.695,-20.508,0.000
1714025636.812,-23.438,-20.508,-13.672,-25.391,0.000
1714025636.816,-27.344,-25.879,-20.508,-34.180,0.000
1714025636.820,-26.367,-26.855,-24.902,-31.738,0.000
1714025636.824,-24.902,-28.320,-28.809,-25.391,0.000
1714025636.828,-23.438,-33.203,-20.508,-22.461,0.000
1714025636.832,-20.508,-26.367,-15.137,-25.391,0.000
1714025636.836,-23.438,-20.020,-19.043,-26.367,0.000
1714025636.840,-17.578,-18.555,-16.113,-19.043,0.000
1714025636.844,-12.695,-18.555,-8.789,-12.695,0.000
1714025636.847,-18.555,-16.602,-10.254,-16.602,0.000
1714025636.850,-18.066,-23.438,-22.461,-16.602,0.000
1714025636.854,-20.996,-33.691,-31.250,-16.113,0.000
1714025636.858,-29.297,-30.273,-34.668,-25.391,0.000
1714025636.862,-28.320,-29.785,-36.133,-26.855,0.000
1714025636.866,-30.273,-31.738,-32.227,-28.809,0.000
1714025636.870,-31.250,-29.785,-29.785,-40.039,0.000
1714025636.873,-27.344,-28.320,-32.227,-38.086,0.000
1714025636.877,-28.809,-32.227,-29.785,-27.832,0.000
1714025636.881,-29.785,-34.668,-24.414,-28.809,0.000
1714025636.885,-27.344,-33.203,-23.438,-26.367,0.000
1714025636.889,-23.926,-32.227,-19.043,-27.344,0.000
1714025636.893,-23.926,-32.227,-13.184,-33.691,0.000
1714025636.900,-29.297,-32.227,-19.531,-34.180,0.000
1714025636.904,-32.715,-23.926,-24.902,-36.133,0.000
1714025636.908,-28.809,-23.926,-19.531,-35.645,0.000
1714025636.912,-15.625,-29.297,-25.879,-24.414,0.000
1714025636.916,-2.441,-24.414,-29.297,-5.859,0.000
1714025636.919,-19.531,-21.973,-18.066,-20.020,0.000
1714025636.923,-39.062,-17.090,-7.812,-41.016,0.000
1714025636.927,-35.645,-22.461,-13.672,-40.527,0.000
1714025636.931,-30.273,-28.809,-22.949,-36.133,0.000
1714025636.935,-22.461,-24.414,-26.367,-25.391,0.000
1714025636.939,-18.555,-22.461,-27.344,-29.785,0.000
1714025636.943,-19.043,-25.391,-30.762,-32.715,0.000
1714025636.948,-18.555,-28.320,-31.250,-20.996,0.000
1714025636.952,-25.391,-28.809,-25.879,-20.508,0.000
1714025636.956,-21.973,-26.367,-18.555,-27.344,0.000
1714025636.960,-14.160,-31.250,-17.578,-21.973,0.000
1714025636.964,-17.090,-30.273,-25.879,-18.066,0.000
1714025636.968,-28.320,-24.902,-30.762,-29.297,0.000
1714025636.972,-28.320,-23.926,-27.832,-28.809,0.000
1714025636.976,-22.461,-18.555,-24.902,-25.391,0.000
1714025636.980,-25.879,-21.484,-26.367,-15.625,0.000
1714025636.984,-23.926,-28.809,-22.461,-12.207,0.000
1714025636.987,-22.461,-30.762,-16.113,-20.508,0.000
1714025636.991,-17.578,-28.809,-11.230,-15.137,0.000
1714025636.995,-14.648,-26.367,-18.066,-15.137,0.000
1714025636.999,-22.949,-25.391,-27.344,-21.484,0.000
1714025637.003,-30.762,-27.344,-30.762,-30.762,0.000
1714025637.007,-32.715,-24.414,-37.598,-40.039,0.000
1714025637.011,-31.250,-29.297,-34.180,-41.992,0.000
1714025637.015,-35.156,-30.273,-27.344,-38.574,0.000
1714025637.019,-32.227,-21.484,-25.391,-28.320,0.000
1714025637.023,-25.879,-23.926,-25.391,-23.926,0.000
1714025637.027,-34.180,-29.785,-20.996,-26.855,0.000
1714025637.031,-33.203,-21.973,-24.414,-26.367,0.000
1714025637.035,-25.391,-20.996,-35.645,-22.461,0.000
1714025637.038,-30.762,-28.809,-37.109,-25.391,0.000
1714025637.042,-30.762,-26.367,-35.156,-25.879,0.000
1714025637.046,-31.738,-21.484,-29.297,-22.949,0.000
1714025637.050,-33.691,-20.020,-21.973,-21.973,0.000
1714025637.054,-33.203,-25.391,-28.320,-21.973,0.000
1714025637.058,-36.133,-31.250,-33.691,-25.879,0.000
1714025637.062,-41.992,-34.180,-28.320,-29.297,0.000
1714025637.066,-42.969,-32.715,-27.832,-30.273,0.000
1714025637.070,-35.645,-31.738,-33.691,-22.461,0.000
1714025637.074,-35.645,-36.621,-30.273,-17.578,0.000
1714025637.077,-40.039,-41.016,-22.461,-21.484,0.000
1714025637.081,-32.715,-29.297,-27.344,-19.043,0.000
1714025637.085,-36.133,-28.809,-32.227,-22.949,0.000
1714025637.088,-35.645,-31.738,-36.621,-27.344,0.000
1714025637.092,-31.250,-30.273,-37.109,-27.832,0.000
1714025637.096,-35.645,-38.574,-33.203,-27.344,0.000
1714025637.100,-38.086,-45.410,-28.320,-23.926,0.000
1714025637.104,-33.691,-41.992,-29.785,-20.020,0.000
1714025637.108,-24.414,-34.668,-31.250,-20.020,0.000
1714025637.112,-23.926,-32.715,-30.273,-20.996,0.000
1714025637.116,-15.137,-27.832,-30.273,-11.719,0.000
1714025637.119,-4.883,-27.344,-24.414,-15.625,0.000
1714025637.123,-7.324,-31.250,-32.715,-29.297,0.000
1714025637.127,-8.789,-29.785,-40.039,-34.180,0.000
1714025637.131,-14.648,-30.762,-40.527,-34.180,0.000
1714025637.134,-18.066,-28.320,-38.086,-29.297,0.000
1714025637.138,-17.090,-24.414,-30.273,-26.855,0.000
1714025637.142,-20.508,-21.484,-24.414,-25.391,0.000
1714025637.146,-31.738,-21.484,-22.949,-25.879,0.000
1714025637.150,-38.574,-22.461,-26.855,-25.879,0.000
1714025637.153,-38.086,-29.297,-35.645,-25.391,0.000
1714025637.157,-42.480,-36.621,-32.715,-25.879,0.000
1714025637.161,-41.016,-30.762,-28.809,-22.461,0.000
1714025637.165,-36.133,-27.344,-29.297,-23.926,0.000
1714025637.169,-31.250,-26.855,-19.043,-14.648,0.000
1714025637.173,-25.391,-20.020,-15.625,-4.883,0.000
1714025637.177,-31.250,-25.391,-29.785,-11.719,0.000
1714025637.180,-34.668,-30.273,-32.227,-14.648,0.000
1714025637.184,-30.273,-22.461,-20.996,-14.160,0.000
1714025637.188,-34.668,-21.484,-22.949,-17.090,0.000
1714025637.191,-39.551,-23.926,-30.273,-24.902,0.000
1714025637.195,-36.133,-24.414,-33.691,-31.738,0.000
1714025637.199,-30.273,-27.832,-37.598,-26.367,0.000
1714025637.203,-33.203,-27.832,-33.691,-27.344,0.000
1714025637.207,-35.156,-24.414,-24.902,-30.273,0.000
1714025637.211,-33.203,-25.879,-24.414,-30.273,0.000
1714025637.215,-32.715,-28.809,-25.879,-35.156,0.000
1714025637.219,-35.645,-28.320,-32.715,-43.945,0.000
1714025637.223,-34.668,-24.414,-34.180,-44.434,0.000
1714025637.225,-31.738,-32.227,-23.438,-31.738,0.000
1714025637.229,-28.320,-30.273,-26.367,-25.391,0.000
1714025637.233,-26.855,-25.391,-28.320,-28.320,0.000
1714025637.237,-22.949,-24.414,-22.949,-28.320,0.000
1714025637.241,-24.902,-19.531,-22.949,-26.367,0.000
1714025637.245,-27.832,-26.855,-26.855,-27.832,0.000
1714025637.249,-22.461,-33.203,-22.949,-25.391,0.000
1714025637.253,-23.438,-30.273,-20.508,-29.785,0.000
1714025637.256,-23.926,-25.391,-23.438,-25.391,0.000
1714025637.260,-28.320,-28.809,-28.809,-24.414,0.000
1714025637.264,-31.738,-31.250,-35.645,-28.320,0.000
1714025637.268,-25.879,-32.715,-31.250,-32.715,0.000
1714025637.275,-30.762,-38.086,-29.297,-38.574,0.000
1714025637.279,-30.273,-35.156,-32.227,-33.203,0.000
1714025637.283,-26.855,-25.879,-26.855,-29.785,0.000
1714025637.287,-34.668,-25.879,-28.320,-38.574,0.000
1714025637.290,-38.574,-26.855,-33.691,-44.434,0.000
1714025637.294,-33.203,-27.832,-32.715,-35.645,0.000
1714025637.298,-28.809,-25.391,-29.297,-27.344,0.000
1714025637.302,-33.691,-25.879,-30.762,-41.016,0.000
1714025637.306,-34.180,-26.855,-30.273,-42.480,0.000
1714025637.310,-27.344,-25.879,-16.113,-28.320,0.000
1714025637.314,-30.762,-27.344,-14.648,-35.156,0.000
1714025637.318,-36.621,-32.227,-26.367,-36.621,0.000
1714025637.323,-30.273,-32.227,-30.762,-31.250,0.000
1714025637.327,-30.273,-32.715,-33.203,-40.527,0.000
1714025637.331,-40.039,-31.738,-32.715,-42.969,0.000
1714025637.335,-35.156,-26.855,-23.438,-33.691,0.000
1714025637.339,-32.227,-25.879,-22.461,-34.180,0.000
1714025637.343,-31.738,-23.926,-20.996,-32.715,0.000
1714025637.347,-27.832,-26.367,-8.789,-24.902,0.000
1714025637.351,-29.297,-31.738,-15.137,-31.738,0.000
1714025637.354,-28.320,-36.133,-36.621,-36.621,0.000
1714025637.358,-32.227,-35.156,-41.504,-35.645,0.000
1714025637.362,-35.645,-28.320,-36.621,-38.574,0.000
1714025637.366,-28.320,-27.832,-32.227,-32.227,0.000
1714025637.370,-22.461,-25.391,-24.902,-25.391,0.000
1714025637.374,-20.996,-23.926,-26.855,-27.832,0.000
1714025637.378,-23.926,-28.809,-31.738,-33.691,0.000
1714025637.382,-23.438,-32.715,-25.391,-27.832,0.000
1714025637.386,-19.531,-31.738,-26.855,-22.949,0.000
1714025637.390,-26.367,-26.367,-31.250,-31.250,0.000
1714025637.394,-26.367,-22.461,-28.809,-30.273,0.000
1714025637.398,-30.762,-20.996,-28.809,-25.879,0.000
1714025637.402,-30.273,-26.855,-26.367,-22.461,0.000
1714025637.406,-25.391,-25.391,-16.602,-19.531,0.000
1714025637.409,-35.156,-24.414,-21.973,-34.668,0.000
1714025637.413,-35.645,-26.855,-35.156,-36.621,0.000
1714025637.422,-29.297,-25.879,-29.297,-21.973,0.000
1714025637.426,-27.344,-28.320,-15.625,-26.855,0.000
1714025637.429,-23.438,-30.762,-17.578,-28.320,0.000
1714025637.433,-32.715,-30.762,-30.273,-25.391,0.000
1714025637.437,-40.527,-33.203,-35.156,-31.250,0.000
1714025637.441,-34.180,-31.250,-33.203,-21.484,0.000
1714025637.445,-25.879,-20.508,-29.785,-20.020,0.000
1714025637.449,-30.762,-25.879,-31.738,-23.438,0.000
1714025637.453,-37.598,-27.344,-32.715,-15.137,0.000
1714025637.457,-24.902,-16.602,-22.461,-14.160,0.000
1714025637.461,-22.461,-20.996,-22.461,-21.484,0.000
1714025637.465,-32.715,-30.273,-30.762,-32.227,0.000
1714025637.466,-37.109,-31.250,-37.598,-31.738,0.000
1714025637.470,-35.645,-31.738,-34.180,-31.250,0.000
1714025637.474,-32.227,-32.715,-35.645,-34.668,0.000
1714025637.478,-31.250,-33.691,-40.527,-30.273,0.000
1714025637.482,-36.621,-39.062,-31.738,-30.273,0.000
1714025637.486,-40.527,-34.180,-19.531,-30.273,0.000
1714025637.490,-36.133,-26.855,-17.090,-28.809,0.000
1714025637.494,-31.250,-30.273,-25.391,-27.344,0.000
1714025637.498,-36.133,-30.762,-28.320,-34.668,0.000
1714025637.502,-38.574,-32.227,-30.273,-40.039,0.000
1714025637.506,-37.109,-34.668,-30.762,-32.227,0.000
1714025637.509,-38.574,-33.691,-30.273,-37.109,0.000
1714025637.511,-38.086,-29.297,-32.715,-42.969,0.000
1714025637.515,-32.715,-29.785,-29.785,-36.621,0.000
1714025637.519,-29.785,-33.203,-23.926,-33.691,0.000
1714025637.523,-36.133,-31.738,-24.902,-38.086,0.000
1714025637.527,-42.480,-29.297,-33.691,-40.527,0.000
1714025637.531,-51.270,-37.109,-39.062,-33.203,0.000
1714025637.535,-46.875,-38.574,-41.016,-26.367,0.000
1714025637.539,-34.668,-25.879,-37.598,-23.438,0.000
1714025637.543,-38.574,-27.832,-36.133,-34.668,0.000
1714025637.547,-40.527,-28.320,-36.621,-39.551,0.000
1714025637.550,-35.156,-24.414,-30.273,-27.344,0.000
1714025637.554,-33.203,-24.902,-30.273,-29.785,0.000
1714025637.556,-33.203,-29.297,-33.691,-44.922,0.000
1714025637.560,-33.691,-29.785,-28.809,-39.551,0.000
1714025637.564,-32.715,-25.879,-28.320,-30.273,0.000
1714025637.568,-33.203,-20.996,-28.320,-34.668,0.000
1714025637.572,-31.738,-17.578,-30.273,-38.086,0.000
1714025637.576,-35.645,-20.996,-40.039,-35.645,0.000
1714025637.580,-32.227,-23.438,-31.738,-25.391,0.000
1714025637.584,-28.809,-24.414,-26.367,-27.832,0.000
1714025637.587,-33.691,-26.855,-36.621,-36.133,0.000
1714025637.591,-38.086,-29.785,-35.645,-32.227,0.000
1714025637.595,-34.180,-28.809,-24.902,-25.879,0.000
1714025637.599,-35.156,-31.250,-20.508,-24.902,0.000
1714025637.601,-34.668,-27.832,-21.484,-25.879,0.000
1714025637.605,-34.180,-21.973,-24.902,-30.273,0.000
1714025637.609,-35.645,-23.926,-25.391,-35.156,0.000
1714025637.613,-32.227,-26.367,-27.832,-33.203,0.000
1714025637.617,-33.691,-29.785,-33.203,-30.762,0.000
1714025637.621,-28.320,-25.391,-31.738,-27.344,0.000
1714025637.625,-24.902,-20.020,-25.879,-26.367,0.000
1714025637.629,-21.973,-20.508,-16.113,-33.203,0.000
1714025637.632,-21.484,-20.996,-16.602,-32.715,0.000
1714025637.636,-29.785,-20.508,-31.250,-30.273,0.000
1714025637.640,-36.133,-32.227,-36.621,-36.133,0.000
1714025637.644,-43.457,-37.598,-30.762,-37.598,0.000
1714025637.655,-43.945,-37.109,-26.367,-36.133,0.000
1714025637.659,-40.527,-35.645,-27.344,-38.574,0.000
1714025637.663,-37.109,-32.715,-25.879,-39.062,0.000
1714025637.667,-33.203,-27.832,-20.996,-36.133,0.000
1714025637.671,-28.320,-30.762,-21.484,-33.691,0.000
1714025637.675,-26.367,-33.203,-33.203,-37.109,0.000
1714025637.678,-30.762,-27.832,-36.621,-36.621,0.000
1714025637.682,-28.809,-28.320,-28.320,-33.691,0.000
1714025637.686,-20.996,-26.367,-25.879,-26.855,0.000
1714025637.690,-24.414,-26.855,-28.320,-23.926,0.000
1714025637.694,-24.414,-25.879,-28.809,-24.902,0.000
1714025637.698,-23.926,-24.902,-23.438,-23.438,0.000
1714025637.702,-22.461,-24.414,-24.414,-24.902,0.000
1714025637.706,-20.996,-23.926,-29.297,-27.344,0.000
1714025637.710,-25.391,-28.809,-26.855,-33.203,0.000
1714025637.714,-21.484,-29.785,-22.949,-35.645,0.000
1714025637.717,-20.996,-30.273,-28.809,-36.621,0.000
1714025637.721,-22.949,-29.297,-34.180,-35.156,0.000
1714025637.725,-31.250,-30.273,-31.738,-34.668,0.000
1714025637.729,-31.250,-30.273,-32.715,-33.203,0.000
1714025637.733,-29.297,-29.785,-35.156,-33.691,0.000
1714025637.737,-25.879,-29.297,-27.344,-29.297,0.000
1714025637.741,-22.461,-28.809,-19.531,-31.738,0.000
1714025637.745,-25.391,-30.273,-26.855,-38.086,0.000
1714025637.748,-23.438,-31.738,-34.668,-32.715,0.000
1714025637.752,-24.902,-31.250,-31.250,-27.344,0.000
1714025637.756,-26.367,-29.785,-28.809,-31.738,0.000
1714025637.760,-24.414,-34.180,-22.461,-35.645,0.000
1714025637.764,-24.414,-31.738,-13.672,-33.691,0.000
1714025637.768,-23.438,-26.855,-15.625,-28.320,0.000
1714025637.772,-19.043,-26.855,-15.137,-22.949,0.000
1714025637.776,-16.602,-23.926,-12.207,-19.043,0.000
1714025637.779,-19.043,-25.879,-24.414,-20.508,0.000
1714025637.783,-24.414,-29.297,-34.180,-21.973,0.000
1714025637.787,-21.973,-26.855,-29.297,-16.113,0.000
1714025637.791,-15.625,-23.926,-22.949,-22.949,0.000
1714025637.794,-22.461,-24.414,-24.902,-33.203,0.000
1714025637.798,-20.996,-21.484,-24.414,-22.949,0.000
1714025637.802,-15.625,-25.391,-21.973,-25.391,0.000
1714025637.806,-21.484,-23.926,-24.902,-29.785,0.000
1714025637.810,-20.996,-21.484,-30.762,-29.297,0.000
1714025637.814,-21.973,-28.320,-34.668,-34.668,0.000
1714025637.817,-22.949,-26.855,-27.344,-25.879,0.000
1714025637.821,-20.996,-24.414,-24.414,-15.137,0.000
1714025637.825,-23.438,-24.902,-30.273,-17.090,0.000
1714025637.829,-26.367,-31.250,-28.809,-24.902,0.000
1714025637.833,-18.555,-33.691,-35.645,-25.391,0.000
1714025637.837,-12.695,-25.879,-37.109,-22.949,0.000
1714025637.844,-10.254,-28.320,-35.645,-22.949,0.000
1714025637.848,-7.324,-30.273,-42.480,-32.715,0.000
1714025637.852,-7.812,-28.809,-44.434,-36.621,0.000
1714025637.856,-4.883,-22.949,-36.133,-27.832,0.000
1714025637.860,-8.301,-18.555,-33.203,-23.438,0.000
1714025637.864,-17.578,-23.438,-34.180,-24.902,0.000
1714025637.868,-28.320,-23.926,-32.715,-28.809,0.000
1714025637.872,-36.133,-26.855,-30.762,-26.855,0.000
1714025637.875,-35.645,-28.809,-23.438,-28.809,0.000
1714025637.879,-33.691,-28.320,-22.949,-31.738,0.000
1714025637.883,-35.645,-28.320,-28.809,-30.762,0.000
1714025637.887,-32.227,-22.461,-25.391,-25.879,0.000
1714025637.888,-29.785,-16.602,-23.438,-28.320,0.000
1714025637.892,-31.738,-19.043,-28.320,-35.156,0.000
1714025637.896,-30.762,-27.344,-31.250,-31.738,0.000
1714025637.900,-35.645,-32.227,-33.203,-33.691,0.000
1714025637.904,-37.109,-28.320,-32.227,-38.574,0.000
1714025637.908,-30.273,-31.250,-26.855,-32.227,0.000
1714025637.912,-31.738,-30.762,-19.531,-24.414,0.000
1714025637.915,-37.109,-24.414,-20.020,-33.203,0.000
1714025637.919,-36.133,-27.344,-26.855,-33.203,0.000
1714025637.923,-31.250,-30.273,-31.738,-29.297,0.000
1714025637.927,-28.809,-22.949,-35.156,-26.367,0.000
1714025637.931,-34.180,-22.461,-30.762,-26.855,0.000
1714025637.933,-36.133,-28.809,-23.438,-27.344,0.000
1714025637.937,-32.227,-25.879,-24.414,-25.391,0.000
1714025637.940,-30.273,-27.344,-29.297,-25.879,0.000
1714025637.944,-35.645,-35.156,-34.668,-31.250,0.000
1714025637.948,-36.133,-32.227,-32.227,-30.762,0.000
1714025637.952,-33.203,-29.297,-35.156,-29.785,0.000
1714025637.956,-31.738,-32.715,-38.574,-31.250,0.000
1714025637.960,-29.785,-27.832,-30.273,-29.785,0.000
1714025637.964,-31.738,-26.367,-26.367,-31.250,0.000
1714025637.968,-28.809,-28.809,-27.832,-22.949,0.000
1714025637.972,-30.762,-28.809,-30.273,-26.855,0.000
1714025637.976,-34.668,-28.320,-31.250,-41.992,0.000
1714025637.977,-25.391,-29.297,-22.949,-27.832,0.000
1714025637.981,-17.090,-24.414,-19.531,-18.555,0.000
1714025637.985,-24.902,-24.902,-26.367,-30.273,0.000
1714025637.989,-25.879,-29.297,-27.344,-30.762,0.000
1714025637.993,-12.695,-27.832,-20.508,-23.926,0.000
1714025637.997,-13.184,-26.367,-24.902,-23.926,0.000
1714025638.001,-19.531,-24.414,-30.762,-30.762,0.000
1714025638.005,-18.066,-29.297,-24.902,-27.344,0.000
1714025638.008,-19.043,-31.738,-19.531,-26.367,0.000
1714025638.012,-24.414,-29.785,-19.043,-27.832,0.000
1714025638.016,-26.367,-28.809,-25.879,-30.273,0.000
1714025638.020,-31.250,-20.996,-33.691,-35.156,0.000
1714025638.026,-30.273,-24.902,-33.203,-37.109,0.000
1714025638.030,-24.414,-28.809,-26.855,-33.691,0.000
1714025638.034,-24.902,-19.043,-28.809,-25.879,0.000
1714025638.038,-19.531,-15.625,-29.297,-23.926,0.000
1714025638.042,-18.066,-16.113,-20.020,-23.926,0.000
1714025638.046,-22.949,-24.414,-27.344,-29.297,0.000
1714025638.050,-30.762,-29.297,-38.086,-34.668,0.000
1714025638.054,-29.297,-24.414,-37.109,-33.691,0.000
1714025638.058,-20.996,-21.484,-36.133,-29.785,0.000
1714025638.062,-26.855,-25.391,-36.621,-27.344,0.000
1714025638.065,-32.227,-23.438,-33.691,-31.250,0.000
1714025638.069,-28.809,-22.949,-24.902,-29.297,0.000
1714025638.074,-21.973,-25.391,-19.043,-26.855,0.000
1714025638.078,-23.926,-23.926,-28.320,-37.598,0.000
1714025638.082,-27.344,-32.715,-38.086,-34.668,0.000
1714025638.086,-22.461,-40.039,-38.574,-28.809,0.000
1714025638.090,-23.438,-29.297,-41.016,-24.414,0.000
1714025638.094,-28.809,-26.855,-41.504,-27.344,0.000
1714025638.098,-29.297,-34.668,-40.039,-32.227,0.000
1714025638.102,-27.344,-29.297,-36.133,-26.367,0.000
1714025638.106,-23.438,-24.902,-31.250,-21.973,0.000
1714025638.110,-23.438,-26.367,-25.391,-20.020,0.000
1714025638.113,-22.949,-27.344,-25.879,-23.438,0.000
1714025638.117,-21.973,-30.762,-29.785,-23.926,0.000
1714025638.121,-19.043,-23.926,-25.391,-26.855,0.000
1714025638.125,-14.648,-16.602,-25.391,-35.645,0.000
1714025638.129,-20.996,-31.738,-38.574,-38.574,0.000
1714025638.133,-13.672,-41.504,-39.062,-27.344,0.000
1714025638.137,-2.930,-30.273,-21.484,-19.043,0.000
1714025638.141,-10.742,-25.879,-16.113,-20.996,0.000
1714025638.145,-18.066,-29.785,-27.344,-21.973,0.000
1714025638.149,-18.066,-33.691,-34.180,-19.043,0.000
1714025638.152,-20.020,-29.297,-32.715,-16.113,0.000
1714025638.156,-22.949,-26.855,-28.809,-22.461,0.000
1714025638.160,-22.461,-24.902,-25.879,-28.320,0.000
1714025638.164,-20.508,-22.461,-22.949,-29.297,0.000
1714025638.168,-17.578,-20.020,-25.391,-27.832,0.000
1714025638.171,-17.578,-21.484,-18.066,-29.785,0.000
1714025638.175,-24.414,-29.785,-21.484,-40.039,0.000
1714025638.179,-26.855,-26.367,-37.598,-44.434,0.000
1714025638.183,-27.344,-27.832,-38.086,-40.527,0.000
1714025638.187,-26.367,-33.203,-34.668,-31.738,0.000
1714025638.191,-24.414,-28.320,-32.227,-27.344,0.000
1714025638.195,-22.461,-29.785,-30.273,-26.367,0.000
1714025638.199,-24.902,-30.762,-34.668,-20.020,0.000
1714025638.203,-26.855,-24.414,-35.156,-21.973,0.000
1714025638.207,-29.297,-24.414,-28.320,-28.320,0.000
1714025638.211,-32.227,-21.973,-29.785,-29.297,0.000
1714025638.213,-28.320,-17.090,-28.809,-27.832,0.000
1714025638.217,-30.273,-20.020,-22.461,-23.926,0.000
1714025638.221,-30.273,-22.949,-23.438,-26.855,0.000
1714025638.225,-24.902,-23.438,-28.809,-29.785,0.000
1714025638.229,-31.738,-24.414,-34.668,-32.715,0.000
1714025638.233,-28.809,-25.879,-29.785,-27.832,0.000
1714025638.237,-15.137,-27.832,-17.090,-16.602,0.000
1714025638.241,-19.043,-27.344,-22.461,-19.043,0.000
1714025638.245,-22.949,-22.949,-22.949,-20.508,0.000
1714025638.249,-22.949,-18.066,-21.973,-18.555,0.000
1714025638.253,-21.484,-17.578,-24.902,-20.996,0.000
1714025638.256,-22.949,-18.555,-22.461,-25.391,0.000
1714025638.259,-25.879,-17.090,-29.785,-28.320,0.000
1714025638.263,-24.902,-18.066,-29.785,-26.367,0.000
1714025638.267,-23.926,-20.020,-25.391,-27.832,0.000
1714025638.271,-20.996,-20.020,-22.461,-28.809,0.000
1714025638.275,-16.113,-16.602,-17.578,-25.879,0.000
1714025638.279,-19.043,-19.043,-20.996,-26.855,0.000
1714025638.283,-23.926,-20.020,-28.320,-20.996,0.000
1714025638.287,-21.973,-19.531,-19.043,-18.555,0.000
1714025638.290,-20.020,-18.066,-7.812,-28.809,0.000
1714025638.294,-19.043,-16.113,-11.719,-27.832,0.000
1714025638.298,-26.367,-24.902,-20.020,-23.438,0.000
1714025638.302,-32.227,-29.297,-29.297,-29.297,0.000
1714025638.305,-28.320,-28.320,-28.320,-31.250,0.000
1714025638.308,-29.297,-28.809,-30.273,-31.738,0.000
1714025638.312,-37.109,-27.832,-40.039,-40.527,0.000
1714025638.316,-31.738,-19.531,-32.715,-41.016,0.000
1714025638.320,-26.367,-17.090,-23.926,-36.621,0.000
1714025638.324,-30.762,-23.926,-27.832,-37.109,0.000
1714025638.328,-36.621,-26.855,-37.109,-28.320,0.000
1714025638.332,-35.156,-27.344,-41.504,-22.949,0.000
1714025638.336,-26.367,-22.461,-32.227,-27.344,0.000
1714025638.340,-26.855,-19.531,-24.902,-28.320,0.000
1714025638.344,-25.391,-24.902,-22.949,-26.367,0.000
1714025638.348,-26.367,-32.715,-21.973,-23.438,0.000
1714025638.350,-29.297,-27.832,-21.973,-26.855,0.000
1714025638.354,-31.250,-24.414,-23.926,-32.227,0.000
1714025638.358,-36.133,-27.344,-26.367,-33.203,0.000
1714025638.362,-34.668,-20.508,-25.391,-24.902,0.000
1714025638.366,-34.180,-23.926,-26.855,-25.391,0.000
1714025638.370,-35.156,-34.668,-31.250,-35.645,0.000
1714025638.374,-34.668,-26.855,-31.250,-35.645,0.000
1714025638.378,-30.273,-19.043,-21.484,-29.297,0.000
1714025638.381,-31.250,-26.855,-25.879,-30.273,0.000
1714025638.385,-31.250,-33.691,-35.156,-34.180,0.000
1714025638.389,-29.297,-29.297,-24.902,-31.250,0.000
1714025638.393,-33.203,-23.926,-19.531,-28.809,0.000
1714025638.400,-33.203,-22.461,-18.066,-29.785,0.000
1714025638.404,-32.715,-20.996,-20.996,-35.156,0.000
1714025638.408,-24.902,-18.066,-22.461,-33.691,0.000
1714025638.412,-26.367,-19.531,-16.602,-31.738,0.000
1714025638.415,-31.738,-20.020,-20.508,-29.785,0.000
1714025638.419,-24.902,-15.625,-29.785,-26.855,0.000
1714025638.423,-30.762,-24.902,-33.203,-34.668,0.000
1714025638.427,-35.645,-31.738,-32.715,-39.551,0.000
1714025638.431,-35.645,-25.391,-33.691,-39.551,0.000
1714025638.435,-38.086,-21.484,-38.086,-37.109,0.000
1714025638.439,-41.504,-25.391,-30.273,-38.574,0.000
1714025638.443,-42.969,-31.738,-28.320,-46.387,0.000
1714025638.448,-40.527,-33.203,-36.133,-43.457,0.000
1714025638.452,-42.480,-29.297,-37.109,-36.621,0.000
1714025638.456,-44.922,-25.391,-35.645,-38.086,0.000
1714025638.460,-40.039,-27.832,-33.203,-38.574,0.000
1714025638.464,-35.645,-25.391,-33.691,-34.180,0.000
1714025638.468,-38.086,-24.414,-41.016,-40.527,0.000
1714025638.472,-35.645,-23.438,-37.109,-38.574,0.000
1714025638.475,-22.461,-17.578,-24.414,-28.320,0.000
1714025638.479,-29.297,-22.949,-24.902,-24.414,0.000
1714025638.483,-45.898,-24.902,-26.367,-26.367,0.000
1714025638.487,-37.598,-18.555,-21.973,-35.156,0.000
1714025638.491,-41.016,-23.926,-20.508,-41.016,0.000
1714025638.495,-49.316,-27.832,-24.902,-43.945,0.000
1714025638.499,-48.340,-27.344,-29.297,-46.875,0.000
1714025638.503,-47.852,-25.879,-26.367,-49.316,0.000
1714025638.507,-47.852,-25.879,-22.461,-54.199,0.000
1714025638.511,-56.641,-27.344,-17.578,-70.801,0.000
1714025638.515,-69.336,-26.367,-15.137,-79.102,0.000
1714025638.519,-69.824,-31.250,-17.578,-75.195,0.000
1714025638.523,-66.406,-35.645,-11.230,-75.684,0.000
1714025638.527,-70.312,-23.438,-16.602,-80.566,0.000
1714025638.531,-83.496,-21.973,-22.949,-88.867,0.000
1714025638.534,-86.914,-35.645,-18.555,-91.309,0.000
1714025638.538,-78.125,-36.621,-17.578,-89.844,0.000
1714025638.542,-79.102,-27.832,-12.695,-87.402,0.000
1714025638.546,-81.543,-23.926,-7.324,-82.520,0.000
1714025638.550,-82.520,-26.367,-4.883,-79.102,0.000
1714025638.554,-85.449,-30.762,-1.953,-82.520,0.000
1714025638.558,-80.078,-31.250,-10.742,-81.543,0.000
1714025638.561,-67.871,-22.461,-27.832,-77.637,0.000
1714025638.565,-66.406,-19.531,-32.715,-81.543,0.000
1714025638.569,-59.082,-25.391,-25.879,-72.266,0.000
1714025638.573,-49.316,-26.855,-24.902,-61.035,0.000
1714025638.577,-49.805,-25.391,-22.461,-61.523,0.000
1714025638.581,-46.875,-28.320,-20.996,-60.059,0.000
1714025638.585,-46.875,-34.668,-24.902,-60.059,0.000
1714025638.588,-49.805,-30.762,-28.809,-62.012,0.000
1714025638.592,-47.852,-24.414,-33.691,-60.547,0.000
1714025638.596,-46.875,-28.320,-31.738,-49.805,0.000
1714025638.600,-38.086,-25.391,-23.438,-38.574,0.000
1714025638.604,-31.738,-19.531,-12.695,-36.621,0.000
1714025638.608,-45.410,-29.297,-20.508,-42.480,0.000
1714025638.612,-41.992,-28.809,-34.180,-40.039,0.000
1714025638.615,-36.621,-21.484,-37.598,-31.738,0.000
1714025638.619,-45.898,-30.762,-28.809,-38.086,0.000
1714025638.623,-46.875,-30.273,-20.996,-49.316,0.000
1714025638.627,-61.035,-25.879,-31.250,-62.988,0.000
1714025638.631,-69.824,-25.391,-26.855,-64.453,0.000
1714025638.634,-66.895,-22.461,-17.090,-62.988,0.000
1714025638.638,-78.613,-23.926,-17.090,-78.613,0.000
1714025638.642,-93.750,-31.738,-18.066,-89.355,0.000
1714025638.646,-95.703,-36.133,-12.207,-87.402,0.000
1714025638.650,-91.309,-28.809,-1.465,-80.566,0.000
1714025638.654,-86.914,-21.484,2.930,-79.590,0.000
1714025638.658,-86.426,-25.391,-0.488,-83.496,0.000
1714025638.661,-82.520,-23.438,-3.906,-80.078,0.000
1714025638.665,-80.566,-17.090,0.000,-76.660,0.000
1714025638.669,-79.590,-15.137,-1.953,-76.172,0.000
1714025638.673,-78.613,-21.484,-15.625,-74.219,0.000
1714025638.677,-80.078,-28.320,-14.648,-72.754,0.000
1714025638.680,-69.824,-26.855,-7.812,-66.406,0.000
1714025638.684,-61.035,-24.902,-13.184,-59.570,0.000
1714025638.688,-55.664,-25.391,-19.043,-61.035,0.000
1714025638.692,-47.852,-23.438,-20.020,-60.059,0.000
1714025638.695,-31.738,-20.996,-20.020,-54.688,0.000
1714025638.699,-14.160,-22.949,-21.484,-41.504,0.000
1714025638.703,-8.301,-25.879,-29.297,-34.668,0.000
1714025638.707,-1.953,-19.531,-37.109,-35.156,0.000
1714025638.711,3.906,-23.438,-35.645,-22.949,0.000
1714025638.715,-0.488,-31.738,-33.203,-9.766,0.000
1714025638.719,-5.371,-28.809,-35.156,-12.207,0.000
1714025638.723,-1.953,-29.297,-38.086,-15.625,0.000
1714025638.730,2.930,-21.973,-29.297,0.977,0.000
1714025638.734,-2.441,-22.461,-23.926,2.930,0.000
1714025638.737,-5.371,-32.715,-31.738,-10.254,0.000
1714025638.741,1.953,-38.086,-41.504,-4.883,0.000
1714025638.745,0.000,-40.039,-46.387,2.441,0.000
1714025638.749,2.930,-39.551,-43.945,2.930,0.000
1714025638.753,3.418,-38.086,-36.621,-0.488,0.000
1714025638.757,-1.953,-38.574,-45.898,-4.883,0.000
1714025638.761,-0.488,-41.992,-57.129,1.465,0.000
1714025638.765,0.000,-37.109,-50.781,8.789,0.000
1714025638.769,2.930,-31.738,-46.875,4.883,0.000
1714025638.773,8.301,-33.203,-41.992,6.836,0.000
1714025638.778,5.859,-36.133,-41.504,5.859,0.000
1714025638.782,4.883,-32.227,-44.434,7.324,0.000
1714025638.786,4.395,-30.762,-42.969,15.625,0.000
1714025638.790,6.348,-33.691,-32.715,10.254,0.000
1714025638.794,6.348,-32.715,-31.738,4.395,0.000
1714025638.797,1.953,-29.297,-41.504,5.859,0.000
1714025638.801,4.883,-30.762,-45.410,10.254,0.000
1714025638.805,6.836,-35.645,-44.434,8.301,0.000
1714025638.809,7.812,-35.156,-43.457,1.465,0.000
1714025638.813,5.859,-32.715,-41.504,6.836,0.000
1714025638.817,1.953,-28.320,-36.621,5.371,0.000
1714025638.821,13.184,-24.902,-34.180,5.371,0.000
1714025638.825,20.996,-25.391,-23.926,13.184,0.000
1714025638.829,14.648,-21.973,-29.785,7.324,0.000
1714025638.833,10.742,-20.508,-43.945,2.930,0.000
1714025638.837,6.348,-28.320,-41.992,0.000,0.000
1714025638.841,6.836,-27.344,-42.969,-1.465,0.000
1714025638.845,6.836,-18.555,-42.969,-4.395,0.000
1714025638.849,2.441,-19.043,-40.039,-7.324,0.000
1714025638.853,3.418,-18.555,-34.668,-3.906,0.000
1714025638.857,4.395,-20.508,-40.039,1.953,0.000
1714025638.860,-1.465,-28.320,-44.434,-5.371,0.000
1714025638.864,-8.789,-33.691,-41.016,-14.648,0.000
1714025638.868,-10.742,-27.832,-43.945,-10.254,0.000
1714025638.872,-8.301,-24.414,-38.574,-11.230,0.000
1714025638.876,-12.695,-29.297,-35.645,-22.461,0.000
1714025638.880,-18.555,-32.227,-39.062,-24.414,0.000
1714025638.884,-20.996,-35.645,-36.133,-17.578,0.000
1714025638.888,-18.555,-33.691,-35.645,-25.391,0.000
1714025638.892,-10.742,-26.855,-38.574,-24.414,0.000
1714025638.895,-11.230,-24.902,-31.738,-19.531,0.000
1714025638.899,-17.578,-31.250,-26.855,-21.973,0.000
1714025638.903,-13.184,-34.180,-28.320,-14.648,0.000
1714025638.907,-12.695,-30.762,-27.832,-16.113,0.000
1714025638.911,-13.184,-22.949,-28.320,-20.508,0.000
1714025638.915,-8.789,-20.508,-27.344,-14.648,0.000
1714025638.918,-7.812,-26.855,-29.297,-14.648,0.000
1714025638.922,-16.602,-31.738,-26.367,-18.555,0.000
1714025638.926,-19.531,-27.832,-24.902,-20.020,0.000
1714025638.930,-9.766,-20.996,-25.879,-16.113,0.000
1714025638.934,-4.883,-19.043,-21.484,-7.324,0.000
1714025638.938,0.000,-16.602,-22.461,-2.930,0.000
1714025638.942,-5.371,-16.113,-31.250,-8.789,0.000
1714025638.946,-8.789,-23.438,-32.227,-6.836,0.000
1714025638.949,-8.301,-30.273,-30.273,-0.488,0.000
1714025638.953,-11.230,-28.809,-26.855,-4.395,0.000
1714025638.957,-11.230,-32.227,-26.855,-8.789,0.000
1714025638.961,-11.719,-23.438,-29.785,-17.578,0.000
1714025638.964,-13.672,-20.508,-29.297,-15.137,0.000
1714025638.968,-17.090,-29.785,-26.855,-8.301,0.000
1714025638.972,-13.672,-25.391,-29.785,-10.254,0.000
1714025638.976,-3.906,-18.066,-27.832,-8.301,0.000
1714025638.980,-1.465,-17.578,-22.461,-7.812,0.000
1714025638.983,-6.348,-20.996,-31.738,-18.555,0.000
1714025638.987,-5.371,-23.926,-32.715,-22.949,0.000
1714025638.991,-7.324,-27.344,-24.414,-19.531,0.000
1714025638.995,-15.625,-22.949,-27.832,-19.531,0.000
1714025638.999,-15.137,-17.090,-31.738,-14.160,0.000
1714025639.003,-12.207,-24.902,-22.949,-9.277,0.000
1714025639.007,-19.043,-26.367,-18.555,-15.137,0.000
1714025639.010,-25.391,-24.414,-27.344,-24.414,0.000
1714025639.014,-27.832,-20.020,-28.809,-23.926,0.000
1714025639.018,-24.414,-22.461,-24.902,-20.020,0.000
1714025639.022,-27.344,-25.879,-22.461,-15.625,0.000
1714025639.025,-31.738,-20.508,-31.250,-19.531,0.000
1714025639.029,-28.809,-11.719,-34.668,-19.043,0.000
1714025639.033,-24.414,-16.113,-23.438,-3.906,0.000
1714025639.037,-25.391,-24.902,-24.902,-4.395,0.000
1714025639.041,-30.762,-19.531,-27.344,-20.996,0.000
1714025639.045,-28.320,-19.043,-32.715,-19.043,0.000
1714025639.049,-23.926,-22.461,-28.320,-17.578,0.000
1714025639.053,-20.508,-24.902,-14.160,-22.461,0.000
1714025639.055,-21.973,-25.879,-22.461,-20.020,0.000
1714025639.059,-24.414,-20.020,-34.668,-15.137,0.000
1714025639.063,-20.508,-14.160,-20.996,-9.766,0.000
1714025639.067,-18.066,-19.531,-17.578,-15.625,0.000
1714025639.071,-22.949,-25.391,-29.297,-24.902,0.000
1714025639.075,-24.902,-25.879,-32.227,-23.438,0.000
1714025639.078,-23.438,-30.762,-31.250,-9.277,0.000
1714025639.082,-19.043,-30.273,-23.926,-8.301,0.000
1714025639.086,-13.184,-23.926,-22.461,-11.719,0.000
1714025639.090,-11.230,-21.484,-19.043,-7.324,0.000
1714025639.094,-18.066,-20.020,-20.020,-19.043,0.000
1714025639.098,-19.531,-23.438,-21.484,-23.926,0.000
1714025639.100,-16.113,-26.367,-24.414,-24.902,0.000
1714025639.104,-18.555,-22.949,-31.250,-25.879,0.000
1714025639.108,-23.926,-27.832,-27.832,-27.344,0.000
1714025639.112,-31.738,-28.809,-21.484,-35.156,0.000
1714025639.116,-27.344,-19.531,-16.602,-24.902,0.000
1714025639.120,-28.320,-25.391,-28.809,-19.531,0.000
1714025639.124,-35.645,-28.320,-33.691,-25.879,0.000
1714025639.128,-36.621,-27.832,-27.832,-27.832,0.000
1714025639.131,-37.109,-38.574,-25.879,-28.320,0.000
1714025639.135,-36.621,-41.016,-24.414,-23.438,0.000
1714025639.139,-37.598,-33.203,-28.809,-16.113,0.000
1714025639.143,-30.762,-27.344,-26.367,-20.020,0.000
1714025639.154,-26.367,-27.344,-27.832,-23.926,0.000
1714025639.158,-27.344,-28.320,-35.156,-24.414,0.000
1714025639.162,-20.508,-22.949,-38.574,-28.809,0.000
1714025639.166,-19.043,-20.508,-39.551,-32.715,0.000
1714025639.170,-20.996,-22.461,-34.668,-26.367,0.000
1714025639.174,-23.926,-27.832,-28.809,-31.250,0.000
1714025639.178,-29.297,-35.156,-32.715,-41.016,0.000
1714025639.182,-30.273,-34.180,-39.551,-41.992,0.000
1714025639.185,-29.297,-34.180,-39.062,-40.527,0.000
1714025639.189,-27.344,-39.551,-39.062,-36.621,0.000
1714025639.193,-27.344,-35.156,-32.227,-36.621,0.000
1714025639.197,-30.273,-27.832,-26.367,-32.715,0.000
1714025639.201,-27.344,-28.320,-22.949,-19.531,0.000
1714025639.205,-25.879,-33.203,-20.508,-20.020,0.000
1714025639.209,-32.227,-33.203,-31.250,-26.367,0.000
1714025639.213,-30.273,-29.297,-37.598,-21.973,0.000
1714025639.217,-30.273,-32.227,-38.574,-20.020,0.000
1714025639.221,-33.691,-30.273,-36.621,-21.484,0.000
1714025639.224,-33.203,-24.414,-25.391,-24.414,0.000
1714025639.228,-31.738,-22.461,-21.484,-21.973,0.000
1714025639.232,-35.645,-30.762,-27.832,-27.832,0.000
1714025639.236,-41.992,-32.715,-33.203,-33.691,0.000
1714025639.240,-37.598,-28.809,-36.621,-28.809,0.000
1714025639.244,-33.203,-27.344,-33.691,-27.344,0.000
1714025639.248,-31.250,-21.973,-26.855,-20.996,0.000
1714025639.252,-31.250,-19.043,-28.320,-22.949,0.000
1714025639.255,-29.297,-20.508,-29.297,-24.902,0.000
1714025639.259,-24.414,-22.461,-23.438,-16.113,0.000
1714025639.263,-24.414,-25.391,-28.809,-19.043,0.000
1714025639.267,-20.508,-25.879,-33.203,-25.391,0.000
1714025639.271,-14.160,-27.344,-23.926,-20.996,0.000
1714025639.275,-17.090,-29.297,-26.367,-18.066,0.000
1714025639.279,-19.531,-25.879,-30.273,-18.066,0.000
1714025639.283,-22.949,-24.414,-30.273,-17.090,0.000
1714025639.287,-26.367,-24.414,-32.227,-29.297,0.000
1714025639.291,-24.414,-21.973,-30.762,-30.273,0.000
1714025639.294,-28.320,-28.320,-42.480,-37.598,0.000
1714025639.298,-33.203,-35.156,-43.457,-47.852,0.000
1714025639.302,-24.902,-26.855,-21.973,-35.645,0.000
1714025639.306,-27.832,-20.508,-23.926,-34.668,0.000
1714025639.309,-39.062,-18.066,-37.598,-40.527,0.000
1714025639.313,-41.992,-26.367,-40.039,-41.504,0.000
1714025639.317,-37.598,-28.809,-41.992,-42.480,0.000
1714025639.321,-32.715,-21.973,-37.598,-33.203,0.000
1714025639.325,-33.691,-26.367,-35.645,-31.250,0.000
1714025639.329,-37.109,-26.855,-33.203,-33.203,0.000
1714025639.333,-28.809,-25.879,-28.320,-29.785,0.000
1714025639.337,-24.902,-32.715,-22.461,-30.762,0.000
1714025639.340,-23.926,-31.250,-26.855,-27.832,0.000
1714025639.344,-20.020,-26.855,-36.133,-28.320,0.000
1714025639.348,-24.414,-28.809,-33.691,-30.273,0.000
1714025639.352,-26.855,-25.879,-26.367,-28.320,0.000
1714025639.355,-24.414,-21.484,-23.438,-25.879,0.000
1714025639.359,-27.344,-23.926,-28.809,-32.227,0.000
1714025639.363,-23.438,-26.367,-26.367,-31.250,0.000
1714025639.367,-20.508,-26.855,-15.625,-21.973,0.000
1714025639.371,-27.344,-27.832,-16.113,-29.297,0.000
1714025639.375,-29.297,-32.715,-25.391,-40.039,0.000
1714025639.379,-34.668,-35.645,-38.574,-37.109,0.000
1714025639.383,-31.738,-33.203,-37.109,-32.715,0.000
1714025639.385,-27.832,-28.320,-28.320,-33.691,0.000
1714025639.389,-30.273,-26.367,-33.691,-39.062,0.000
1714025639.393,-29.785,-34.668,-30.273,-36.621,0.000
1714025639.397,-31.250,-31.738,-25.391,-32.715,0.000
1714025639.401,-31.738,-19.043,-27.344,-29.297,0.000
1714025639.405,-29.297,-20.508,-20.996,-29.785,0.000
1714025639.409,-24.414,-24.414,-24.414,-24.414,0.000
1714025639.412,-21.973,-15.137,-31.738,-22.949,0.000
1714025639.416,-31.250,-16.602,-31.738,-31.250,0.000
1714025639.420,-26.367,-19.043,-24.902,-23.438,0.000
1714025639.424,-17.578,-20.020,-31.250,-21.484,0.000
1714025639.428,-28.809,-25.391,-41.504,-21.973,0.000
1714025639.431,-33.691,-26.855,-35.645,-22.949,0.000
1714025639.434,-33.691,-30.273,-35.156,-29.297,0.000
1714025639.438,-30.762,-25.879,-43.457,-29.785,0.000
1714025639.442,-32.227,-28.320,-43.457,-31.738,0.000
1714025639.446,-31.738,-31.250,-35.645,-30.762,0.000
1714025639.450,-26.855,-26.367,-29.785,-21.973,0.000
1714025639.454,-26.855,-24.902,-29.785,-24.414,0.000
1714025639.458,-32.227,-30.762,-32.715,-36.621,0.000
1714025639.462,-33.203,-31.250,-24.902,-36.621,0.000
1714025639.466,-32.227,-23.438,-20.996,-34.180,0.000
1714025639.470,-38.086,-27.832,-29.297,-39.062,0.000
1714025639.474,-40.039,-35.645,-36.621,-42.969,0.000
1714025639.476,-41.992,-34.668,-38.086,-39.062,0.000
1714025639.480,-36.621,-32.227,-28.809,-25.391,0.000
1714025639.484,-35.645,-31.250,-23.438,-21.484,0.000
1714025639.488,-39.551,-25.879,-28.809,-25.391,0.000
1714025639.492,-33.691,-26.855,-30.273,-28.809,0.000
1714025639.495,-31.738,-32.227,-30.762,-22.461,0.000
1714025639.499,-39.062,-33.691,-35.645,-20.996,0.000
1714025639.503,-41.016,-35.645,-30.273,-28.320,0.000
1714025639.507,-32.227,-28.809,-26.367,-26.855,0.000
1714025639.511,-27.344,-31.738,-35.645,-22.949,0.000
1714025639.515,-31.250,-33.691,-34.668,-26.855,0.000
1714025639.519,-34.180,-23.438,-32.715,-32.715,0.000
1714025639.525,-34.180,-22.949,-29.785,-27.344,0.000
1714025639.529,-26.367,-25.879,-24.902,-20.996,0.000
1714025639.533,-25.391,-26.855,-31.250,-22.949,0.000
1714025639.537,-22.461,-31.738,-28.809,-25.391,0.000
1714025639.541,-18.066,-31.738,-29.297,-30.762,0.000
1714025639.545,-13.672,-23.926,-39.551,-29.297,0.000
1714025639.549,-6.836,-18.555,-38.086,-28.809,0.000
1714025639.553,-2.441,-18.555,-36.133,-27.344,0.000
1714025639.557,3.906,-19.043,-33.203,-25.391,0.000
1714025639.561,-4.883,-23.926,-28.320,-24.414,0.000
1714025639.564,-16.113,-31.250,-26.855,-23.926,0.000
1714025639.568,-17.578,-31.250,-29.297,-24.902,0.000
1714025639.574,-23.438,-28.320,-36.621,-27.832,0.000
1714025639.578,-32.227,-27.344,-29.297,-24.414,0.000
1714025639.582,-33.203,-31.250,-25.391,-19.531,0.000
1714025639.585,-26.855,-38.574,-23.926,-16.113,0.000
1714025639.589,-20.508,-39.062,-20.508,-15.137,0.000
1714025639.593,-21.484,-27.832,-26.855,-19.043,0.000
1714025639.597,-23.438,-16.113,-33.203,-17.578,0.000
1714025639.601,-20.996,-18.555,-38.574,-17.578,0.000
1714025639.605,-21.973,-25.391,-36.133,-19.043,0.000
1714025639.609,-26.367,-28.320,-25.879,-16.602,0.000
1714025639.613,-33.203,-31.738,-18.555,-20.508,0.000
1714025639.617,-37.109,-33.691,-24.414,-26.855,0.000
1714025639.621,-29.297,-28.809,-29.297,-27.832,0.000
1714025639.625,-33.691,-27.832,-27.832,-26.367,0.000
1714025639.629,-39.551,-32.227,-24.902,-28.320,0.000
1714025639.633,-36.133,-32.715,-28.320,-22.949,0.000
1714025639.637,-36.133,-36.133,-33.691,-17.578,0.000
1714025639.641,-31.250,-36.133,-29.297,-20.508,0.000
1714025639.645,-26.855,-32.715,-23.926,-24.414,0.000
1714025639.648,-19.043,-33.691,-29.785,-15.625,0.000
1714025639.652,-18.555,-32.227,-31.738,-14.160,0.000
1714025639.656,-32.227,-26.855,-21.484,-27.344,0.000
1714025639.660,-34.668,-25.391,-12.207,-33.203,0.000
1714025639.664,-33.691,-37.109,-18.555,-30.762,0.000
1714025639.668,-31.250,-40.527,-20.996,-26.855,0.000
1714025639.671,-28.809,-37.109,-15.137,-26.367,0.000
1714025639.675,-29.785,-36.133,-20.508,-27.832,0.000
1714025639.679,-29.297,-30.273,-28.320,-31.738,0.000
1714025639.683,-20.996,-19.531,-28.809,-23.438,0.000
1714025639.687,-16.602,-17.578,-20.508,-14.160,0.000
1714025639.691,-18.555,-18.066,-22.461,-19.043,0.000
1714025639.695,-20.996,-19.043,-23.438,-15.137,0.000
1714025639.699,-24.902,-21.484,-18.555,-10.742,0.000
1714025639.703,-20.020,-24.902,-19.531,-14.160,0.000
1714025639.707,-16.113,-26.855,-18.066,-14.160,0.000
1714025639.710,-21.484,-22.461,-22.461,-25.879,0.000
1714025639.714,-20.508,-23.438,-31.738,-28.809,0.000
1714025639.718,-14.160,-25.391,-35.645,-22.461,0.000
1714025639.721,-14.160,-25.391,-27.832,-26.855,0.000
1714025639.725,-14.160,-26.367,-20.020,-26.367,0.000
1714025639.729,-13.672,-23.438,-10.742,-20.020,0.000
1714025639.733,-6.836,-24.902,-0.977,-15.625,0.000
1714025639.737,-11.230,-26.367,-15.137,-17.578,0.000
1714025639.741,-20.508,-25.879,-32.715,-20.020,0.000
1714025639.745,-20.020,-27.832,-25.879,-24.902,0.000
1714025639.749,-15.625,-26.367,-11.230,-20.508,0.000
1714025639.753,-14.648,-25.391,-9.277,-11.719,0.000
1714025639.757,-17.578,-25.391,-13.672,-15.137,0.000
1714025639.764,-18.066,-19.531,-11.230,-18.066,0.000
1714025639.768,-14.160,-13.672,-11.719,-16.113,0.000
1714025639.772,-15.625,-18.066,-26.367,-12.695,0.000
1714025639.776,-17.090,-21.484,-34.668,-16.602,0.000
1714025639.779,-22.949,-23.926,-32.227,-24.414,0.000
1714025639.783,-23.438,-24.902,-25.879,-30.273,0.000
1714025639.787,-22.461,-26.367,-23.926,-22.461,0.000
1714025639.791,-27.344,-26.367,-28.809,-18.555,0.000
1714025639.795,-25.391,-22.461,-25.391,-28.320,0.000
1714025639.799,-25.391,-22.461,-18.066,-28.320,0.000
1714025639.803,-25.879,-20.996,-29.785,-25.391,0.000
1714025639.807,-24.902,-30.273,-46.875,-32.227,0.000
1714025639.808,-26.855,-29.297,-43.945,-37.598,0.000
1714025639.812,-25.879,-20.020,-33.691,-27.832,0.000
1714025639.816,-22.949,-23.926,-30.762,-22.461,0.000
1714025639.820,-19.531,-23.438,-27.832,-22.949,0.000
1714025639.824,-21.484,-23.438,-20.508,-26.855,0.000
1714025639.827,-26.855,-28.320,-26.367,-30.762,0.000
1714025639.831,-25.879,-33.691,-33.203,-28.320,0.000
1714025639.835,-29.297,-35.156,-36.133,-31.250,0.000
1714025639.839,-33.203,-31.250,-30.762,-35.156,0.000
1714025639.843,-29.297,-30.273,-30.273,-30.762,0.000
1714025639.847,-28.809,-29.297,-35.156,-27.344,0.000
1714025639.851,-28.320,-25.391,-29.297,-33.203,0.000
1714025639.853,-22.949,-23.438,-20.508,-30.273,0.000
1714025639.856,-23.438,-22.461,-13.672,-35.156,0.000
1714025639.860,-31.250,-20.508,-25.879,-37.109,0.000
1714025639.864,-34.668,-20.508,-32.715,-28.320,0.000
1714025639.868,-29.785,-21.484,-27.832,-35.156,0.000
1714025639.872,-22.461,-20.508,-27.832,-37.109,0.000
1714025639.876,-23.438,-20.020,-30.762,-32.715,0.000
1714025639.880,-30.762,-24.414,-30.273,-35.156,0.000
1714025639.884,-26.367,-20.996,-24.414,-27.344,0.000
1714025639.888,-22.461,-20.020,-24.902,-23.926,0.000
1714025639.892,-26.855,-26.367,-23.926,-32.227,0.000
1714025639.896,-29.785,-18.555,-25.879,-36.133,0.000
1714025639.902,-31.738,-19.531,-33.203,-37.109,0.000
1714025639.906,-33.203,-25.879,-39.551,-41.504,0.000
1714025639.909,-32.715,-21.973,-37.598,-48.828,0.000
1714025639.913,-27.344,-20.996,-27.344,-43.945,0.000
1714025639.917,-30.762,-25.391,-24.414,-34.180,0.000
1714025639.921,-37.598,-29.297,-28.320,-30.273,0.000
1714025639.925,-41.016,-27.832,-25.879,-35.156,0.000
1714025639.929,-41.504,-28.809,-21.973,-38.574,0.000
1714025639.933,-32.715,-33.203,-24.902,-33.691,0.000
1714025639.937,-32.715,-33.203,-31.738,-33.691,0.000
1714025639.941,-41.504,-33.691,-31.738,-43.945,0.000
1714025639.945,-41.504,-27.344,-27.832,-43.945,0.000
1714025639.949,-35.645,-24.414,-24.902,-36.133,0.000
1714025639.953,-29.785,-22.949,-17.090,-32.715,0.000
1714025639.957,-31.738,-17.578,-15.137,-35.156,0.000
1714025639.961,-35.156,-16.602,-22.949,-41.992,0.000
1714025639.965,-29.297,-22.461,-24.902,-32.715,0.000
1714025639.969,-26.367,-24.902,-31.250,-29.297,0.000
1714025639.973,-22.461,-26.367,-36.621,-40.527,0.000
1714025639.977,-25.879,-27.344,-36.621,-41.992,0.000
1714025639.981,-31.738,-29.297,-34.180,-26.855,0.000
1714025639.985,-28.809,-32.227,-28.809,-26.367,0.000
1714025639.988,-23.926,-25.879,-29.785,-38.574,0.000
1714025639.992,-28.809,-25.391,-27.344,-42.969,0.000
1714025639.996,-38.086,-30.273,-28.809,-48.340,0.000
1714025640.000,-43.945,-28.809,-41.016,-50.781,0.000
1714025640.004,-41.016,-27.344,-41.016,-47.852,0.000
1714025640.008,-30.273,-24.902,-29.785,-41.016,0.000
1714025640.012,-27.344,-25.879,-25.391,-34.668,0.000
1714025640.016,-33.691,-28.320,-29.297,-33.203,0.000
1714025640.020,-33.203,-26.367,-31.250,-37.109,0.000
1714025640.024,-21.973,-20.508,-31.250,-31.738,0.000
1714025640.028,-22.461,-23.926,-33.691,-23.438,0.000
1714025640.032,-24.414,-26.855,-30.762,-23.926,0.000
1714025640.036,-25.879,-21.973,-29.297,-23.926,0.000
1714025640.039,-26.367,-18.555,-22.949,-21.484,0.000
1714025640.043,-22.461,-23.438,-18.066,-20.508,0.000
1714025640.047,-28.320,-22.949,-19.043,-19.531,0.000
1714025640.051,-21.484,-20.508,-15.137,-11.719,0.000
1714025640.055,-17.578,-22.461,-24.902,-8.301,0.000
1714025640.059,-24.414,-23.926,-37.109,-15.625,0.000
1714025640.063,-20.020,-25.879,-26.855,-15.625,0.000
1714025640.066,-20.020,-30.273,-23.438,-14.648,0.000
1714025640.070,-25.879,-33.203,-34.668,-21.973,0.000
1714025640.074,-29.297,-29.297,-29.785,-25.879,0.000
1714025640.078,-28.320,-28.809,-22.461,-34.180,0.000
1714025640.082,-28.809,-33.691,-28.809,-34.668,0.000
1714025640.086,-32.227,-36.621,-23.926,-28.320,0.000
1714025640.089,-32.715,-34.180,-27.344,-33.203,0.000
1714025640.093,-35.156,-33.691,-35.156,-40.039,0.000
1714025640.097,-31.250,-39.551,-25.879,-32.715,0.000
1714025640.101,-25.879,-31.738,-23.926,-24.902,0.000
1714025640.105,-23.926,-32.715,-28.320,-24.414,0.000
1714025640.109,-19.043,-39.062,-37.109,-27.344,0.000
1714025640.112,-18.555,-30.273,-39.551,-30.273,0.000
1714025640.116,-28.320,-32.227,-32.715,-29.785,0.000
1714025640.120,-30.273,-25.391,-26.367,-24.902,0.000
1714025640.124,-22.461,-17.578,-27.344,-24.902,0.000
1714025640.128,-25.879,-21.484,-25.391,-26.367,0.000
1714025640.132,-32.715,-20.996,-22.949,-26.367,0.000
1714025640.135,-23.926,-20.996,-23.438,-22.949,0.000
1714025640.139,-12.207,-23.926,-24.414,-17.090,0.000
1714025640.143,-22.949,-22.461,-38.086,-22.949,0.000
1714025640.147,-33.691,-20.996,-40.039,-37.598,0.000
1714025640.150,-25.879,-18.555,-32.227,-35.645,0.000
1714025640.154,-23.438,-17.578,-32.715,-30.762,0.000
1714025640.158,-28.320,-18.555,-39.551,-35.156,0.000
1714025640.162,-29.785,-16.113,-37.109,-34.180,0.000
1714025640.166,-30.762,-15.625,-26.855,-32.227,0.000
1714025640.170,-27.344,-25.391,-20.020,-28.809,0.000
1714025640.174,-29.785,-34.668,-28.809,-28.320,0.000
1714025640.178,-32.715,-25.879,-39.551,-29.785,0.000
1714025640.180,-27.832,-14.648,-41.992,-31.738,0.000
1714025640.184,-24.414,-24.414,-33.691,-26.855,0.000
1714025640.188,-24.414,-34.668,-24.902,-24.902,0.000
1714025640.192,-25.879,-27.832,-29.785,-33.691,0.000
1714025640.196,-29.785,-28.320,-32.715,-38.086,0.000
1714025640.200,-24.902,-32.227,-22.461,-26.855,0.000
1714025640.204,-24.902,-29.785,-30.762,-23.438,0.000
1714025640.207,-30.762,-24.414,-41.016,-34.180,0.000
1714025640.211,-27.832,-19.043,-29.785,-34.180,0.000
1714025640.215,-29.785,-21.973,-29.297,-26.855,0.000
1714025640.219,-25.879,-26.367,-30.273,-27.344,0.000
1714025640.223,-20.996,-25.391,-21.484,-30.762,0.000
1714025640.226,-25.879,-28.809,-27.832,-35.645,0.000
1714025640.229,-30.762,-35.156,-29.297,-28.809,0.000
1714025640.233,-26.367,-32.227,-25.879,-21.484,0.000
1714025640.237,-23.926,-27.832,-33.203,-23.926,0.000
1714025640.241,-29.297,-31.250,-33.203,-28.320,0.000
1714025640.245,-27.832,-32.715,-33.203,-23.438,0.000
1714025640.249,-32.715,-32.715,-33.691,-24.414,0.000
1714025640.253,-33.203,-32.227,-22.461,-30.273,0.000
1714025640.257,-31.738,-33.691,-17.578,-31.738,0.000
1714025640.261,-34.668,-30.273,-28.320,-33.691,0.000
1714025640.265,-32.715,-29.297,-35.645,-31.738,0.000
1714025640.269,-31.250,-33.203,-31.250,-29.297,0.000
1714025640.275,-35.645,-28.809,-28.320,-35.645,0.000
1714025640.279,-33.691,-27.832,-27.832,-33.691,0.000
1714025640.283,-22.949,-31.738,-23.926,-24.414,0.000
1714025640.287,-30.273,-32.227,-20.996,-27.344,0.000
1714025640.291,-27.344,-29.297,-21.484,-27.832,0.000
1714025640.295,-22.949,-24.414,-26.855,-25.391,0.000
1714025640.299,-29.297,-16.113,-29.297,-20.996,0.000
1714025640.303,-23.438,-15.625,-26.367,-19.531,0.000
1714025640.306,-13.184,-22.949,-25.879,-23.438,0.000
1714025640.310,-18.555,-29.297,-28.809,-23.926,0.000
1714025640.314,-20.020,-25.879,-23.438,-17.578,0.000
1714025640.318,-20.996,-26.367,-24.414,-18.066,0.000
1714025640.323,-23.926,-28.809,-25.391,-22.949,0.000
1714025640.327,-18.555,-27.344,-18.066,-20.508,0.000
1714025640.331,-18.555,-27.832,-25.391,-20.996,0.000
1714025640.335,-22.949,-25.391,-38.086,-25.879,0.000
1714025640.339,-20.996,-23.438,-33.691,-21.973,0.000
1714025640.343,-24.902,-31.738,-31.250,-21.973,0.000
1714025640.347,-29.297,-34.668,-32.715,-24.902,0.000
1714025640.351,-16.113,-28.809,-26.855,-20.020,0.000
1714025640.354,-13.184,-30.273,-29.785,-17.090,0.000
1714025640.358,-12.695,-23.438,-33.691,-18.066,0.000
1714025640.362,-5.371,-20.508,-30.273,-27.344,0.000
1714025640.366,-6.836,-31.738,-31.250,-35.156,0.000
1714025640.370,0.000,-27.832,-28.809,-27.832,0.000
1714025640.374,6.348,-21.484,-16.113,-25.391,0.000
1714025640.378,-6.836,-21.973,-17.090,-34.668,0.000
1714025640.382,-13.184,-17.578,-25.879,-27.832,0.000
1714025640.386,-7.324,-12.207,-21.973,-15.625,0.000
1714025640.390,-12.695,-18.066,-24.902,-16.113,0.000
1714025640.394,-13.184,-20.020,-31.250,-11.230,0.000
1714025640.398,-21.973,-24.902,-28.809,-20.020,0.000
1714025640.402,-34.180,-33.691,-18.555,-29.785,0.000
1714025640.406,-30.273,-34.180,-16.113,-31.250,0.000
1714025640.410,-28.320,-38.574,-23.438,-37.598,0.000
1714025640.413,-29.785,-42.480,-23.438,-40.039,0.000
1714025640.417,-25.879,-32.715,-20.996,-31.738,0.000
1714025640.421,-27.832,-19.531,-26.855,-27.344,0.000
1714025640.425,-33.203,-24.414,-31.250,-32.715,0.000
1714025640.429,-36.621,-32.227,-30.273,-33.203,0.000
1714025640.433,-39.551,-32.227,-33.691,-34.180,0.000
1714025640.437,-40.039,-33.691,-31.250,-28.320,0.000
1714025640.440,-44.922,-35.645,-24.414,-34.180,0.000
1714025640.444,-41.992,-34.668,-27.832,-33.203,0.000
1714025640.448,-38.086,-30.762,-20.508,-21.484,0.000
1714025640.452,-42.480,-27.832,-19.043,-30.762,0.000
1714025640.456,-41.992,-31.250,-30.762,-42.480,0.000
1714025640.460,-37.598,-31.738,-25.879,-50.293,0.000
1714025640.463,-37.109,-30.273,-21.484,-47.852,0.000
1714025640.467,-37.109,-30.273,-27.832,-40.039,0.000
1714025640.471,-40.527,-31.250,-25.391,-37.598,0.000
1714025640.475,-37.109,-25.391,-9.277,-36.621,0.000
1714025640.479,-25.391,-21.484,-11.230,-35.645,0.000
1714025640.483,-20.508,-20.508,-21.973,-28.809,0.000
1714025640.487,-15.137,-17.578,-20.020,-25.391,0.000
1714025640.491,-16.113,-17.578,-20.020,-25.879,0.000
1714025640.495,-22.949,-16.602,-25.391,-25.879,0.000
1714025640.499,-22.461,-18.066,-24.902,-24.414,0.000
1714025640.502,-20.020,-19.043,-23.438,-17.578,0.000
1714025640.506,-15.625,-13.184,-17.578,-19.043,0.000
1714025640.509,-19.043,-20.020,-18.555,-31.250,0.000
1714025640.513,-25.391,-26.855,-29.785,-35.156,0.000
1714025640.517,-22.461,-22.949,-26.855,-24.414,0.000
1714025640.521,-18.066,-25.391,-18.066,-20.996,0.000
1714025640.525,-25.391,-28.809,-20.996,-29.785,0.000
1714025640.529,-29.785,-29.785,-22.461,-28.320,0.000
1714025640.533,-27.344,-30.762,-23.926,-20.996,0.000
1714025640.537,-30.273,-34.668,-21.973,-22.461,0.000
1714025640.541,-36.621,-34.180,-19.531,-32.715,0.000
1714025640.544,-33.691,-27.832,-23.438,-35.645,0.000
1714025640.548,-34.180,-27.344,-26.367,-30.273,0.000
1714025640.552,-33.691,-31.738,-24.414,-31.250,0.000
1714025640.555,-36.133,-29.785,-19.531,-42.969,0.000
1714025640.559,-34.668,-23.438,-19.531,-46.875,0.000
1714025640.563,-30.762,-21.973,-24.414,-39.551,0.000
1714025640.567,-35.645,-24.902,-27.832,-46.387,0.000
1714025640.570,-32.227,-25.879,-22.949,-44.922,0.000
1714025640.574,-32.227,-24.902,-23.926,-38.574,0.000
1714025640.578,-29.785,-22.461,-26.855,-33.691,0.000
1714025640.582,-28.320,-23.438,-20.996,-31.250,0.000
1714025640.586,-28.809,-25.879,-26.855,-39.551,0.000
1714025640.590,-27.832,-24.414,-32.227,-40.039,0.000
1714025640.594,-27.832,-29.297,-22.461,-35.645,0.000
1714025640.598,-22.461,-27.832,-25.879,-34.668,0.000
1714025640.600,-20.508,-20.508,-25.879,-33.691,0.000
1714025640.604,-23.438,-20.020,-24.414,-38.086,0.000
1714025640.608,-22.949,-17.578,-31.738,-38.086,0.000
1714025640.612,-20.508,-18.555,-24.414,-30.762,0.000
1714025640.616,-21.973,-26.855,-26.367,-35.645,0.000
1714025640.620,-22.461,-30.273,-30.762,-35.645,0.000
1714025640.624,-21.973,-23.438,-28.320,-32.715,0.000
1714025640.628,-26.855,-18.555,-27.832,-32.227,0.000
1714025640.632,-25.879,-16.602,-23.926,-29.785,0.000
1714025640.636,-26.855,-17.578,-28.809,-30.762,0.000
1714025640.639,-27.832,-19.043,-35.156,-36.133,0.000
1714025640.643,-28.809,-23.926,-30.273,-39.551,0.000
1714025640.650,-28.320,-27.832,-27.344,-29.785,0.000
1714025640.654,-26.855,-26.855,-21.973,-24.902,0.000
1714025640.658,-27.344,-26.367,-15.625,-33.203,0.000
1714025640.662,-27.344,-22.949,-20.996,-35.156,0.000
1714025640.666,-26.367,-20.996,-21.973,-23.438,0.000
1714025640.670,-24.414,-22.949,-21.484,-21.973,0.000
1714025640.674,-22.949,-19.531,-21.973,-21.484,0.000
1714025640.677,-22.461,-20.996,-15.137,-15.137,0.000
1714025640.681,-25.391,-22.949,-17.578,-15.625,0.000
1714025640.685,-31.250,-21.973,-21.973,-18.555,0.000
1714025640.689,-34.180,-24.414,-18.066,-27.344,0.000
1714025640.693,-33.203,-26.855,-23.438,-33.203,0.000
1714025640.698,-34.180,-28.320,-28.809,-31.250,0.000
1714025640.702,-37.598,-25.391,-25.879,-32.715,0.000
1714025640.706,-32.715,-24.902,-19.043,-34.668,0.000
1714025640.710,-32.715,-23.926,-16.602,-38.574,0.000
1714025640.714,-39.551,-29.785,-28.809,-42.480,0.000
1714025640.718,-43.945,-31.738,-28.809,-39.551,0.000
1714025640.722,-40.527,-24.414,-13.184,-39.551,0.000
1714025640.726,-34.668,-23.926,-19.043,-43.457,0.000
1714025640.730,-32.227,-23.926,-36.133,-36.621,0.000
1714025640.734,-30.273,-23.926,-28.809,-29.785,0.000
1714025640.738,-30.762,-18.066,-21.484,-38.574,0.000
1714025640.741,-32.715,-19.531,-25.391,-42.969,0.000
1714025640.746,-33.203,-26.367,-17.578,-36.133,0.000
1714025640.750,-32.715,-27.344,-10.742,-28.809,0.000
1714025640.753,-30.762,-29.297,-15.625,-24.902,0.000
1714025640.757,-37.109,-28.809,-24.902,-27.832,0.000
1714025640.761,-40.039,-30.762,-31.738,-36.621,0.000
1714025640.765,-32.227,-32.715,-33.203,-37.109,0.000
1714025640.769,-32.227,-25.879,-28.809,-34.668,0.000
1714025640.773,-30.762,-25.391,-26.855,-33.203,0.000
1714025640.777,-30.273,-37.109,-27.832,-31.250,0.000
1714025640.781,-33.203,-34.180,-24.902,-32.715,0.000
1714025640.785,-30.273,-31.250,-21.973,-35.645,0.000
1714025640.789,-27.832,-32.227,-21.973,-34.180,0.000
1714025640.792,-23.438,-24.414,-21.973,-30.273,0.000
1714025640.796,-20.020,-19.531,-24.902,-27.832,0.000
1714025640.800,-20.996,-24.414,-31.738,-21.484,0.000
1714025640.804,-18.066,-27.832,-26.367,-20.996,0.000
1714025640.808,-18.066,-28.809,-20.020,-26.855,0.000
1714025640.812,-19.043,-29.297,-26.367,-29.785,0.000
1714025640.816,-13.672,-25.879,-17.578,-24.902,0.000
1714025640.820,-11.719,-24.902,-11.719,-15.137,0.000
1714025640.824,-20.996,-23.438,-19.043,-23.926,0.000
1714025640.828,-22.949,-18.555,-22.949,-31.738,0.000
1714025640.831,-22.949,-24.414,-28.809,-28.809,0.000
1714025640.835,-25.879,-26.367,-20.996,-28.320,0.000
1714025640.838,-20.508,-20.020,-10.254,-26.367,0.000
1714025640.842,-14.160,-21.973,-13.672,-25.391,0.000
1714025640.846,-12.695,-31.738,-9.766,-23.926,0.000
1714025640.850,-15.137,-32.715,-8.301,-22.461,0.000
1714025640.854,-20.020,-28.809,-21.973,-26.367,0.000
1714025640.858,-20.020,-31.738,-24.902,-35.645,0.000
1714025640.862,-11.230,-30.762,-24.902,-37.109,0.000
1714025640.866,-11.230,-27.832,-31.738,-30.273,0.000
1714025640.870,-9.277,-27.832,-28.809,-29.297,0.000
1714025640.874,-2.930,-24.414,-28.809,-29.785,0.000
1714025640.877,-19.043,-20.020,-28.320,-33.203,0.000
1714025640.881,-31.250,-21.484,-20.020,-40.039,0.000
1714025640.884,-27.832,-26.367,-20.508,-36.621,0.000
1714025640.888,-33.203,-30.273,-20.020,-40.527,0.000
1714025640.892,-34.668,-29.297,-25.879,-45.410,0.000
1714025640.896,-34.668,-26.367,-34.180,-41.504,0.000
1714025640.900,-30.762,-24.414,-27.344,-33.203,0.000
1714025640.904,-28.809,-17.578,-25.879,-36.133,0.000
1714025640.908,-29.785,-15.625,-29.297,-30.762,0.000
1714025640.912,-25.391,-18.555,-16.113,-18.066,0.000
1714025640.916,-22.949,-25.879,-7.812,-23.926,0.000
1714025640.919,-25.879,-25.879,-20.996,-25.879,0.000
1714025640.923,-32.227,-24.902,-30.762,-30.762,0.000
1714025640.927,-33.691,-26.367,-26.855,-31.250,0.000
1714025640.934,-30.762,-24.902,-20.508,-24.414,0.000
1714025640.938,-28.809,-26.367,-20.508,-30.273,0.000
1714025640.942,-26.367,-21.484,-23.926,-29.297,0.000
1714025640.946,-20.020,-20.508,-17.090,-21.973,0.000
1714025640.950,-21.973,-25.879,-10.254,-24.414,0.000
1714025640.954,-31.250,-30.762,-23.438,-29.297,0.000
1714025640.958,-29.297,-27.832,-35.645,-32.715,0.000
1714025640.962,-35.156,-27.344,-37.109,-43.945,0.000
1714025640.966,-40.527,-27.344,-30.762,-44.434,0.000
1714025640.969,-37.109,-21.973,-29.297,-29.785,0.000
1714025640.973,-33.203,-22.461,-23.926,-27.344,0.000
1714025640.977,-33.203,-25.391,-16.113,-29.785,0.000
1714025640.979,-31.738,-24.902,-24.414,-26.855,0.000
1714025640.982,-26.855,-24.414,-27.832,-21.973,0.000
1714025640.986,-28.320,-22.949,-23.926,-29.785,0.000
1714025640.990,-26.367,-21.973,-24.414,-40.527,0.000
1714025640.994,-23.438,-20.020,-36.621,-37.109,0.000
1714025640.998,-23.438,-20.996,-36.133,-30.273,0.000
1714025641.002,-27.832,-25.391,-25.391,-29.297,0.000
1714025641.006,-36.133,-27.832,-30.762,-39.062,0.000
1714025641.010,-40.527,-32.227,-33.691,-51.270,0.000
1714025641.014,-36.621,-27.832,-25.391,-39.551,0.000
1714025641.018,-36.621,-26.855,-29.785,-34.668,0.000
1714025641.022,-37.598,-29.297,-35.645,-43.945,0.000
1714025641.027,-33.691,-25.879,-36.133,-41.016,0.000
1714025641.031,-31.250,-24.414,-32.715,-34.180,0.000
1714025641.035,-24.902,-28.809,-30.273,-26.855,0.000
1714025641.039,-23.438,-25.879,-30.273,-29.785,0.000
1714025641.043,-24.414,-20.020,-33.203,-33.203,0.000
1714025641.047,-25.879,-24.902,-34.668,-28.809,0.000
1714025641.051,-27.344,-28.320,-31.738,-24.902,0.000
1714025641.055,-22.949,-27.344,-29.785,-28.809,0.000
1714025641.059,-26.367,-26.855,-34.668,-35.645,0.000
1714025641.062,-23.438,-20.020,-25.391,-28.809,0.000
1714025641.066,-17.578,-18.066,-16.113,-20.508,0.000
1714025641.070,-20.508,-27.344,-30.273,-25.879,0.000
1714025641.075,-16.113,-28.809,-39.551,-27.832,0.000
1714025641.079,-14.160,-27.344,-33.691,-29.785,0.000
1714025641.083,-9.766,-24.902,-34.668,-27.832,0.000
1714025641.087,-8.301,-21.484,-37.109,-25.879,0.000
1714025641.091,-4.883,-18.555,-27.832,-20.020,0.000
1714025641.095,-3.418,-18.555,-26.367,-23.438,0.000
1714025641.098,-4.883,-20.996,-23.438,-16.602,0.000
1714025641.102,0.488,-23.438,-21.973,-7.812,0.000
1714025641.106,-2.441,-26.367,-31.250,-10.742,0.000
1714025641.110,-15.625,-28.320,-33.691,-14.160,0.000
1714025641.114,-21.973,-34.668,-32.715,-29.785,0.000
1714025641.118,-21.973,-34.180,-33.203,-34.180,0.000
1714025641.122,-20.996,-28.809,-28.809,-29.785,0.000
1714025641.126,-20.020,-29.297,-29.785,-28.320,0.000
1714025641.129,-17.578,-28.320,-23.438,-25.879,0.000
1714025641.133,-12.695,-20.020,-17.090,-20.020,0.000
1714025641.137,-15.137,-20.996,-20.508,-20.996,0.000
1714025641.141,-24.902,-28.320,-32.227,-31.250,0.000
1714025641.145,-28.320,-32.715,-38.574,-35.645,0.000
1714025641.149,-23.926,-34.180,-34.180,-26.367,0.000
1714025641.153,-28.320,-32.227,-35.156,-26.367,0.000
1714025641.157,-36.621,-29.785,-31.738,-39.062,0.000
1714025641.161,-31.250,-28.320,-31.738,-42.969,0.000
1714025641.165,-31.250,-28.320,-35.156,-39.551,0.000
1714025641.172,-35.156,-25.391,-35.645,-38.086,0.000
1714025641.176,-33.691,-22.949,-30.762,-31.738,0.000
1714025641.180,-32.227,-21.973,-32.227,-27.832,0.000
1714025641.184,-29.785,-27.832,-37.598,-29.785,0.000
1714025641.188,-25.391,-30.273,-33.691,-27.344,0.000
1714025641.192,-19.531,-27.344,-32.227,-23.438,0.000
1714025641.196,-22.461,-26.367,-34.180,-32.715,0.000
1714025641.200,-23.438,-25.391,-28.809,-26.367,0.000
1714025641.204,-21.484,-29.785,-24.902,-15.625,0.000
1714025641.207,-20.996,-32.227,-30.273,-25.391,0.000
1714025641.211,-15.137,-25.391,-40.039,-34.180,0.000
1714025641.215,-12.695,-24.414,-42.969,-34.668,0.000
1714025641.217,-8.301,-21.973,-36.133,-30.273,0.000
1714025641.221,-0.488,-16.113,-32.715,-33.203,0.000
1714025641.225,-0.488,-18.066,-29.785,-35.645,0.000
1714025641.229,2.930,-13.184,-28.809,-30.762,0.000
1714025641.233,0.488,-13.672,-19.531,-28.809,0.000
1714025641.236,-6.836,-20.996,-20.020,-29.297,0.000
1714025641.240,-8.301,-20.508,-32.715,-25.391,0.000
1714025641.244,-16.113,-25.391,-32.227,-20.996,0.000
1714025641.248,-27.344,-33.691,-31.738,-21.484,0.000
1714025641.252,-27.832,-30.762,-21.973,-14.648,0.000
1714025641.256,-26.855,-31.738,-20.020,-16.113,0.000
1714025641.260,-30.273,-33.203,-27.832,-19.531,0.000
1714025641.262,-33.203,-27.832,-28.809,-20.508,0.000
1714025641.266,-35.156,-31.250,-20.996,-19.043,0.000
1714025641.269,-33.203,-33.203,-19.043,-9.277,0.000
1714025641.273,-35.645,-29.785,-28.809,-17.578,0.000
1714025641.277,-37.109,-32.715,-34.180,-29.785,0.000
1714025641.281,-43.945,-33.691,-31.738,-30.273,0.000
1714025641.285,-40.039,-35.156,-26.855,-23.438,0.000
1714025641.289,-37.109,-38.574,-22.461,-29.785,0.000
1714025641.293,-40.527,-32.715,-22.461,-42.969,0.000
1714025641.297,-34.180,-27.344,-23.926,-35.156,0.000
1714025641.301,-35.156,-27.832,-28.809,-30.762,0.000
1714025641.305,-40.527,-30.762,-39.551,-38.086,0.000
1714025641.307,-36.133,-27.344,-37.109,-41.016,0.000
1714025641.310,-39.551,-29.785,-33.203,-48.828,0.000
1714025641.314,-45.898,-32.715,-31.250,-53.223,0.000
1714025641.318,-41.504,-30.762,-27.832,-49.316,0.000
1714025641.322,-34.668,-30.762,-26.367,-41.992,0.000
1714025641.326,-37.109,-29.297,-26.855,-44.434,0.000
1714025641.330,-38.574,-27.344,-34.668,-40.527,0.000
1714025641.334,-32.227,-24.902,-35.156,-31.250,0.000
1714025641.338,-31.738,-21.973,-28.320,-36.621,0.000
1714025641.342,-27.832,-27.344,-31.738,-37.598,0.000
1714025641.346,-26.855,-33.203,-30.273,-33.203,0.000
1714025641.349,-29.785,-27.832,-25.879,-38.086,0.000
1714025641.356,-24.902,-28.809,-23.926,-40.527,0.000
1714025641.360,-17.578,-36.133,-14.648,-32.227,0.000
1714025641.364,-20.996,-36.621,-16.602,-29.785,0.000
1714025641.368,-25.391,-34.668,-26.855,-25.391,0.000
1714025641.371,-25.391,-36.133,-21.973,-23.926,0.000
1714025641.375,-23.438,-42.480,-24.414,-23.438,0.000
1714025641.379,-25.879,-40.527,-40.039,-24.902,0.000
1714025641.383,-24.414,-29.297,-30.762,-22.949,0.000
1714025641.387,-21.484,-31.738,-21.484,-18.555,0.000
1714025641.391,-23.926,-37.598,-26.855,-19.531,0.000
1714025641.395,-21.973,-34.180,-20.508,-17.578,0.000
1714025641.399,-22.949,-32.715,-13.184,-18.066,0.000
1714025641.404,-21.973,-33.691,-20.508,-19.531,0.000
1714025641.408,-20.996,-30.273,-27.832,-21.973,0.000
1714025641.412,-20.996,-33.203,-23.438,-24.414,0.000
1714025641.415,-20.020,-26.855,-24.414,-20.508,0.000
1714025641.419,-20.508,-22.461,-23.926,-20.508,0.000
1714025641.423,-21.484,-30.273,-18.555,-24.902,0.000
1714025641.427,-19.531,-31.738,-21.973,-29.297,0.000
1714025641.431,-22.949,-32.227,-33.203,-38.086,0.000
1714025641.435,-20.020,-29.785,-26.855,-34.668,0.000
1714025641.439,-17.578,-29.297,-21.484,-30.273,0.000
1714025641.443,-26.855,-32.715,-27.344,-38.086,0.000
1714025641.447,-23.438,-31.250,-29.785,-38.086,0.000
1714025641.451,-21.484,-27.832,-32.227,-31.250,0.000
1714025641.455,-20.996,-22.949,-30.762,-32.227,0.000
1714025641.459,-24.902,-23.926,-25.879,-33.691,0.000
1714025641.463,-26.367,-27.344,-24.414,-35.156,0.000
1714025641.466,-24.414,-30.273,-29.785,-36.621,0.000
1714025641.470,-19.043,-28.809,-24.414,-29.785,0.000
1714025641.474,-15.137,-20.996,-17.090,-28.320,0.000
1714025641.478,-18.066,-18.555,-26.367,-29.785,0.000
1714025641.482,-20.996,-19.043,-35.156,-20.020,0.000
1714025641.486,-18.555,-23.926,-33.691,-18.555,0.000
1714025641.490,-19.043,-24.414,-28.809,-29.297,0.000
1714025641.494,-18.066,-16.113,-21.973,-23.438,0.000
1714025641.498,-16.113,-17.090,-19.531,-20.996,0.000
1714025641.501,-29.785,-29.785,-24.902,-29.297,0.000
1714025641.505,-36.133,-35.156,-23.438,-30.762,0.000
1714025641.509,-25.391,-34.180,-25.879,-29.297,0.000
1714025641.513,-26.367,-30.273,-22.949,-28.320,0.000
1714025641.517,-31.738,-25.879,-22.461,-27.344,0.000
1714025641.521,-28.320,-23.438,-29.785,-26.367,0.000
1714025641.525,-27.344,-23.438,-24.414,-25.391,0.000
1714025641.529,-28.320,-27.344,-24.902,-25.391,0.000
1714025641.533,-29.297,-29.785,-35.645,-30.273,0.000
1714025641.537,-31.250,-30.273,-33.203,-30.273,0.000
1714025641.540,-25.879,-24.902,-30.762,-22.949,0.000
1714025641.544,-27.344,-21.484,-29.297,-24.414,0.000
1714025641.548,-28.809,-22.949,-18.066,-23.438,0.000
1714025641.552,-29.297,-22.949,-24.902,-27.344,0.000
1714025641.555,-25.391,-30.762,-26.367,-29.297,0.000
1714025641.559,-15.625,-31.738,-23.438,-21.973,0.000
1714025641.563,-15.137,-22.949,-28.809,-19.531,0.000
1714025641.567,-18.066,-26.855,-23.926,-20.020,0.000
1714025641.571,-24.902,-29.297,-27.832,-17.578,0.000
1714025641.575,-21.973,-23.438,-25.391,-16.113,0.000
1714025641.579,-20.996,-24.414,-16.602,-23.438,0.000
1714025641.583,-21.484,-21.973,-14.160,-20.508,0.000
1714025641.587,-22.949,-19.531,-15.137,-18.066,0.000
1714025641.589,-24.902,-22.949,-15.137,-20.508,0.000
1714025641.593,-21.973,-22.949,-14.648,-21.973,0.000
1714025641.597,-25.391,-21.484,-28.320,-23.926,0.000
1714025641.601,-24.414,-18.555,-27.344,-23.926,0.000
1714025641.605,-19.043,-18.555,-17.090,-24.414,0.000
1714025641.609,-17.578,-23.926,-20.508,-25.391,0.000
1714025641.613,-22.461,-20.020,-27.344,-26.367,0.000
1714025641.617,-20.996,-17.090,-24.414,-17.578,0.000
1714025641.621,-15.137,-24.902,-18.066,-14.648,0.000
1714025641.624,-16.113,-20.996,-18.066,-18.066,0.000
1714025641.628,-21.484,-18.066,-21.484,-21.973,0.000
1714025641.632,-26.367,-20.996,-25.391,-25.391,0.000
1714025641.635,-27.832,-24.414,-26.855,-23.438,0.000
1714025641.639,-24.414,-27.344,-22.461,-21.484,0.000
1714025641.643,-21.973,-28.809,-19.531,-20.996,0.000
1714025641.647,-28.320,-33.203,-21.973,-27.344,0.000
1714025641.651,-32.715,-34.668,-28.809,-26.855,0.000
1714025641.655,-32.227,-27.832,-30.762,-30.273,0.000
1714025641.659,-25.879,-20.508,-22.949,-26.367,0.000
1714025641.662,-24.902,-18.555,-20.508,-20.996,0.000
1714025641.666,-27.832,-17.578,-27.344,-32.227,0.000
1714025641.670,-24.414,-20.996,-32.715,-30.273,0.000
1714025641.674,-24.414,-33.691,-34.668,-31.738,0.000
1714025641.678,-26.855,-37.598,-35.645,-33.691,0.000
1714025641.680,-30.762,-32.227,-38.574,-30.762,0.000
1714025641.684,-23.438,-28.320,-36.621,-28.809,0.000
1714025641.688,-17.578,-22.461,-26.367,-26.855,0.000
1714025641.692,-29.297,-26.855,-21.484,-30.762,0.000
1714025641.696,-35.156,-25.391,-27.344,-30.273,0.000
1714025641.700,-33.203,-28.809,-26.855,-25.391,0.000
1714025641.704,-31.250,-38.574,-27.832,-24.414,0.000
1714025641.708,-27.344,-31.738,-27.344,-25.391,0.000
1714025641.712,-33.203,-29.785,-32.715,-30.273,0.000
1714025641.716,-29.785,-27.344,-36.133,-25.879,0.000
1714025641.720,-20.508,-30.273,-28.320,-24.414,0.000
1714025641.723,-26.855,-38.574,-28.320,-31.250,0.000
1714025641.726,-30.273,-32.227,-25.391,-30.273,0.000
1714025641.730,-28.809,-26.367,-23.438,-28.320,0.000
1714025641.734,-27.832,-27.344,-32.715,-27.344,0.000
1714025641.738,-28.320,-34.668,-33.691,-34.668,0.000
1714025641.741,-24.414,-33.691,-23.438,-38.574,0.000
1714025641.745,-23.926,-29.785,-26.855,-29.785,0.000
1714025641.749,-29.785,-32.715,-40.527,-31.738,0.000
1714025641.753,-34.180,-37.109,-42.480,-39.062,0.000
1714025641.757,-35.645,-37.598,-37.109,-38.574,0.000
1714025641.761,-31.738,-27.832,-34.668,-33.203,0.000
1714025641.765,-31.738,-30.273,-29.785,-27.344,0.000
1714025641.769,-26.855,-32.227,-22.949,-27.344,0.000
1714025641.775,-26.855,-33.691,-26.855,-37.109,0.000
1714025641.779,-37.109,-39.551,-30.762,-38.574,0.000
1714025641.783,-41.992,-36.621,-31.738,-36.621,0.000
1714025641.787,-40.527,-34.668,-30.762,-41.992,0.000
1714025641.791,-33.203,-35.156,-31.738,-43.945,0.000
1714025641.795,-29.785,-35.156,-41.504,-38.574,0.000
1714025641.799,-33.691,-34.180,-39.551,-38.574,0.000
1714025641.802,-29.785,-30.273,-28.809,-32.227,0.000
1714025641.806,-21.484,-24.902,-23.438,-22.949,0.000
1714025641.810,-17.090,-22.949,-17.090,-19.043,0.000
1714025641.814,-21.973,-25.391,-11.719,-24.414,0.000
1714025641.818,-24.902,-24.902,-20.996,-30.762,0.000
1714025641.823,-26.367,-27.344,-27.344,-27.832,0.000
1714025641.827,-28.809,-30.762,-25.391,-29.297,0.000
1714025641.831,-29.297,-28.320,-25.879,-35.645,0.000
1714025641.835,-24.902,-28.809,-31.250,-29.785,0.000
1714025641.839,-24.414,-35.156,-35.156,-31.250,0.000
1714025641.843,-26.367,-31.250,-32.715,-34.180,0.000
1714025641.847,-25.879,-27.344,-21.484,-24.414,0.000
1714025641.851,-24.414,-27.832,-17.578,-27.832,0.000
1714025641.854,-21.484,-26.367,-33.691,-31.738,0.000
1714025641.858,-24.414,-27.344,-33.691,-32.227,0.000
1714025641.862,-30.273,-26.855,-20.020,-39.551,0.000
1714025641.866,-37.109,-31.250,-22.461,-38.086,0.000
1714025641.870,-32.715,-29.785,-30.273,-37.109,0.000
1714025641.874,-29.297,-21.484,-35.156,-44.922,0.000
1714025641.878,-31.250,-26.367,-28.809,-41.992,0.000
1714025641.882,-27.344,-27.344,-24.414,-37.109,0.000
1714025641.886,-26.367,-25.391,-31.738,-37.598,0.000
1714025641.890,-32.715,-26.855,-37.598,-37.598,0.000
1714025641.894,-40.527,-24.902,-40.039,-43.457,0.000
1714025641.898,-34.180,-24.414,-34.668,-32.227,0.000
1714025641.902,-26.855,-30.762,-35.645,-18.066,0.000
1714025641.906,-31.250,-26.855,-41.992,-30.273,0.000
1714025641.909,-38.086,-24.414,-33.691,-40.527,0.000
1714025641.913,-35.645,-25.391,-31.738,-38.086,0.000
1714025641.917,-33.203,-25.879,-24.902,-34.180,0.000
1714025641.921,-32.227,-28.320,-20.020,-36.621,0.000
1714025641.925,-31.738,-20.508,-31.738,-35.645,0.000
1714025641.929,-36.133,-20.996,-32.227,-27.832,0.000
1714025641.933,-38.086,-24.414,-30.762,-29.297,0.000
1714025641.937,-37.109,-24.902,-39.551,-30.762,0.000
1714025641.940,-38.574,-26.855,-40.039,-36.133,0.000
1714025641.944,-40.039,-25.879,-41.016,-43.945,0.000
1714025641.948,-42.480,-24.414,-41.992,-36.621,0.000
1714025641.952,-37.598,-24.902,-29.785,-35.156,0.000
1714025641.956,-36.133,-23.438,-36.621,-44.434,0.000
1714025641.960,-41.992,-25.879,-51.270,-49.805,0.000
1714025641.963,-47.363,-36.133,-45.898,-45.410,0.000
1714025641.967,-41.992,-32.715,-34.180,-36.133,0.000
1714025641.971,-38.086,-30.762,-32.715,-34.668,0.000
1714025641.975,-40.039,-38.086,-33.691,-42.969,0.000
1714025641.979,-37.109,-34.180,-36.133,-39.551,0.000
1714025641.983,-43.457,-33.203,-38.574,-39.062,0.000
1714025641.987,-41.016,-32.715,-27.344,-35.645,0.000
1714025641.991,-34.668,-32.715,-24.902,-28.809,0.000
1714025641.995,-34.180,-22.461,-29.785,-32.715,0.000
1714025641.999,-33.203,-17.578,-30.762,-33.203,0.000
1714025642.002,-30.762,-23.438,-27.832,-29.297,0.000
1714025642.006,-30.273,-30.762,-23.926,-34.180,0.000
1714025642.009,-31.250,-26.855,-23.926,-44.922,0.000
1714025642.013,-29.297,-23.926,-29.297,-39.062,0.000
1714025642.017,-34.668,-35.156,-27.832,-29.297,0.000
1714025642.021,-32.227,-34.180,-22.949,-29.785,0.000
1714025642.025,-20.508,-25.391,-24.414,-27.832,0.000
1714025642.029,-25.879,-28.809,-34.180,-35.156,0.000
1714025642.033,-34.668,-33.203,-40.039,-35.645,0.000
1714025642.037,-33.691,-28.320,-38.086,-29.297,0.000
1714025642.040,-38.086,-31.738,-35.156,-42.480,0.000
1714025642.044,-43.945,-35.156,-36.133,-49.805,0.000
1714025642.048,-37.109,-30.273,-36.133,-40.039,0.000
1714025642.052,-36.621,-28.320,-32.715,-33.691,0.000
1714025642.055,-38.086,-24.902,-31.738,-35.156,0.000
1714025642.059,-31.738,-24.414,-22.461,-33.203,0.000
1714025642.063,-31.738,-22.461,-13.672,-28.320,0.000
1714025642.067,-31.250,-21.484,-14.160,-28.320,0.000
1714025642.070,-30.762,-26.367,-19.043,-32.227,0.000
1714025642.074,-32.715,-28.809,-23.438,-30.762,0.000
1714025642.078,-32.715,-26.855,-25.879,-28.809,0.000
1714025642.082,-32.715,-22.461,-26.855,-31.738,0.000
1714025642.086,-31.250,-19.043,-24.414,-30.762,0.000
1714025642.090,-33.691,-20.508,-22.949,-37.598,0.000
1714025642.094,-31.738,-20.996,-10.742,-31.738,0.000
1714025642.098,-33.203,-23.438,-16.113,-33.203,0.000
1714025642.100,-36.133,-25.391,-31.250,-42.969,0.000
1714025642.104,-18.555,-28.320,-30.762,-37.109,0.000
1714025642.108,-17.090,-29.297,-16.113,-35.156,0.000
1714025642.112,-48.828,-22.949,-5.859,-55.664,0.000
1714025642.116,-61.523,-33.691,-14.648,-73.242,0.000
1714025642.120,-48.340,-43.457,-15.625,-62.500,0.000
1714025642.124,-41.016,-40.039,-13.184,-60.059,0.000
1714025642.128,-48.340,-37.109,-7.324,-70.312,0.000
1714025642.132,-59.570,-40.039,0.488,-72.754,0.000
1714025642.135,-80.566,-43.457,5.859,-84.473,0.000
1714025642.139,-81.543,-36.621,8.301,-82.031,0.000
1714025642.143,-78.125,-34.180,10.742,-73.730,0.000
1714025642.150,-89.355,-36.133,12.695,-73.730,0.000
1714025642.154,-93.262,-38.574,15.625,-71.289,0.000
1714025642.158,-98.633,-47.363,13.672,-74.219,0.000
1714025642.162,-89.844,-46.875,25.391,-62.012,0.000
1714025642.166,-80.078,-43.457,30.273,-55.176,0.000
1714025642.169,-67.383,-50.781,16.113,-44.922,0.000
1714025642.173,-44.922,-51.270,17.578,-27.832,0.000
1714025642.177,-44.922,-49.316,19.531,-28.809,0.000
1714025642.181,-35.156,-54.199,13.672,-17.578,0.000
1714025642.185,-23.926,-60.059,6.348,-1.465,0.000
1714025642.189,-23.926,-64.453,4.883,-5.859,0.000
1714025642.193,-14.648,-59.082,0.488,-2.930,0.000
1714025642.198,7.324,-61.523,-5.859,24.414,0.000
1714025642.202,18.066,-63.477,-5.371,38.574,0.000
1714025642.206,10.742,-61.035,-6.836,34.668,0.000
1714025642.210,23.926,-65.430,-8.301,43.457,0.000
1714025642.214,41.016,-62.012,-15.137,53.223,0.000
1714025642.218,45.410,-53.711,-27.344,58.105,0.000
1714025642.222,52.734,-54.688,-30.762,64.941,0.000
1714025642.226,60.059,-51.758,-32.227,66.406,0.000
1714025642.230,68.359,-42.969,-34.180,74.219,0.000
1714025642.233,67.871,-37.109,-34.668,74.707,0.000
1714025642.237,67.383,-37.598,-34.668,67.383,0.000
1714025642.241,66.406,-39.062,-41.992,69.336,0.000
1714025642.246,58.594,-38.574,-49.805,62.988,0.000
1714025642.249,66.406,-35.156,-46.875,67.383,0.000
1714025642.253,72.754,-29.297,-46.387,70.312,0.000
1714025642.257,62.988,-24.902,-48.340,57.129,0.000
1714025642.261,60.547,-26.367,-46.387,52.246,0.000
1714025642.265,62.012,-30.762,-44.434,58.594,0.000
1714025642.269,60.547,-30.762,-42.969,58.105,0.000
1714025642.273,61.035,-31.250,-41.992,48.828,0.000
1714025642.277,61.523,-29.785,-39.062,50.781,0.000
1714025642.281,56.641,-22.461,-35.156,43.945,0.000
1714025642.285,47.363,-21.973,-41.504,28.320,0.000
1714025642.288,43.457,-24.902,-45.898,26.367,0.000
1714025642.292,37.109,-25.391,-42.480,26.855,0.000
1714025642.296,29.297,-24.902,-42.969,22.949,0.000
1714025642.300,26.367,-28.320,-42.969,21.484,0.000
1714025642.304,22.949,-32.715,-41.504,25.391,0.000
1714025642.308,20.020,-30.762,-41.992,25.391,0.000
1714025642.312,17.578,-28.809,-37.109,21.484,0.000
1714025642.316,14.648,-27.344,-31.250,18.555,0.000
1714025642.319,16.602,-22.949,-31.250,19.531,0.000
1714025642.323,18.066,-17.090,-25.391,25.391,0.000
1714025642.327,8.301,-17.578,-23.926,19.043,0.000
1714025642.331,2.930,-21.484,-27.344,14.160,0.000
1714025642.335,8.301,-18.555,-33.691,13.184,0.000
1714025642.339,6.348,-21.484,-39.551,1.465,0.000
1714025642.343,0.977,-25.391,-32.227,-1.953,0.000
1714025642.346,-0.488,-29.297,-30.762,7.324,0.000
1714025642.350,-1.465,-33.691,-36.133,12.207,0.000
1714025642.354,-0.977,-32.715,-33.203,5.371,0.000
1714025642.358,-1.953,-33.203,-33.203,-2.441,0.000
1714025642.362,-1.465,-28.320,-33.691,-2.441,0.000
1714025642.366,-1.953,-25.879,-33.203,1.953,0.000
1714025642.370,-0.977,-24.902,-31.250,3.906,0.000
1714025642.374,0.977,-24.414,-22.461,0.000,0.000
1714025642.378,-2.930,-26.367,-16.602,-4.395,0.000
1714025642.382,-5.859,-28.809,-22.949,-3.418,0.000
1714025642.384,-2.441,-28.320,-23.438,-4.395,0.000
1714025642.388,-2.441,-27.832,-22.949,-11.230,0.000
1714025642.392,-3.906,-33.691,-29.297,-15.625,0.000
1714025642.396,-9.766,-35.156,-28.809,-18.555,0.000
1714025642.400,-15.625,-28.320,-28.809,-17.090,0.000
1714025642.404,-14.160,-25.879,-32.227,-15.625,0.000
1714025642.408,-16.602,-25.879,-39.551,-20.020,0.000
1714025642.412,-16.602,-23.438,-39.551,-20.020,0.000
1714025642.416,-11.230,-28.320,-34.180,-24.902,0.000
1714025642.419,-17.090,-32.227,-38.086,-25.391,0.000
1714025642.423,-20.508,-29.297,-35.645,-26.367,0.000
1714025642.427,-17.090,-27.832,-31.738,-27.344,0.000
1714025642.430,-12.207,-29.785,-34.180,-23.438,0.000
1714025642.434,-15.137,-33.203,-34.180,-21.484,0.000
1714025642.438,-21.484,-29.297,-35.645,-23.438,0.000
1714025642.442,-20.996,-24.902,-33.203,-19.531,0.000
1714025642.446,-29.297,-26.367,-36.133,-24.902,0.000
1714025642.450,-32.227,-33.691,-45.898,-27.344,0.000
1714025642.453,-30.762,-34.668,-43.457,-20.020,0.000
1714025642.457,-27.344,-32.227,-33.203,-23.926,0.000
1714025642.461,-28.809,-37.109,-36.133,-28.809,0.000
1714025642.465,-31.738,-38.086,-38.086,-25.391,0.000
1714025642.469,-27.344,-36.621,-34.180,-21.484,0.000
1714025642.473,-25.879,-34.180,-35.156,-23.438,0.000
1714025642.476,-24.414,-26.855,-30.762,-18.555,0.000
1714025642.480,-27.344,-24.414,-29.785,-6.348,0.000
1714025642.483,-32.227,-28.809,-32.227,-12.695,0.000
1714025642.487,-34.668,-30.273,-34.668,-27.832,0.000
1714025642.491,-33.691,-25.391,-36.133,-25.879,0.000
1714025642.495,-34.180,-24.902,-35.156,-24.414,0.000
1714025642.499,-35.156,-26.367,-37.109,-32.227,0.000
1714025642.503,-33.691,-30.273,-35.156,-35.645,0.000
1714025642.507,-22.461,-33.203,-32.227,-26.367,0.000
1714025642.511,-9.277,-33.203,-36.621,-14.648,0.000
1714025642.515,-21.973,-33.691,-37.109,-28.320,0.000
1714025642.519,-35.645,-33.691,-25.879,-38.086,0.000
1714025642.525,-33.203,-28.320,-27.832,-29.785,0.000
1714025642.529,-29.297,-31.738,-35.156,-29.297,0.000
1714025642.533,-26.855,-36.621,-27.344,-24.902,0.000
1714025642.537,-26.855,-30.762,-20.508,-24.902,0.000
1714025642.541,-23.438,-33.691,-25.391,-24.902,0.000
1714025642.545,-21.484,-36.621,-32.227,-14.160,0.000
1714025642.549,-25.391,-38.574,-26.855,-14.160,0.000
1714025642.553,-27.832,-36.133,-20.508,-23.438,0.000
1714025642.557,-28.809,-34.668,-30.273,-34.668,0.000
1714025642.560,-24.902,-37.598,-31.738,-27.832,0.000
1714025642.564,-27.344,-36.133,-27.832,-17.578,0.000
1714025642.568,-29.785,-35.156,-36.621,-25.879,0.000
1714025642.573,-29.785,-36.621,-34.180,-27.832,0.000
1714025642.577,-28.809,-36.133,-26.367,-25.879,0.000
1714025642.581,-30.273,-39.062,-20.020,-28.809,0.000
1714025642.585,-31.738,-42.969,-21.973,-24.902,0.000
1714025642.589,-31.250,-39.551,-22.949,-23.926,0.000
1714025642.593,-21.484,-33.203,-17.090,-23.926,0.000
1714025642.597,-26.367,-30.273,-19.043,-26.367,0.000
1714025642.601,-35.645,-30.273,-25.879,-23.438,0.000
1714025642.605,-29.785,-33.203,-27.832,-14.160,0.000
1714025642.609,-24.414,-33.691,-28.809,-8.789,0.000
1714025642.612,-26.855,-34.180,-25.391,-15.625,0.000
1714025642.616,-29.297,-32.715,-20.996,-19.043,0.000
1714025642.621,-27.832,-31.738,-28.320,-23.438,0.000
1714025642.625,-29.785,-32.227,-32.227,-27.832,0.000
1714025642.628,-33.203,-34.668,-30.762,-27.832,0.000
1714025642.632,-31.738,-37.109,-33.691,-28.320,0.000
1714025642.636,-30.762,-34.180,-32.227,-22.949,0.000
1714025642.640,-31.738,-35.645,-31.738,-23.438,0.000
1714025642.644,-32.227,-37.598,-33.691,-32.227,0.000
1714025642.648,-29.297,-31.738,-28.320,-27.832,0.000
1714025642.652,-26.855,-31.738,-24.414,-14.648,0.000
1714025642.656,-30.273,-30.273,-26.367,-18.066,0.000
1714025642.660,-30.273,-32.715,-28.809,-29.785,0.000
1714025642.664,-27.832,-34.180,-27.344,-30.273,0.000
1714025642.667,-29.297,-27.344,-26.855,-29.297,0.000
1714025642.671,-31.738,-24.902,-29.785,-33.203,0.000
1714025642.675,-30.762,-28.809,-30.762,-28.320,0.000
1714025642.679,-31.738,-34.668,-26.855,-28.320,0.000
1714025642.683,-30.762,-35.156,-23.926,-32.715,0.000
1714025642.687,-28.320,-32.227,-29.297,-31.250,0.000
1714025642.691,-28.320,-33.691,-36.621,-32.715,0.000
1714025642.695,-31.738,-35.645,-40.039,-28.320,0.000
1714025642.699,-28.809,-31.250,-40.039,-23.438,0.000
1714025642.703,-29.785,-30.273,-40.039,-30.762,0.000
1714025642.706,-40.039,-30.273,-39.551,-42.969,0.000
1714025642.710,-38.574,-28.320,-31.738,-42.969,0.000
1714025642.713,-40.039,-32.227,-32.715,-39.551,0.000
1714025642.717,-36.621,-31.738,-38.574,-33.691,0.000
1714025642.721,-28.320,-26.367,-32.227,-23.926,0.000
1714025642.725,-28.320,-25.879,-27.344,-28.809,0.000
1714025642.729,-26.367,-29.785,-25.879,-30.273,0.000
1714025642.733,-22.461,-27.832,-17.090,-20.996,0.000
1714025642.737,-18.555,-26.855,-18.066,-24.902,0.000
1714025642.741,-21.484,-31.738,-29.297,-24.414,0.000
1714025642.745,-26.855,-34.180,-31.738,-24.414,0.000
1714025642.749,-32.715,-32.715,-31.250,-30.273,0.000
1714025642.753,-33.691,-31.250,-29.785,-30.273,0.000
1714025642.756,-32.227,-32.227,-29.297,-32.715,0.000
1714025642.759,-34.668,-36.621,-31.250,-33.203,0.000
1714025642.763,-29.785,-35.645,-27.832,-30.762,0.000
1714025642.767,-31.250,-34.180,-29.785,-26.367,0.000
1714025642.771,-31.738,-37.109,-35.645,-24.902,0.000
1714025642.775,-31.738,-38.086,-37.109,-28.809,0.000
1714025642.779,-31.250,-36.133,-35.156,-28.809,0.000
1714025642.783,-29.297,-30.273,-35.645,-24.414,0.000
1714025642.787,-31.250,-29.785,-34.180,-22.461,0.000
1714025642.791,-29.297,-25.391,-29.297,-28.320,0.000
1714025642.795,-26.367,-16.113,-25.391,-29.297,0.000
1714025642.799,-29.297,-23.926,-28.320,-31.250,0.000
1714025642.802,-29.785,-25.879,-28.320,-34.180,0.000
1714025642.805,-25.879,-19.531,-20.508,-30.273,0.000
1714025642.809,-22.949,-21.973,-28.809,-24.902,0.000
1714025642.813,-22.461,-26.367,-36.133,-24.414,0.000
1714025642.817,-26.367,-29.297,-35.645,-28.320,0.000
1714025642.821,-25.391,-28.320,-34.668,-32.715,0.000
1714025642.825,-22.949,-29.785,-37.109,-37.598,0.000
1714025642.829,-27.344,-33.203,-36.621,-27.344,0.000
1714025642.832,-28.320,-26.367,-28.320,-22.461,0.000
1714025642.836,-23.926,-24.414,-24.902,-30.273,0.000
1714025642.840,-23.926,-28.320,-27.344,-32.227,0.000
1714025642.844,-27.832,-30.762,-31.738,-33.203,0.000
1714025642.848,-29.785,-31.250,-29.297,-22.461,0.000
1714025642.851,-30.273,-28.320,-20.508,-19.531,0.000
1714025642.855,-22.461,-23.926,-22.461,-21.973,0.000
1714025642.858,-20.996,-23.926,-20.020,-20.020,0.000
1714025642.862,-25.391,-27.832,-20.996,-22.461,0.000
1714025642.866,-19.043,-26.855,-27.832,-21.484,0.000
1714025642.870,-19.531,-25.391,-31.250,-17.090,0.000
1714025642.874,-26.367,-31.250,-31.738,-24.414,0.000
1714025642.878,-29.785,-34.668,-24.902,-28.320,0.000
1714025642.882,-27.832,-30.273,-24.902,-19.531,0.000
1714025642.886,-26.367,-31.250,-27.344,-16.602,0.000
1714025642.890,-28.320,-31.738,-24.414,-25.391,0.000
1714025642.894,-25.391,-31.250,-23.926,-29.297,0.000
1714025642.900,-22.949,-31.250,-28.320,-22.949,0.000
1714025642.904,-20.508,-30.273,-22.949,-21.973,0.000
1714025642.908,-20.020,-32.227,-15.137,-20.996,0.000
1714025642.912,-26.855,-35.645,-21.973,-24.414,0.000
1714025642.916,-28.809,-30.273,-38.574,-33.203,0.000
1714025642.920,-28.320,-28.320,-35.645,-41.504,0.000
1714025642.924,-34.668,-33.203,-25.879,-45.898,0.000
1714025642.927,-36.621,-33.691,-33.203,-46.875,0.000
1714025642.931,-39.551,-32.715,-40.039,-46.387,0.000
1714025642.935,-41.992,-39.551,-37.598,-40.039,0.000
1714025642.939,-37.109,-39.062,-29.297,-45.410,0.000
1714025642.943,-36.621,-28.320,-32.227,-42.969,0.000
1714025642.948,-34.668,-29.297,-35.645,-33.203,0.000
1714025642.952,-29.785,-28.809,-29.297,-31.738,0.000
1714025642.956,-28.809,-20.020,-21.484,-34.180,0.000
1714025642.960,-29.297,-21.484,-21.973,-37.109,0.000
1714025642.964,-31.738,-28.809,-21.484,-37.109,0.000
