timestamps,TP9,AF7,AF8,TP10,Right AUX
1714028421.118,-29.297,-29.297,-29.785,-16.602,0.000
1714028421.122,-30.273,-32.227,-26.855,-25.391,0.000
1714028421.126,-31.738,-31.250,-34.180,-26.367,0.000
1714028421.130,-25.391,-30.762,-35.156,-18.066,0.000
1714028421.134,-17.578,-23.438,-34.180,-15.137,0.000
1714028421.138,-16.602,-22.461,-28.320,-26.855,0.000
1714028421.142,-17.090,-31.250,-35.645,-30.762,0.000
1714028421.146,-20.020,-31.250,-39.551,-21.973,0.000
1714028421.150,-21.484,-24.414,-29.785,-15.137,0.000
1714028421.153,-14.648,-29.297,-30.762,-16.113,0.000
1714028421.157,-17.090,-33.691,-40.039,-21.484,0.000
1714028421.161,-20.996,-31.250,-37.109,-20.508,0.000
1714028421.165,-16.113,-34.180,-28.809,-15.625,0.000
1714028421.169,-15.137,-36.133,-27.344,-17.578,0.000
1714028421.173,-12.695,-29.297,-27.344,-19.043,0.000
1714028421.177,-14.160,-25.879,-30.762,-20.508,0.000
1714028421.181,-18.066,-28.320,-30.762,-21.973,0.000
1714028421.185,-15.625,-28.320,-25.391,-16.602,0.000
1714028421.189,-14.648,-23.438,-20.020,-16.113,0.000
1714028421.192,-14.160,-22.461,-15.625,-13.672,0.000
1714028421.196,-21.484,-25.391,-13.184,-16.113,0.000
1714028421.200,-23.926,-26.367,-13.184,-19.531,0.000
1714028421.204,-17.578,-28.320,-24.414,-23.926,0.000
1714028421.208,-21.973,-28.809,-28.320,-27.344,0.000
1714028421.212,-22.949,-24.902,-18.066,-22.949,0.000
1714028421.216,-14.648,-23.438,-14.160,-9.277,0.000
1714028421.220,-13.184,-28.809,-18.555,-10.742,0.000
1714028421.224,-16.113,-31.250,-20.996,-19.043,0.000
1714028421.228,-15.137,-25.879,-24.902,-19.043,0.000
1714028421.231,-15.625,-23.926,-26.367,-19.043,0.000
1714028421.235,-18.555,-30.273,-28.320,-13.672,0.000
1714028421.239,-19.043,-29.297,-21.484,-13.184,0.000
1714028421.243,-22.461,-24.414,-25.879,-20.508,0.000
1714028421.247,-19.043,-22.949,-29.785,-18.555,0.000
1714028421.251,-22.461,-24.902,-24.902,-18.066,0.000
1714028421.255,-36.133,-32.227,-29.785,-27.832,0.000
1714028421.259,-36.621,-33.203,-36.621,-30.273,0.000
1714028421.263,-27.832,-29.297,-32.715,-17.578,0.000
1714028421.267,-24.414,-23.438,-16.602,-15.625,0.000
1714028421.271,-29.297,-26.855,-20.996,-26.367,0.000
1714028421.274,-33.691,-34.668,-39.551,-37.109,0.000
1714028421.278,-32.227,-30.762,-33.203,-34.668,0.000
1714028421.282,-30.273,-27.832,-25.879,-21.973,0.000
1714028421.286,-24.414,-28.320,-23.926,-24.414,0.000
1714028421.290,-27.832,-28.809,-20.508,-34.180,0.000
1714028421.294,-35.156,-29.297,-24.902,-35.645,0.000
1714028421.298,-30.762,-28.809,-21.484,-26.367,0.000
1714028421.302,-27.832,-29.785,-11.719,-23.438,0.000
1714028421.306,-31.738,-34.668,-20.508,-34.668,0.000
1714028421.310,-30.762,-33.691,-29.785,-33.691,0.000
1714028421.314,-28.320,-31.738,-21.484,-26.855,0.000
1714028421.317,-27.344,-38.086,-16.113,-27.832,0.000
1714028421.321,-28.320,-34.668,-14.648,-29.297,0.000
1714028421.325,-29.785,-27.832,-21.484,-27.344,0.000
1714028421.329,-33.691,-23.438,-22.949,-28.809,0.000
1714028421.333,-32.715,-20.508,-11.230,-19.531,0.000
1714028421.337,-29.297,-22.949,-21.973,-12.207,0.000
1714028421.341,-31.250,-26.367,-39.062,-19.531,0.000
1714028421.345,-33.691,-31.738,-37.598,-29.297,0.000
1714028421.349,-33.691,-27.344,-29.785,-29.297,0.000
1714028421.353,-30.273,-26.855,-29.297,-23.926,0.000
1714028421.357,-25.879,-32.227,-30.273,-29.785,0.000
1714028421.360,-27.344,-27.344,-25.879,-38.086,0.000
1714028421.364,-27.344,-25.391,-26.367,-32.227,0.000
1714028421.368,-27.344,-26.367,-24.902,-27.832,0.000
1714028421.372,-29.297,-28.320,-20.996,-25.391,0.000
1714028421.376,-32.715,-34.668,-26.855,-25.391,0.000
1714028421.380,-34.180,-30.273,-36.133,-27.832,0.000
1714028421.384,-30.762,-28.809,-30.762,-20.508,0.000
1714028421.388,-33.691,-33.691,-32.227,-16.602,0.000
1714028421.392,-38.574,-26.367,-30.762,-32.715,0.000
1714028421.396,-34.180,-17.578,-30.762,-36.133,0.000
1714028421.399,-27.344,-17.578,-27.832,-23.438,0.000
1714028421.403,-25.391,-19.531,-22.949,-28.320,0.000
1714028421.407,-27.344,-22.949,-34.180,-34.180,0.000
1714028421.411,-23.438,-25.391,-39.551,-23.438,0.000
1714028421.415,-20.996,-30.762,-35.645,-18.066,0.000
1714028421.419,-31.738,-34.180,-42.480,-30.273,0.000
1714028421.423,-34.668,-31.738,-42.480,-37.598,0.000
1714028421.427,-27.832,-27.344,-35.645,-35.156,0.000
1714028421.431,-23.926,-27.344,-34.668,-24.902,0.000
1714028421.435,-24.414,-26.855,-27.344,-28.809,0.000
1714028421.439,-20.996,-22.949,-18.066,-40.039,0.000
1714028421.442,-17.578,-25.391,-24.414,-34.668,0.000
1714028421.446,-16.113,-28.809,-36.621,-22.949,0.000
1714028421.450,-16.602,-26.855,-35.645,-19.043,0.000
1714028421.454,-20.996,-28.809,-24.414,-25.391,0.000
1714028421.458,-24.414,-36.133,-22.949,-32.227,0.000
1714028421.462,-22.949,-31.738,-28.809,-26.855,0.000
1714028421.466,-19.531,-23.438,-33.691,-21.484,0.000
1714028421.470,-21.973,-33.691,-30.273,-29.297,0.000
1714028421.474,-18.066,-38.086,-20.996,-25.391,0.000
1714028421.478,-20.508,-26.367,-21.484,-16.602,0.000
1714028421.482,-24.902,-22.461,-24.902,-15.625,0.000
1714028421.485,-20.020,-20.508,-31.738,-17.090,0.000
1714028421.489,-16.113,-21.484,-29.785,-27.832,0.000
1714028421.493,-20.020,-24.902,-30.762,-31.250,0.000
1714028421.497,-23.438,-26.367,-39.062,-24.902,0.000
1714028421.501,-19.531,-25.391,-30.762,-26.367,0.000
1714028421.505,-19.043,-27.344,-25.391,-30.762,0.000
1714028421.509,-22.461,-31.250,-28.809,-33.691,0.000
1714028421.513,-23.926,-29.297,-31.738,-30.762,0.000
1714028421.517,-29.785,-32.715,-37.109,-30.762,0.000
1714028421.521,-28.809,-30.273,-39.551,-21.973,0.000
1714028421.524,-26.855,-27.344,-25.879,-24.902,0.000
1714028421.528,-29.785,-27.832,-17.578,-32.715,0.000
1714028421.532,-28.809,-23.438,-28.320,-26.367,0.000
1714028421.536,-29.297,-21.484,-34.668,-34.668,0.000
1714028421.540,-39.551,-20.508,-30.762,-43.457,0.000
1714028421.544,-34.180,-19.531,-24.902,-30.762,0.000
1714028421.548,-30.762,-22.949,-27.344,-29.785,0.000
1714028421.552,-39.551,-22.949,-36.621,-36.621,0.000
1714028421.556,-37.598,-23.926,-33.691,-36.621,0.000
1714028421.560,-25.879,-29.785,-31.250,-36.133,0.000
1714028421.564,-27.832,-29.785,-30.762,-35.156,0.000
1714028421.567,-28.809,-28.320,-19.043,-24.902,0.000
1714028421.571,-22.949,-26.367,-20.020,-25.391,0.000
1714028421.575,-21.484,-28.320,-25.879,-33.691,0.000
1714028421.579,-26.855,-28.809,-24.902,-35.645,0.000
1714028421.583,-29.785,-22.949,-24.902,-33.691,0.000
1714028421.587,-25.879,-19.043,-21.973,-35.156,0.000
1714028421.591,-30.762,-21.973,-20.020,-44.434,0.000
1714028421.595,-33.691,-28.809,-22.949,-34.668,0.000
1714028421.599,-27.344,-26.367,-19.531,-21.973,0.000
1714028421.603,-28.809,-19.531,-19.531,-26.855,0.000
1714028421.606,-33.203,-26.367,-28.809,-32.715,0.000
1714028421.610,-27.344,-30.762,-25.391,-23.438,0.000
1714028421.614,-27.832,-27.344,-17.578,-20.996,0.000
1714028421.618,-29.297,-28.320,-19.531,-28.809,0.000
1714028421.622,-29.297,-28.320,-22.461,-29.297,0.000
1714028421.626,-33.203,-26.855,-23.926,-35.156,0.000
1714028421.630,-30.273,-26.855,-24.902,-31.738,0.000
1714028421.634,-27.344,-29.297,-35.645,-26.367,0.000
1714028421.638,-28.809,-26.855,-36.133,-33.691,0.000
1714028421.642,-26.855,-16.113,-30.273,-35.645,0.000
1714028421.645,-28.320,-20.020,-26.855,-31.738,0.000
1714028421.649,-27.832,-30.273,-25.879,-30.273,0.000
1714028421.653,-17.578,-24.902,-25.391,-28.320,0.000
1714028421.657,-25.879,-30.273,-32.227,-32.715,0.000
1714028421.661,-37.598,-29.297,-42.969,-37.109,0.000
1714028421.665,-36.621,-21.973,-30.762,-27.832,0.000
1714028421.669,-35.645,-20.996,-17.578,-29.785,0.000
1714028421.673,-36.621,-22.949,-24.902,-34.180,0.000
1714028421.677,-40.039,-27.344,-35.156,-38.574,0.000
1714028421.681,-37.598,-21.484,-41.016,-38.574,0.000
1714028421.685,-29.785,-17.090,-34.668,-31.250,0.000
1714028421.688,-28.320,-19.043,-25.391,-37.109,0.000
1714028421.692,-31.250,-21.484,-25.879,-37.598,0.000
1714028421.696,-37.109,-23.438,-26.855,-24.902,0.000
1714028421.700,-34.668,-22.461,-31.250,-19.531,0.000
1714028421.704,-29.297,-22.949,-36.133,-27.344,0.000
1714028421.708,-27.344,-28.809,-28.320,-32.227,0.000
1714028421.712,-32.715,-26.855,-27.344,-30.273,0.000
1714028421.716,-39.062,-25.391,-41.016,-19.531,0.000
1714028421.720,-41.992,-20.020,-42.969,-23.926,0.000
1714028421.724,-34.668,-20.996,-37.109,-29.297,0.000
1714028421.728,-26.367,-27.832,-39.062,-21.973,0.000
1714028421.731,-30.762,-29.297,-41.992,-23.926,0.000
1714028421.735,-29.785,-27.344,-40.039,-28.320,0.000
1714028421.739,-29.785,-25.391,-37.109,-32.227,0.000
1714028421.743,-28.809,-25.391,-30.762,-30.273,0.000
1714028421.747,-32.227,-28.320,-25.879,-25.879,0.000
1714028421.751,-38.086,-35.156,-28.809,-28.809,0.000
1714028421.755,-39.062,-32.227,-33.203,-33.203,0.000
1714028421.759,-37.109,-31.250,-34.668,-31.738,0.000
1714028421.763,-29.297,-29.785,-38.086,-22.461,0.000
1714028421.767,-23.926,-29.297,-34.668,-20.996,0.000
1714028421.770,-23.438,-25.879,-33.203,-26.367,0.000
1714028421.774,-24.902,-20.020,-30.273,-28.809,0.000
1714028421.778,-21.973,-21.484,-25.879,-30.273,0.000
1714028421.782,-14.160,-21.484,-27.344,-25.879,0.000
1714028421.786,-23.438,-24.414,-27.344,-23.438,0.000
1714028421.790,-26.367,-29.297,-34.180,-29.297,0.000
1714028421.794,-17.090,-28.320,-34.668,-33.691,0.000
1714028421.798,-18.066,-24.414,-21.484,-31.738,0.000
1714028421.802,-9.766,-24.902,-26.367,-29.785,0.000
1714028421.806,-10.742,-29.297,-39.551,-31.250,0.000
1714028421.810,-19.043,-29.297,-36.133,-23.438,0.000
1714028421.813,-15.137,-25.879,-35.156,-19.531,0.000
1714028421.817,-16.602,-20.996,-40.527,-22.949,0.000
1714028421.821,-22.949,-25.391,-35.645,-26.367,0.000
1714028421.825,-24.902,-30.762,-31.250,-23.926,0.000
1714028421.829,-26.855,-27.832,-32.715,-20.996,0.000
1714028421.833,-24.414,-20.020,-26.367,-17.090,0.000
1714028421.837,-21.484,-24.414,-22.461,-15.137,0.000
1714028421.841,-27.832,-24.414,-28.809,-18.066,0.000
1714028421.845,-25.879,-14.648,-31.738,-20.996,0.000
1714028421.849,-20.020,-16.113,-29.785,-18.555,0.000
1714028421.853,-21.973,-24.414,-37.598,-14.160,0.000
1714028421.856,-28.320,-34.180,-36.133,-27.832,0.000
1714028421.860,-25.391,-31.738,-26.855,-33.691,0.000
1714028421.864,-21.484,-24.414,-23.926,-23.926,0.000
1714028421.868,-19.531,-28.320,-26.855,-21.484,0.000
1714028421.872,-20.508,-25.391,-28.320,-25.879,0.000
1714028421.876,-20.020,-21.484,-28.320,-24.414,0.000
1714028421.880,-21.973,-24.414,-31.250,-24.902,0.000
1714028421.884,-23.438,-25.879,-32.227,-24.902,0.000
1714028421.888,-18.066,-23.926,-33.203,-24.902,0.000
1714028421.892,-27.344,-26.855,-40.039,-38.086,0.000
1714028421.895,-31.738,-29.297,-46.875,-40.527,0.000
1714028421.899,-21.973,-25.391,-34.668,-20.508,0.000
1714028421.903,-19.531,-22.949,-31.250,-23.438,0.000
1714028421.907,-25.391,-26.367,-40.527,-44.922,0.000
1714028421.911,-26.855,-27.344,-36.133,-41.992,0.000
1714028421.915,-26.367,-28.320,-37.598,-30.762,0.000
1714028421.919,-30.273,-31.738,-49.316,-32.715,0.000
1714028421.923,-34.668,-30.762,-41.992,-41.504,0.000
1714028421.927,-32.715,-28.809,-30.273,-40.039,0.000
1714028421.931,-33.203,-34.668,-34.180,-33.691,0.000
1714028421.935,-31.738,-33.691,-36.133,-29.297,0.000
1714028421.938,-24.414,-24.414,-28.320,-31.738,0.000
1714028421.942,-25.391,-26.367,-30.762,-25.879,0.000
1714028421.946,-27.832,-25.879,-34.180,-26.855,0.000
1714028421.950,-35.156,-27.832,-32.227,-31.250,0.000
1714028421.954,-42.480,-37.109,-46.387,-29.785,0.000
1714028421.958,-44.434,-42.480,-50.293,-35.156,0.000
1714028421.962,-47.852,-36.133,-37.109,-37.598,0.000
1714028421.966,-42.969,-32.227,-20.020,-26.855,0.000
1714028421.970,-32.715,-28.320,-12.695,-23.926,0.000
1714028421.974,-32.227,-29.297,-19.531,-28.320,0.000
1714028421.977,-30.273,-34.668,-22.461,-25.391,0.000
1714028421.981,-26.855,-33.203,-17.090,-19.531,0.000
1714028421.985,-24.414,-24.414,-25.879,-18.555,0.000
1714028421.989,-23.926,-13.184,-29.785,-21.484,0.000
1714028421.993,-23.438,-14.160,-23.438,-25.879,0.000
1714028421.997,-20.020,-17.090,-25.391,-23.926,0.000
1714028422.001,-21.973,-15.625,-19.531,-22.461,0.000
1714028422.005,-23.438,-19.043,-18.555,-24.902,0.000
1714028422.009,-25.879,-19.043,-28.809,-26.855,0.000
1714028422.013,-21.484,-17.578,-28.809,-23.438,0.000
1714028422.017,-19.043,-24.414,-28.809,-20.996,0.000
1714028422.020,-20.508,-25.879,-31.250,-25.391,0.000
1714028422.024,-17.578,-23.926,-35.645,-29.297,0.000
1714028422.028,-17.578,-25.879,-41.016,-29.297,0.000
1714028422.032,-17.578,-23.926,-34.668,-20.508,0.000
1714028422.036,-21.973,-22.461,-23.926,-24.414,0.000
1714028422.040,-29.297,-25.879,-25.879,-32.227,0.000
1714028422.044,-23.438,-24.414,-35.645,-28.809,0.000
1714028422.048,-20.020,-21.484,-34.668,-21.484,0.000
1714028422.052,-14.648,-21.484,-19.531,-23.438,0.000
1714028422.056,-10.742,-20.996,-12.207,-24.902,0.000
1714028422.060,-20.996,-25.879,-28.320,-24.902,0.000
1714028422.063,-21.484,-28.320,-38.086,-26.367,0.000
1714028422.067,-23.926,-27.344,-32.227,-23.438,0.000
1714028422.071,-23.438,-29.297,-36.621,-29.785,0.000
1714028422.075,-20.996,-29.785,-42.480,-37.109,0.000
1714028422.079,-26.855,-26.855,-38.574,-38.574,0.000
1714028422.083,-25.879,-22.949,-28.809,-35.156,0.000
1714028422.087,-21.484,-22.949,-29.785,-34.668,0.000
1714028422.091,-28.320,-25.391,-37.109,-37.109,0.000
1714028422.095,-36.133,-31.738,-36.133,-37.598,0.000
1714028422.099,-29.297,-33.203,-37.598,-33.691,0.000
1714028422.102,-33.203,-35.645,-33.691,-35.156,0.000
1714028422.106,-38.574,-32.715,-37.598,-41.016,0.000
1714028422.110,-32.227,-25.879,-38.086,-33.203,0.000
1714028422.114,-32.715,-26.855,-34.668,-27.344,0.000
1714028422.118,-32.715,-18.555,-37.109,-29.297,0.000
1714028422.122,-29.297,-16.602,-36.133,-25.879,0.000
1714028422.126,-34.180,-22.949,-33.691,-31.738,0.000
1714028422.130,-35.156,-22.949,-31.250,-35.156,0.000
1714028422.134,-25.879,-26.367,-30.762,-20.996,0.000
1714028422.138,-23.438,-27.344,-31.250,-8.301,0.000
1714028422.142,-26.855,-28.809,-33.691,-18.555,0.000
1714028422.145,-25.391,-30.762,-34.180,-27.344,0.000
1714028422.149,-26.855,-30.273,-24.902,-25.391,0.000
1714028422.153,-28.809,-23.926,-20.020,-24.902,0.000
1714028422.157,-24.902,-17.578,-26.367,-28.320,0.000
1714028422.161,-23.438,-21.973,-25.391,-30.762,0.000
1714028422.165,-24.414,-24.902,-25.879,-31.250,0.000
1714028422.169,-16.602,-21.484,-22.461,-27.344,0.000
1714028422.173,-16.602,-25.391,-14.648,-22.949,0.000
1714028422.177,-27.832,-26.367,-28.320,-22.949,0.000
1714028422.181,-27.832,-25.879,-30.273,-17.578,0.000
1714028422.185,-26.855,-26.367,-16.113,-18.066,0.000
1714028422.188,-30.762,-25.391,-19.043,-27.832,0.000
1714028422.192,-23.438,-27.832,-37.109,-25.879,0.000
1714028422.196,-15.625,-27.832,-39.062,-17.578,0.000
1714028422.200,-26.855,-30.762,-25.391,-25.391,0.000
1714028422.204,-38.086,-28.809,-12.207,-32.715,0.000
1714028422.208,-37.109,-29.297,-8.301,-33.691,0.000
1714028422.212,-34.180,-32.715,-11.719,-32.715,0.000
1714028422.216,-35.156,-32.715,-19.043,-24.414,0.000
1714028422.220,-34.668,-32.715,-18.066,-22.461,0.000
1714028422.224,-31.250,-35.645,-13.672,-24.902,0.000
1714028422.227,-39.062,-40.039,-25.879,-26.855,0.000
1714028422.231,-45.410,-33.203,-30.273,-34.180,0.000
1714028422.235,-37.598,-28.320,-23.926,-33.691,0.000
1714028422.239,-32.715,-29.785,-22.461,-36.621,0.000
1714028422.243,-37.109,-34.180,-26.855,-41.504,0.000
1714028422.247,-35.645,-32.715,-29.785,-33.203,0.000
1714028422.251,-31.738,-30.762,-30.273,-25.879,0.000
1714028422.255,-33.691,-39.551,-25.391,-29.785,0.000
1714028422.259,-33.691,-43.945,-20.508,-32.227,0.000
1714028422.263,-28.809,-39.062,-27.344,-26.855,0.000
1714028422.267,-30.273,-34.668,-27.832,-23.926,0.000
1714028422.270,-30.273,-32.715,-24.902,-26.367,0.000
1714028422.274,-26.367,-32.227,-21.484,-27.832,0.000
1714028422.278,-28.320,-31.738,-22.949,-31.250,0.000
1714028422.282,-34.668,-32.227,-33.691,-30.273,0.000
1714028422.286,-26.367,-33.691,-27.344,-22.949,0.000
1714028422.290,-20.996,-32.227,-21.484,-26.367,0.000
1714028422.294,-21.973,-27.832,-30.273,-27.832,0.000
1714028422.298,-17.578,-27.344,-33.203,-18.066,0.000
1714028422.302,-17.578,-27.344,-20.996,-14.160,0.000
1714028422.306,-18.066,-27.344,-22.949,-15.625,0.000
1714028422.310,-17.090,-28.320,-33.203,-20.020,0.000
1714028422.313,-16.113,-24.902,-24.414,-10.742,0.000
1714028422.317,-14.160,-24.902,-23.926,0.977,0.000
1714028422.321,-18.066,-29.785,-31.250,-22.949,0.000
1714028422.325,-18.555,-30.273,-30.762,-36.133,0.000
1714028422.329,-12.695,-29.297,-33.203,-27.832,0.000
1714028422.333,-12.695,-29.297,-33.203,-24.414,0.000
1714028422.337,-17.090,-26.855,-23.926,-22.461,0.000
1714028422.341,-20.020,-23.926,-26.367,-24.414,0.000
1714028422.345,-20.996,-29.297,-34.180,-25.391,0.000
1714028422.349,-17.578,-24.414,-29.785,-18.066,0.000
1714028422.352,-12.207,-16.602,-19.043,-19.043,0.000
1714028422.356,-14.160,-13.672,-19.531,-27.832,0.000
1714028422.360,-20.996,-18.555,-24.414,-30.273,0.000
1714028422.364,-23.438,-23.926,-26.367,-27.344,0.000
1714028422.368,-22.461,-27.832,-25.879,-26.855,0.000
1714028422.372,-29.785,-37.109,-26.367,-31.738,0.000
1714028422.376,-32.227,-37.109,-31.250,-40.527,0.000
1714028422.380,-24.902,-33.203,-23.438,-35.645,0.000
1714028422.384,-22.461,-31.738,-19.043,-28.809,0.000
1714028422.388,-32.715,-34.668,-24.902,-36.133,0.000
1714028422.391,-37.109,-29.297,-28.809,-39.062,0.000
1714028422.395,-27.832,-24.414,-27.832,-30.273,0.000
1714028422.399,-19.531,-26.855,-25.879,-24.902,0.000
1714028422.403,-21.484,-29.785,-34.180,-28.809,0.000
1714028422.407,-21.973,-35.645,-32.715,-25.879,0.000
1714028422.411,-24.902,-34.668,-33.203,-28.809,0.000
1714028422.415,-26.855,-34.180,-29.785,-28.320,0.000
1714028422.419,-26.367,-35.645,-30.273,-28.809,0.000
1714028422.423,-30.273,-29.297,-37.598,-40.039,0.000
1714028422.427,-26.855,-28.809,-27.832,-42.480,0.000
1714028422.431,-26.855,-37.109,-23.926,-32.227,0.000
1714028422.434,-31.738,-33.691,-32.227,-22.461,0.000
1714028422.438,-23.926,-22.949,-32.227,-19.043,0.000
1714028422.442,-24.902,-30.273,-27.344,-28.320,0.000
1714028422.446,-24.902,-33.691,-23.438,-27.344,0.000
1714028422.450,-16.113,-30.762,-25.879,-21.484,0.000
1714028422.454,-14.648,-26.367,-27.832,-27.344,0.000
1714028422.458,-16.602,-21.484,-28.809,-35.156,0.000
1714028422.462,-23.438,-20.996,-26.367,-32.227,0.000
1714028422.466,-30.762,-25.391,-34.180,-26.855,0.000
1714028422.470,-30.762,-30.762,-41.016,-33.691,0.000
1714028422.474,-29.785,-26.855,-41.016,-41.992,0.000
1714028422.477,-26.367,-23.438,-31.738,-35.645,0.000
1714028422.481,-23.926,-28.320,-30.273,-31.250,0.000
1714028422.485,-25.879,-30.762,-29.785,-29.297,0.000
1714028422.489,-29.297,-30.762,-27.344,-26.855,0.000
1714028422.493,-31.250,-27.832,-34.668,-27.832,0.000
1714028422.497,-36.133,-26.855,-38.574,-34.180,0.000
1714028422.501,-33.691,-28.320,-37.598,-34.668,0.000
1714028422.505,-30.273,-26.367,-34.180,-38.574,0.000
1714028422.509,-32.715,-26.367,-29.297,-37.109,0.000
1714028422.513,-36.133,-34.668,-28.809,-28.320,0.000
1714028422.517,-33.203,-41.016,-26.367,-28.809,0.000
1714028422.520,-20.996,-34.668,-14.648,-27.344,0.000
1714028422.524,-18.066,-33.691,-14.648,-24.902,0.000
1714028422.528,-13.672,-25.879,-22.461,-15.137,0.000
1714028422.532,-23.926,-17.578,-31.250,-27.344,0.000
1714028422.536,-42.480,-29.297,-36.133,-50.293,0.000
1714028422.540,-37.109,-36.621,-40.527,-46.387,0.000
1714028422.544,-24.414,-26.367,-42.969,-36.133,0.000
1714028422.548,-32.715,-22.461,-41.016,-44.434,0.000
1714028422.552,-34.180,-25.391,-27.344,-43.457,0.000
1714028422.556,-20.508,-22.949,-20.020,-30.762,0.000
1714028422.560,-16.602,-16.602,-24.902,-33.691,0.000
1714028422.563,-14.648,-23.438,-33.691,-37.598,0.000
1714028422.567,-13.184,-32.715,-41.504,-34.180,0.000
1714028422.571,-12.695,-35.645,-42.480,-28.809,0.000
1714028422.575,-14.160,-32.715,-41.504,-29.297,0.000
1714028422.579,-19.531,-29.785,-31.738,-29.297,0.000
1714028422.583,-23.438,-36.133,-12.207,-17.090,0.000
1714028422.587,-21.973,-35.645,-20.996,-11.230,0.000
1714028422.591,-26.367,-32.715,-35.645,-14.160,0.000
1714028422.595,-32.227,-35.156,-28.809,-16.602,0.000
1714028422.599,-26.855,-25.391,-28.320,-8.789,0.000
1714028422.602,-21.973,-25.391,-29.785,-1.465,0.000
1714028422.606,-15.137,-22.949,-22.461,-8.301,0.000
1714028422.610,-19.043,-18.066,-25.391,-18.066,0.000
1714028422.614,-23.438,-25.879,-22.949,-18.066,0.000
1714028422.618,-20.020,-27.344,-16.602,-16.113,0.000
1714028422.622,-22.461,-26.367,-14.160,-21.973,0.000
1714028422.626,-28.320,-35.156,-16.113,-30.273,0.000
1714028422.630,-25.391,-36.133,-32.715,-25.391,0.000
1714028422.634,-25.391,-32.227,-36.133,-21.484,0.000
1714028422.638,-26.367,-30.273,-30.762,-27.832,0.000
1714028422.642,-26.855,-28.809,-35.645,-30.762,0.000
1714028422.645,-24.902,-27.832,-29.785,-25.879,0.000
1714028422.649,-25.879,-30.762,-20.996,-25.391,0.000
1714028422.653,-29.297,-35.645,-25.879,-24.902,0.000
1714028422.657,-26.367,-32.715,-29.785,-18.066,0.000
1714028422.661,-25.879,-28.809,-32.227,-22.461,0.000
1714028422.665,-29.297,-29.297,-31.250,-26.367,0.000
1714028422.669,-24.902,-26.367,-30.762,-23.926,0.000
1714028422.673,-24.902,-27.344,-26.367,-25.879,0.000
1714028422.677,-28.809,-31.250,-15.137,-27.344,0.000
1714028422.681,-29.297,-30.273,-24.902,-22.461,0.000
1714028422.684,-30.762,-30.762,-41.504,-18.066,0.000
1714028422.688,-32.715,-37.598,-44.434,-22.461,0.000
1714028422.692,-36.133,-40.527,-43.457,-25.879,0.000
1714028422.696,-35.156,-33.203,-42.969,-32.715,0.000
1714028422.700,-30.762,-22.949,-38.086,-26.367,0.000
1714028422.704,-25.879,-24.414,-27.344,-19.531,0.000
1714028422.708,-20.020,-25.879,-20.508,-28.809,0.000
1714028422.712,-23.926,-23.926,-21.973,-31.250,0.000
1714028422.716,-22.949,-26.855,-31.738,-17.090,0.000
1714028422.720,-19.531,-28.809,-39.551,-21.973,0.000
1714028422.724,-22.949,-20.020,-36.621,-35.156,0.000
1714028422.727,-29.297,-20.996,-32.715,-40.039,0.000
1714028422.731,-26.367,-23.926,-26.855,-32.715,0.000
1714028422.735,-21.973,-21.973,-25.879,-22.461,0.000
1714028422.739,-31.738,-26.855,-28.320,-24.902,0.000
1714028422.743,-36.133,-28.320,-24.902,-30.762,0.000
1714028422.747,-33.691,-26.855,-26.855,-38.086,0.000
1714028422.751,-28.809,-23.438,-37.109,-30.762,0.000
1714028422.755,-26.855,-25.391,-38.086,-27.344,0.000
1714028422.759,-30.762,-29.785,-27.344,-30.762,0.000
1714028422.763,-31.250,-26.367,-24.414,-33.203,0.000
1714028422.766,-25.391,-21.484,-22.461,-28.809,0.000
1714028422.770,-28.320,-24.414,-19.043,-23.438,0.000
1714028422.774,-26.367,-24.414,-31.250,-33.203,0.000
1714028422.778,-29.785,-25.879,-46.875,-41.992,0.000
1714028422.782,-35.645,-32.715,-45.898,-35.645,0.000
1714028422.786,-27.832,-27.344,-35.156,-33.203,0.000
1714028422.790,-20.020,-20.508,-29.785,-34.180,0.000
1714028422.794,-23.438,-22.949,-27.344,-39.062,0.000
1714028422.798,-30.762,-24.902,-28.320,-36.133,0.000
1714028422.802,-29.297,-22.949,-26.367,-30.273,0.000
1714028422.806,-24.902,-17.578,-16.602,-28.320,0.000
1714028422.809,-30.762,-20.508,-20.996,-33.691,0.000
1714028422.813,-30.273,-25.879,-26.367,-40.039,0.000
1714028422.817,-26.367,-24.414,-28.809,-35.156,0.000
1714028422.821,-24.902,-20.508,-34.668,-39.551,0.000
1714028422.825,-24.414,-24.414,-32.227,-45.898,0.000
1714028422.829,-23.926,-21.973,-30.273,-38.574,0.000
1714028422.833,-26.855,-16.602,-30.273,-34.180,0.000
1714028422.837,-32.227,-23.438,-31.250,-35.645,0.000
1714028422.841,-30.273,-29.785,-39.062,-35.645,0.000
1714028422.845,-30.762,-25.391,-45.410,-44.434,0.000
1714028422.849,-27.344,-23.438,-40.039,-40.039,0.000
1714028422.852,-23.926,-25.391,-34.668,-25.879,0.000
1714028422.856,-28.320,-30.762,-36.133,-37.109,0.000
1714028422.860,-28.809,-30.762,-35.645,-41.504,0.000
1714028422.864,-31.738,-32.715,-32.227,-36.133,0.000
1714028422.868,-33.691,-34.180,-24.902,-40.039,0.000
1714028422.872,-27.832,-27.344,-18.555,-37.109,0.000
1714028422.876,-25.879,-27.344,-17.090,-32.227,0.000
1714028422.880,-22.949,-26.855,-20.020,-29.785,0.000
1714028422.884,-20.996,-25.879,-29.785,-22.949,0.000
1714028422.888,-21.973,-32.715,-31.738,-20.996,0.000
1714028422.892,-27.344,-31.738,-24.414,-34.180,0.000
1714028422.895,-31.738,-30.762,-29.297,-38.574,0.000
1714028422.899,-27.832,-31.250,-30.762,-25.391,0.000
1714028422.903,-26.855,-25.879,-29.785,-24.902,0.000
1714028422.907,-31.738,-26.367,-37.109,-30.273,0.000
1714028422.911,-30.273,-24.902,-41.504,-25.391,0.000
1714028422.915,-28.809,-27.344,-30.273,-20.508,0.000
1714028422.919,-29.297,-32.227,-30.273,-20.020,0.000
1714028422.923,-31.250,-25.391,-42.969,-29.785,0.000
1714028422.927,-36.133,-26.855,-41.504,-35.156,0.000
1714028422.931,-33.203,-33.203,-32.715,-29.297,0.000
1714028422.934,-31.738,-33.691,-27.344,-23.438,0.000
1714028422.938,-32.227,-30.273,-32.715,-26.855,0.000
1714028422.942,-33.691,-28.809,-37.598,-26.855,0.000
1714028422.946,-28.320,-25.391,-33.691,-20.996,0.000
1714028422.950,-26.855,-21.973,-26.855,-21.484,0.000
1714028422.954,-31.738,-25.391,-32.227,-25.391,0.000
1714028422.958,-24.902,-21.973,-39.062,-25.391,0.000
1714028422.962,-13.672,-17.090,-30.273,-17.090,0.000
1714028422.966,-18.066,-21.484,-21.484,-15.625,0.000
1714028422.970,-31.250,-26.855,-28.809,-25.879,0.000
1714028422.974,-31.738,-27.832,-25.879,-29.297,0.000
1714028422.977,-27.344,-30.273,-20.508,-27.344,0.000
1714028422.981,-24.902,-27.832,-31.738,-29.297,0.000
1714028422.985,-19.043,-22.949,-23.438,-20.996,0.000
1714028422.989,-20.996,-24.414,-10.742,-18.555,0.000
1714028422.993,-23.926,-26.367,-22.949,-18.066,0.000
1714028422.997,-21.973,-26.855,-26.367,-10.742,0.000
1714028423.001,-22.949,-30.273,-25.391,-8.789,0.000
1714028423.005,-23.926,-28.320,-25.391,-15.625,0.000
1714028423.009,-25.879,-25.391,-19.531,-22.949,0.000
1714028423.013,-24.902,-26.367,-23.438,-16.602,0.000
1714028423.017,-24.414,-22.949,-18.555,-10.254,0.000
1714028423.020,-28.809,-21.973,-20.020,-18.066,0.000
1714028423.024,-26.855,-24.902,-22.949,-25.391,0.000
1714028423.028,-21.484,-18.555,-23.438,-22.949,0.000
1714028423.032,-22.461,-16.113,-32.715,-20.996,0.000
1714028423.036,-23.438,-22.461,-30.273,-25.879,0.000
1714028423.040,-17.090,-23.438,-22.461,-25.391,0.000
1714028423.044,-11.230,-18.066,-15.625,-21.484,0.000
1714028423.048,-11.719,-18.555,-19.043,-22.461,0.000
1714028423.052,-6.836,-20.020,-23.438,-17.090,0.000
1714028423.056,-12.695,-20.508,-28.320,-20.996,0.000
1714028423.060,-22.949,-18.555,-37.109,-31.250,0.000
1714028423.063,-21.484,-14.160,-36.621,-28.320,0.000
1714028423.067,-20.996,-20.508,-38.574,-20.020,0.000
1714028423.071,-22.461,-27.344,-33.691,-28.809,0.000
1714028423.075,-17.578,-23.438,-22.949,-32.715,0.000
1714028423.079,-17.578,-22.461,-36.621,-31.250,0.000
1714028423.083,-17.578,-22.461,-40.039,-26.855,0.000
1714028423.087,-15.625,-23.926,-20.508,-17.578,0.000
1714028423.091,-20.508,-26.367,-21.973,-28.809,0.000
1714028423.095,-23.926,-29.297,-34.668,-32.227,0.000
1714028423.099,-25.391,-32.227,-31.250,-21.484,0.000
1714028423.102,-23.926,-29.297,-27.832,-23.438,0.000
1714028423.106,-20.996,-25.391,-26.367,-22.949,0.000
1714028423.110,-26.855,-27.832,-28.320,-22.461,0.000
1714028423.114,-30.762,-30.273,-31.250,-26.855,0.000
1714028423.118,-26.367,-29.785,-36.621,-22.949,0.000
1714028423.122,-25.879,-30.762,-41.016,-25.391,0.000
1714028423.126,-24.902,-35.645,-40.527,-24.902,0.000
1714028423.130,-20.020,-24.902,-38.574,-16.602,0.000
1714028423.134,-18.555,-26.855,-34.180,-12.207,0.000
1714028423.138,-21.973,-36.133,-35.156,-20.996,0.000
1714028423.142,-26.367,-31.250,-32.715,-32.227,0.000
1714028423.145,-24.902,-33.203,-31.738,-23.926,0.000
1714028423.149,-29.297,-37.109,-35.156,-24.902,0.000
1714028423.153,-36.621,-34.180,-32.715,-31.738,0.000
1714028423.157,-34.180,-27.832,-28.809,-25.879,0.000
1714028423.161,-36.621,-29.785,-36.133,-37.598,0.000
1714028423.165,-34.668,-28.809,-44.434,-40.039,0.000
1714028423.169,-32.227,-29.785,-41.992,-35.156,0.000
1714028423.173,-35.645,-34.668,-36.133,-42.480,0.000
1714028423.177,-33.203,-26.855,-26.855,-44.922,0.000
1714028423.181,-32.227,-28.320,-25.879,-35.156,0.000
1714028423.185,-25.391,-35.645,-27.832,-24.414,0.000
1714028423.188,-26.367,-30.762,-25.879,-29.297,0.000
1714028423.192,-25.391,-23.438,-23.438,-28.320,0.000
1714028423.196,-22.949,-17.578,-24.414,-21.484,0.000
1714028423.200,-23.926,-19.043,-20.996,-16.113,0.000
1714028423.204,-22.461,-20.996,-24.414,-19.043,0.000
1714028423.208,-20.508,-22.949,-36.133,-26.855,0.000
1714028423.212,-19.043,-24.414,-31.738,-21.484,0.000
1714028423.216,-21.973,-22.949,-23.438,-12.695,0.000
1714028423.220,-21.973,-24.902,-20.996,-18.555,0.000
1714028423.224,-20.508,-31.250,-23.926,-29.785,0.000
1714028423.228,0.000,-36.133,-25.391,-40.039,0.000
1714028423.231,0.000,-32.227,-22.461,-35.645,0.000
1714028423.235,0.000,-22.949,-25.391,-26.855,0.000
1714028423.239,0.000,-24.902,-28.320,-31.250,0.000
1714028423.243,0.000,-30.273,-32.227,-37.109,0.000
1714028423.247,0.000,-29.785,-31.250,-28.320,0.000
1714028423.251,0.000,-31.250,-25.879,-22.461,0.000
1714028423.255,0.000,-35.645,-31.738,-31.250,0.000
1714028423.259,0.000,-36.133,-28.320,-23.926,0.000
1714028423.263,0.000,-31.738,-21.973,-9.277,0.000
1714028423.267,0.000,-25.879,-20.996,-12.695,0.000
1714028423.270,0.000,-22.461,-22.949,-18.555,0.000
1714028423.274,-29.297,-29.785,-25.391,-26.855,0.000
1714028423.278,-29.785,-31.738,-25.391,-29.297,0.000
1714028423.282,-19.531,-26.367,-34.668,-11.719,0.000
1714028423.286,-21.484,-27.344,-39.062,-11.719,0.000
1714028423.290,-25.879,-26.855,-34.180,-27.344,0.000
1714028423.294,-26.855,-32.715,-33.203,-30.273,0.000
1714028423.298,-29.297,-35.156,-32.227,-24.902,0.000
1714028423.302,-31.738,-36.621,-40.039,-20.508,0.000
1714028423.306,-26.855,-37.109,-45.410,-21.484,0.000
1714028423.310,-26.855,-27.832,-36.133,-25.391,0.000
1714028423.313,-21.484,-33.691,-30.273,-22.949,0.000
1714028423.317,-12.207,-32.227,-34.668,-16.602,0.000
1714028423.321,-6.348,-23.926,-31.250,-17.578,0.000
1714028423.325,-6.348,-30.762,-34.668,-20.020,0.000
1714028423.329,-8.789,-36.133,-39.551,-22.949,0.000
1714028423.333,-10.254,-31.738,-39.062,-22.949,0.000
1714028423.337,-11.719,-27.344,-34.180,-18.555,0.000
1714028423.341,-17.090,-31.250,-31.250,-23.926,0.000
1714028423.345,-27.344,-36.621,-27.344,-28.320,0.000
1714028423.349,-30.762,-31.738,-27.344,-19.531,0.000
1714028423.353,-25.879,-22.949,-37.598,-9.277,0.000
1714028423.356,-24.902,-16.602,-31.738,-12.207,0.000
1714028423.360,-25.391,-21.973,-23.438,-17.090,0.000
1714028423.364,-22.949,-33.691,-33.691,-15.137,0.000
1714028423.368,-24.902,-33.691,-35.645,-17.578,0.000
1714028423.372,-35.156,-35.156,-34.180,-23.438,0.000
1714028423.376,-36.133,-38.574,-30.762,-27.344,0.000
1714028423.380,-34.668,-35.645,-26.855,-24.414,0.000
1714028423.384,-33.691,-29.785,-33.691,-30.273,0.000
1714028423.388,-36.621,-30.273,-39.551,-37.598,0.000
1714028423.392,-38.574,-26.855,-33.203,-39.062,0.000
1714028423.395,-38.574,-25.391,-32.715,-40.039,0.000
1714028423.399,-41.992,-27.832,-33.203,-38.086,0.000
1714028423.403,-32.715,-24.902,-33.203,-36.621,0.000
1714028423.407,-21.484,-22.949,-34.180,-33.203,0.000
1714028423.411,-24.902,-24.902,-30.273,-33.203,0.000
1714028423.415,-31.250,-26.855,-29.785,-32.715,0.000
1714028423.419,-30.273,-32.227,-32.715,-30.762,0.000
1714028423.423,-27.832,-27.344,-32.715,-35.645,0.000
1714028423.427,-27.832,-22.949,-29.297,-31.738,0.000
1714028423.431,-30.762,-24.902,-25.391,-26.855,0.000
1714028423.435,-29.297,-19.043,-29.297,-28.809,0.000
1714028423.438,-28.809,-21.484,-34.180,-29.297,0.000
1714028423.442,-32.715,-29.785,-21.484,-28.809,0.000
1714028423.446,-26.367,-27.344,-14.160,-22.461,0.000
1714028423.450,-24.414,-22.949,-22.949,-21.973,0.000
1714028423.454,-26.855,-21.484,-27.832,-28.809,0.000
1714028423.458,-25.391,-26.367,-24.902,-27.344,0.000
1714028423.462,-26.367,-24.414,-26.855,-27.344,0.000
1714028423.466,-35.156,-23.438,-24.414,-31.250,0.000
1714028423.470,-38.086,-25.879,-23.438,-29.297,0.000
1714028423.474,-32.227,-20.996,-22.461,-30.273,0.000
1714028423.477,-25.391,-20.996,-23.926,-27.344,0.000
1714028423.481,-22.949,-24.902,-24.414,-21.973,0.000
1714028423.485,-21.484,-27.832,-17.578,-13.184,0.000
1714028423.489,-26.855,-27.344,-20.508,-18.555,0.000
1714028423.493,-34.180,-29.297,-21.484,-35.156,0.000
1714028423.497,-29.297,-33.691,-16.113,-36.133,0.000
1714028423.501,-30.273,-35.645,-15.625,-27.832,0.000
1714028423.505,-34.180,-27.832,-17.090,-28.320,0.000
1714028423.509,-31.250,-26.367,-17.090,-31.738,0.000
1714028423.513,-37.598,-26.855,-29.785,-34.180,0.000
1714028423.517,-41.992,-26.367,-35.156,-33.691,0.000
1714028423.520,-32.715,-29.785,-20.020,-22.949,0.000
1714028423.524,-29.785,-31.250,-22.461,-25.391,0.000
1714028423.528,-28.809,-30.762,-33.203,-31.250,0.000
1714028423.532,-26.367,-29.785,-26.367,-17.578,0.000
1714028423.536,-24.902,-25.391,-23.926,-16.113,0.000
1714028423.540,-26.367,-24.414,-25.391,-22.461,0.000
1714028423.544,-30.273,-26.367,-30.273,-30.273,0.000
1714028423.548,-28.809,-26.367,-34.180,-29.297,0.000
1714028423.552,-23.438,-27.832,-27.832,-25.391,0.000
1714028423.556,-21.484,-24.902,-20.508,-32.715,0.000
1714028423.560,-23.926,-24.902,-22.949,-34.668,0.000
1714028423.563,-29.785,-29.297,-24.414,-29.297,0.000
1714028423.567,-30.273,-32.715,-21.973,-29.785,0.000
1714028423.571,-25.391,-32.715,-28.320,-32.227,0.000
1714028423.575,-23.926,-29.785,-33.691,-27.344,0.000
1714028423.579,-29.785,-32.715,-39.551,-27.344,0.000
1714028423.583,-28.809,-32.227,-34.180,-30.762,0.000
1714028423.587,-25.879,-30.762,-28.320,-28.809,0.000
1714028423.591,-22.461,-31.738,-37.109,-21.484,0.000
1714028423.595,-22.461,-32.227,-33.691,-19.043,0.000
1714028423.599,-30.273,-35.156,-23.926,-18.555,0.000
1714028423.603,-28.809,-32.715,-14.160,-15.625,0.000
1714028423.606,-27.832,-32.715,-17.090,-23.926,0.000
1714028423.610,-27.344,-32.227,-24.414,-25.391,0.000
1714028423.614,-21.973,-26.855,-32.227,-20.020,0.000
1714028423.618,-29.297,-28.809,-41.992,-37.598,0.000
1714028423.622,-38.574,-32.715,-34.668,-45.898,0.000
1714028423.626,-40.527,-31.738,-33.691,-37.109,0.000
1714028423.630,-36.133,-25.879,-36.133,-39.551,0.000
1714028423.634,-25.879,-27.832,-34.180,-27.344,0.000
1714028423.638,-22.461,-32.715,-34.180,-19.043,0.000
1714028423.642,-29.785,-26.367,-37.598,-39.551,0.000
1714028423.645,-34.668,-26.367,-39.062,-36.621,0.000
1714028423.649,-29.785,-24.414,-39.062,-25.391,0.000
1714028423.653,-29.297,-23.926,-36.133,-31.738,0.000
1714028423.657,-40.039,-32.715,-34.668,-42.969,0.000
1714028423.661,-40.039,-31.250,-33.203,-43.945,0.000
1714028423.665,-30.273,-26.855,-28.320,-32.715,0.000
1714028423.669,-34.180,-29.785,-33.691,-28.809,0.000
1714028423.673,-36.133,-27.344,-37.109,-32.227,0.000
1714028423.677,-31.250,-24.902,-36.621,-34.668,0.000
1714028423.681,-31.250,-23.438,-39.062,-24.414,0.000
1714028423.685,-25.391,-20.020,-30.273,-18.555,0.000
1714028423.688,-21.973,-26.367,-22.949,-26.367,0.000
1714028423.692,-26.855,-29.785,-28.320,-36.133,0.000
1714028423.696,-22.461,-23.926,-32.227,-30.762,0.000
1714028423.700,-18.066,-21.484,-20.508,-15.625,0.000
1714028423.704,-18.066,-22.461,-21.973,-11.230,0.000
1714028423.708,-23.438,-26.855,-33.203,-17.578,0.000
1714028423.712,-28.809,-23.438,-31.250,-28.809,0.000
1714028423.716,-23.926,-18.555,-31.738,-21.484,0.000
1714028423.720,-21.973,-24.414,-26.855,-20.996,0.000
1714028423.724,-25.391,-29.297,-29.297,-31.738,0.000
1714028423.728,-26.367,-27.344,-33.691,-30.273,0.000
1714028423.731,-27.344,-26.855,-23.438,-29.785,0.000
1714028423.735,-29.785,-29.297,-23.926,-32.227,0.000
1714028423.739,-32.227,-24.902,-24.414,-29.785,0.000
1714028423.743,-33.203,-24.414,-28.809,-29.297,0.000
1714028423.747,-27.832,-28.320,-33.203,-24.414,0.000
1714028423.751,-24.414,-28.320,-30.762,-20.508,0.000
1714028423.755,-26.855,-32.715,-31.250,-25.391,0.000
1714028423.759,-30.762,-37.598,-31.738,-30.273,0.000
1714028423.763,-27.344,-31.250,-27.344,-28.809,0.000
1714028423.767,-27.344,-28.809,-26.367,-34.668,0.000
1714028423.770,-31.250,-27.344,-28.809,-36.133,0.000
1714028423.774,-30.762,-22.461,-31.250,-28.809,0.000
1714028423.778,-30.273,-22.461,-34.668,-31.738,0.000
1714028423.782,-33.203,-27.344,-35.156,-41.992,0.000
1714028423.786,-35.156,-39.062,-27.832,-34.668,0.000
1714028423.790,-31.738,-34.668,-31.250,-31.250,0.000
1714028423.794,-23.926,-24.902,-26.367,-29.297,0.000
1714028423.798,-28.809,-33.691,-17.090,-25.879,0.000
1714028423.802,-32.227,-30.762,-20.020,-25.879,0.000
1714028423.806,-27.832,-22.949,-23.926,-27.832,0.000
1714028423.810,-27.832,-25.879,-24.902,-32.715,0.000
1714028423.813,-27.344,-26.367,-26.367,-32.227,0.000
1714028423.817,-26.367,-28.320,-35.156,-25.391,0.000
1714028423.821,-22.949,-26.855,-35.645,-24.414,0.000
1714028423.825,-21.973,-32.715,-32.227,-29.297,0.000
1714028423.829,-25.391,-36.133,-21.973,-28.320,0.000
1714028423.833,-24.902,-32.227,-11.719,-18.066,0.000
1714028423.837,-20.508,-26.855,-14.160,-14.648,0.000
1714028423.841,-26.855,-22.949,-22.949,-24.414,0.000
1714028423.845,-37.598,-30.762,-30.273,-33.691,0.000
1714028423.849,-31.250,-33.203,-26.855,-32.715,0.000
1714028423.852,-27.832,-26.367,-23.438,-24.414,0.000
1714028423.856,-35.156,-25.391,-24.414,-28.320,0.000
1714028423.860,-38.086,-32.227,-27.832,-38.086,0.000
1714028423.864,-40.039,-32.715,-27.832,-34.180,0.000
1714028423.868,-37.598,-31.738,-32.227,-25.879,0.000
1714028423.872,-28.320,-27.344,-30.273,-24.414,0.000
1714028423.876,-26.367,-28.320,-23.438,-33.203,0.000
1714028423.880,-29.785,-34.668,-24.414,-33.203,0.000
1714028423.884,-32.715,-36.621,-35.156,-21.484,0.000
1714028423.888,-32.227,-32.715,-37.109,-20.508,0.000
1714028423.892,-29.297,-32.227,-32.227,-31.250,0.000
1714028423.895,-34.668,-35.645,-37.109,-39.551,0.000
1714028423.899,-34.180,-37.109,-37.598,-35.645,0.000
1714028423.903,-26.367,-40.527,-27.344,-29.297,0.000
1714028423.907,-26.855,-31.250,-26.367,-32.227,0.000
1714028423.911,-27.344,-24.414,-29.297,-33.691,0.000
1714028423.915,-19.043,-29.297,-22.949,-28.320,0.000
1714028423.919,-20.020,-25.879,-26.367,-27.832,0.000
1714028423.923,-25.879,-21.484,-35.645,-27.344,0.000
1714028423.927,-23.438,-20.996,-32.227,-24.414,0.000
1714028423.931,-22.949,-22.461,-26.855,-24.902,0.000
1714028423.935,-24.414,-23.438,-25.879,-24.902,0.000
1714028423.938,-22.461,-24.414,-20.996,-24.902,0.000
1714028423.942,-27.832,-29.785,-17.090,-33.691,0.000
1714028423.946,-28.320,-29.785,-22.949,-37.598,0.000
1714028423.950,-20.020,-25.879,-29.297,-28.809,0.000
1714028423.954,-21.484,-19.531,-32.227,-31.250,0.000
1714028423.958,-26.855,-18.066,-30.273,-41.504,0.000
1714028423.962,-30.762,-25.391,-26.855,-36.133,0.000
1714028423.966,-30.762,-31.250,-32.227,-26.367,0.000
1714028423.970,-30.762,-24.902,-31.738,-28.320,0.000
1714028423.974,-26.855,-19.043,-25.879,-33.203,0.000
1714028423.977,-18.066,-16.602,-16.113,-22.461,0.000
1714028423.981,-20.996,-14.648,-13.672,-23.926,0.000
1714028423.985,-28.320,-19.531,-26.855,-34.180,0.000
1714028423.989,-23.926,-20.508,-40.039,-31.738,0.000
1714028423.993,-23.438,-23.926,-41.016,-36.133,0.000
1714028423.997,-22.949,-26.367,-38.574,-36.621,0.000
1714028424.001,-11.230,-24.414,-31.250,-19.531,0.000
1714028424.005,-21.973,-28.320,-29.297,-25.391,0.000
1714028424.009,-45.410,-26.855,-35.645,-42.969,0.000
1714028424.013,-41.992,-20.020,-32.715,-29.297,0.000
1714028424.017,-28.320,-20.020,-21.973,-21.973,0.000
1714028424.020,-33.203,-29.297,-18.555,-35.156,0.000
1714028424.024,-36.621,-32.227,-33.691,-42.480,0.000
1714028424.028,-32.227,-28.809,-39.551,-37.109,0.000
1714028424.032,-28.809,-23.926,-28.320,-25.879,0.000
1714028424.036,-26.855,-24.902,-28.320,-25.879,0.000
1714028424.040,-26.855,-29.785,-36.133,-28.320,0.000
1714028424.044,-30.762,-28.320,-36.621,-30.273,0.000
1714028424.048,-31.738,-29.785,-23.926,-31.738,0.000
1714028424.052,-30.273,-33.691,-23.438,-29.785,0.000
1714028424.056,-27.832,-29.785,-30.762,-23.926,0.000
1714028424.060,-25.391,-28.320,-30.273,-28.320,0.000
1714028424.063,-26.367,-24.902,-32.227,-34.668,0.000
1714028424.067,-24.902,-20.996,-34.668,-30.273,0.000
1714028424.071,-23.438,-23.926,-31.738,-25.879,0.000
1714028424.075,-29.785,-26.855,-35.645,-35.645,0.000
1714028424.079,-28.809,-21.973,-32.715,-32.715,0.000
1714028424.083,-25.879,-22.461,-18.555,-25.391,0.000
1714028424.087,-21.484,-25.391,-20.508,-27.344,0.000
1714028424.091,-16.602,-23.438,-26.855,-22.949,0.000
1714028424.095,-23.926,-26.855,-26.855,-23.438,0.000
1714028424.099,-26.367,-25.879,-30.762,-20.508,0.000
1714028424.102,-20.996,-32.715,-31.738,-11.719,0.000
1714028424.106,-20.996,-37.598,-36.133,-20.508,0.000
1714028424.110,-20.996,-24.414,-39.062,-29.297,0.000
1714028424.114,-16.602,-21.484,-35.645,-27.344,0.000
1714028424.118,-10.742,-27.344,-34.668,-26.367,0.000
1714028424.122,-8.789,-33.203,-29.785,-27.832,0.000
1714028424.126,-13.184,-36.621,-25.391,-35.156,0.000
1714028424.130,-17.578,-33.691,-28.809,-35.156,0.000
1714028424.134,-16.113,-33.203,-28.809,-26.367,0.000
1714028424.138,-20.508,-32.227,-27.832,-21.484,0.000
1714028424.142,-32.227,-30.762,-35.645,-29.785,0.000
1714028424.145,-37.109,-32.715,-40.527,-30.273,0.000
1714028424.149,-35.645,-30.762,-31.738,-21.973,0.000
1714028424.153,-31.250,-30.273,-22.461,-20.996,0.000
1714028424.157,-30.762,-39.551,-28.320,-26.855,0.000
1714028424.161,-38.574,-40.527,-36.133,-37.598,0.000
1714028424.165,-42.969,-35.156,-31.738,-37.598,0.000
1714028424.169,-35.645,-32.715,-27.344,-34.180,0.000
1714028424.173,-31.250,-34.180,-22.949,-39.062,0.000
1714028424.177,-39.062,-35.156,-32.715,-45.898,0.000
1714028424.181,-47.852,-28.809,-40.527,-41.504,0.000
1714028424.185,-39.551,-23.926,-28.809,-30.273,0.000
1714028424.188,-32.715,-26.367,-24.414,-26.367,0.000
1714028424.192,-38.574,-33.203,-32.227,-31.250,0.000
1714028424.196,-37.109,-34.668,-35.645,-36.133,0.000
1714028424.200,-26.367,-32.227,-29.297,-31.738,0.000
1714028424.204,-22.461,-34.668,-26.367,-29.785,0.000
1714028424.208,-26.367,-34.180,-34.180,-33.203,0.000
1714028424.212,-28.320,-34.668,-30.273,-31.250,0.000
1714028424.216,-25.391,-32.715,-20.020,-23.926,0.000
1714028424.220,-19.531,-26.367,-20.996,-22.949,0.000
1714028424.224,-20.020,-27.344,-26.367,-30.273,0.000
1714028424.227,-25.391,-29.297,-29.785,-35.156,0.000
1714028424.231,-31.738,-35.156,-27.344,-34.668,0.000
1714028424.235,-27.832,-35.156,-26.367,-19.531,0.000
1714028424.239,-25.879,-28.809,-28.320,-19.043,0.000
1714028424.243,-29.297,-33.691,-36.621,-32.227,0.000
1714028424.247,-24.902,-32.715,-38.574,-33.203,0.000
1714028424.251,-27.832,-29.297,-27.344,-21.973,0.000
1714028424.255,-31.250,-28.809,-26.855,-25.391,0.000
1714028424.259,-28.809,-23.438,-32.715,-33.691,0.000
1714028424.263,-30.762,-32.715,-36.133,-34.668,0.000
1714028424.266,-31.250,-39.062,-33.691,-35.156,0.000
1714028424.270,-24.902,-30.762,-28.320,-19.531,0.000
1714028424.274,-26.367,-35.156,-29.785,-25.879,0.000
1714028424.278,-26.367,-39.062,-36.621,-36.621,0.000
1714028424.282,-19.531,-27.344,-34.180,-23.926,0.000
1714028424.286,-18.555,-22.949,-24.902,-21.973,0.000
1714028424.290,-24.414,-26.367,-22.949,-29.297,0.000
1714028424.294,-25.391,-23.926,-23.926,-27.344,0.000
1714028424.298,-21.973,-21.484,-25.879,-28.809,0.000
1714028424.302,-17.578,-22.461,-22.949,-29.297,0.000
1714028424.306,-17.578,-21.973,-18.555,-26.855,0.000
1714028424.309,-19.043,-19.531,-22.461,-25.879,0.000
1714028424.313,-15.625,-18.066,-25.391,-27.344,0.000
1714028424.317,-21.484,-21.484,-22.461,-27.832,0.000
1714028424.321,-25.879,-26.855,-27.344,-28.809,0.000
1714028424.325,-17.090,-25.391,-29.297,-24.414,0.000
1714028424.329,-14.160,-25.879,-33.203,-28.809,0.000
1714028424.333,-21.973,-24.902,-35.156,-41.504,0.000
1714028424.337,-30.273,-21.973,-24.902,-36.621,0.000
1714028424.341,-22.461,-20.996,-30.273,-30.273,0.000
1714028424.345,-17.578,-23.438,-37.598,-36.621,0.000
1714028424.349,-21.484,-21.973,-34.668,-39.551,0.000
1714028424.352,-24.414,-20.020,-30.762,-34.668,0.000
1714028424.356,-25.879,-17.090,-27.832,-34.668,0.000
1714028424.360,-33.203,-18.555,-35.156,-49.805,0.000
1714028424.364,-35.645,-23.926,-41.016,-53.223,0.000
1714028424.368,-26.855,-17.090,-28.809,-37.109,0.000
1714028424.372,-28.320,-19.531,-23.438,-31.738,0.000
1714028424.376,-26.855,-23.438,-23.926,-35.645,0.000
1714028424.380,-25.391,-23.438,-23.926,-38.574,0.000
1714028424.384,-28.809,-27.832,-27.832,-28.320,0.000
1714028424.388,-22.461,-24.414,-21.973,-16.113,0.000
1714028424.392,-23.438,-26.855,-13.184,-25.391,0.000
1714028424.395,-30.273,-34.668,-20.020,-31.250,0.000
1714028424.399,-24.902,-32.715,-21.484,-28.320,0.000
1714028424.403,-25.879,-27.344,-19.531,-24.414,0.000
1714028424.407,-27.832,-29.785,-21.484,-24.902,0.000
1714028424.411,-23.438,-24.902,-22.461,-27.344,0.000
1714028424.415,-31.250,-26.367,-28.809,-28.809,0.000
1714028424.419,-37.109,-28.809,-33.203,-35.645,0.000
1714028424.423,-33.203,-23.926,-29.785,-35.156,0.000
1714028424.427,-29.785,-24.414,-25.391,-27.832,0.000
1714028424.431,-26.367,-24.902,-19.043,-16.113,0.000
1714028424.435,-24.902,-26.367,-20.508,-15.625,0.000
1714028424.438,-26.367,-23.438,-27.344,-21.484,0.000
1714028424.442,-32.227,-28.809,-30.273,-21.973,0.000
1714028424.446,-30.762,-32.715,-35.645,-20.020,0.000
1714028424.450,-25.391,-26.367,-31.250,-18.555,0.000
1714028424.454,-27.832,-27.344,-23.926,-16.602,0.000
1714028424.458,-23.926,-26.367,-21.973,-18.066,0.000
1714028424.462,-22.461,-22.461,-21.484,-24.414,0.000
1714028424.466,-25.391,-27.344,-24.902,-20.508,0.000
1714028424.470,-21.484,-29.785,-26.855,-19.043,0.000
1714028424.474,-20.020,-25.391,-25.879,-21.973,0.000
1714028424.477,-19.531,-20.508,-30.273,-14.648,0.000
1714028424.481,-15.625,-20.508,-28.320,-16.113,0.000
1714028424.485,-18.555,-21.973,-21.973,-18.555,0.000
1714028424.489,-19.531,-20.996,-21.973,-17.090,0.000
1714028424.493,-20.020,-22.949,-26.367,-25.391,0.000
1714028424.497,-30.273,-25.391,-21.973,-31.738,0.000
1714028424.501,-36.133,-26.855,-28.809,-27.344,0.000
1714028424.505,-27.344,-28.320,-33.691,-24.902,0.000
1714028424.509,-21.484,-29.785,-24.902,-33.203,0.000
1714028424.513,-26.367,-29.297,-29.297,-42.480,0.000
1714028424.517,-30.273,-27.832,-40.039,-38.086,0.000
1714028424.520,-22.461,-26.367,-40.527,-21.484,0.000
1714028424.524,-24.902,-25.391,-30.273,-20.996,0.000
1714028424.528,-31.738,-27.832,-26.367,-31.738,0.000
1714028424.532,-22.949,-32.715,-29.785,-29.785,0.000
1714028424.536,-20.996,-33.203,-24.902,-21.973,0.000
1714028424.540,-27.832,-35.156,-24.414,-27.344,0.000
1714028424.544,-36.621,-40.527,-26.855,-37.109,0.000
1714028424.548,-37.598,-38.086,-24.902,-33.691,0.000
1714028424.552,-31.738,-32.227,-28.809,-31.250,0.000
1714028424.556,-33.691,-31.738,-29.785,-41.016,0.000
1714028424.559,-38.086,-31.738,-25.879,-38.574,0.000
1714028424.563,-34.180,-21.484,-22.461,-23.438,0.000
1714028424.567,-30.273,-19.531,-12.207,-12.695,0.000
1714028424.571,-34.180,-31.738,-5.371,-25.391,0.000
1714028424.575,-34.180,-32.715,-22.949,-40.527,0.000
1714028424.579,-34.180,-28.320,-26.367,-41.016,0.000
1714028424.583,-34.180,-29.785,-17.578,-32.715,0.000
1714028424.587,-31.738,-31.738,-20.508,-28.809,0.000
1714028424.591,-33.203,-34.668,-31.738,-37.109,0.000
1714028424.595,-27.344,-35.645,-31.738,-27.832,0.000
1714028424.599,-21.484,-35.156,-21.973,-14.648,0.000
1714028424.602,-22.461,-24.902,-15.625,-13.672,0.000
1714028424.606,-21.484,-24.902,-15.137,-17.578,0.000
1714028424.610,-26.855,-33.203,-18.066,-20.508,0.000
1714028424.614,-28.809,-25.391,-23.926,-20.996,0.000
1714028424.618,-29.297,-22.949,-29.785,-25.391,0.000
1714028424.622,-30.273,-28.320,-29.297,-31.250,0.000
1714028424.626,-30.273,-32.227,-35.156,-35.645,0.000
1714028424.630,-25.391,-30.273,-36.133,-30.273,0.000
1714028424.634,-20.020,-28.320,-31.250,-23.926,0.000
1714028424.638,-20.996,-29.785,-32.715,-21.973,0.000
1714028424.641,-17.090,-25.391,-27.832,-22.461,0.000
1714028424.645,-13.184,-24.902,-25.879,-19.043,0.000
1714028424.649,-17.578,-24.902,-25.879,-20.508,0.000
1714028424.653,-32.227,-26.855,-20.996,-27.344,0.000
1714028424.657,-35.156,-27.344,-17.578,-22.949,0.000
1714028424.661,-29.785,-25.879,-17.090,-24.414,0.000
1714028424.665,-29.297,-25.879,-23.926,-23.438,0.000
1714028424.669,-32.715,-24.902,-31.738,-27.832,0.000
1714028424.673,-29.785,-26.367,-20.508,-39.062,0.000
1714028424.677,-23.438,-24.414,-18.066,-39.062,0.000
1714028424.680,-19.043,-22.461,-28.320,-28.809,0.000
1714028424.684,-18.066,-20.996,-30.762,-17.090,0.000
1714028424.688,-19.043,-25.391,-22.949,-16.602,0.000
1714028424.692,-19.531,-26.367,-19.043,-26.367,0.000
1714028424.696,-22.461,-31.250,-17.578,-30.273,0.000
1714028424.700,-23.926,-29.785,-24.902,-23.438,0.000
1714028424.704,-20.508,-24.414,-20.508,-20.508,0.000
1714028424.708,-19.043,-26.855,-11.230,-21.973,0.000
1714028424.712,-23.926,-27.344,-22.949,-25.879,0.000
1714028424.716,-30.273,-31.250,-31.250,-25.879,0.000
1714028424.720,-27.344,-34.180,-28.809,-22.461,0.000
1714028424.723,-24.414,-34.180,-27.344,-25.879,0.000
1714028424.727,-25.879,-26.367,-25.879,-30.762,0.000
1714028424.731,-23.926,-20.020,-22.461,-26.855,0.000
1714028424.735,-17.090,-22.461,-20.020,-20.020,0.000
1714028424.739,-17.090,-27.344,-18.555,-25.879,0.000
1714028424.743,-19.531,-30.762,-23.438,-27.344,0.000
1714028424.747,-17.090,-30.273,-27.832,-24.414,0.000
1714028424.751,-15.137,-28.320,-29.785,-22.461,0.000
1714028424.755,-18.555,-28.320,-29.297,-24.414,0.000
1714028424.759,-21.973,-26.855,-24.414,-27.832,0.000
1714028424.763,-25.391,-23.438,-22.949,-29.785,0.000
1714028424.766,-26.367,-23.926,-19.043,-32.715,0.000
1714028424.770,-20.020,-27.832,-20.996,-25.391,0.000
1714028424.774,-20.020,-27.832,-26.855,-25.879,0.000
1714028424.778,-26.367,-27.832,-22.949,-30.762,0.000
1714028424.782,-24.902,-30.273,-22.461,-26.367,0.000
1714028424.786,-22.949,-25.879,-28.809,-19.043,0.000
1714028424.790,-20.996,-21.484,-38.574,-19.043,0.000
1714028424.794,-23.926,-20.020,-37.109,-27.344,0.000
1714028424.798,-30.762,-21.484,-27.344,-28.809,0.000
1714028424.802,-21.973,-24.902,-21.484,-23.926,0.000
1714028424.806,-16.602,-25.391,-23.438,-21.484,0.000
1714028424.809,-18.066,-20.508,-9.277,-22.949,0.000
1714028424.813,-19.043,-22.461,-6.836,-30.273,0.000
1714028424.817,-23.438,-26.855,-31.738,-33.203,0.000
1714028424.821,-26.855,-28.320,-37.109,-27.344,0.000
1714028424.825,-31.738,-26.367,-36.133,-28.809,0.000
1714028424.829,-28.809,-21.973,-32.715,-24.414,0.000
1714028424.833,-25.879,-19.043,-24.902,-18.555,0.000
1714028424.837,-31.250,-20.020,-30.273,-21.484,0.000
1714028424.841,-30.273,-28.320,-26.855,-22.461,0.000
1714028424.845,-29.785,-34.668,-17.578,-25.879,0.000
1714028424.848,-33.203,-32.227,-27.832,-27.832,0.000
1714028424.852,-26.855,-31.250,-38.086,-18.066,0.000
1714028424.856,-25.879,-33.203,-36.621,-26.855,0.000
1714028424.860,-25.391,-31.738,-39.551,-38.574,0.000
1714028424.864,-28.809,-28.320,-45.410,-34.668,0.000
1714028424.868,-26.855,-23.926,-38.086,-24.414,0.000
1714028424.872,-20.020,-25.879,-24.414,-25.879,0.000
1714028424.876,-24.902,-28.320,-22.949,-30.762,0.000
1714028424.880,-24.414,-31.738,-20.020,-28.809,0.000
1714028424.884,-20.020,-33.203,-16.113,-20.508,0.000
1714028424.888,-24.902,-29.785,-30.762,-26.367,0.000
1714028424.891,-25.879,-32.715,-39.551,-32.715,0.000
1714028424.895,-25.879,-30.762,-39.551,-23.926,0.000
1714028424.899,-29.297,-23.926,-33.691,-11.230,0.000
1714028424.903,-34.180,-25.391,-24.414,-15.625,0.000
1714028424.907,-34.668,-29.785,-26.855,-22.949,0.000
1714028424.911,-34.180,-27.344,-29.297,-25.879,0.000
1714028424.915,-38.574,-29.785,-21.484,-30.273,0.000
1714028424.919,-33.691,-26.855,-20.996,-22.461,0.000
1714028424.923,-22.461,-17.578,-27.344,-17.090,0.000
1714028424.927,-23.926,-21.484,-30.762,-23.438,0.000
1714028424.931,-28.809,-29.297,-31.738,-25.391,0.000
1714028424.934,-24.414,-29.297,-19.043,-23.926,0.000
1714028424.938,-17.090,-28.809,-12.207,-21.484,0.000
1714028424.942,-29.785,-37.598,-21.484,-18.066,0.000
1714028424.946,-37.109,-36.133,-23.438,-21.973,0.000
1714028424.950,-33.691,-30.273,-27.344,-24.902,0.000
1714028424.954,-39.062,-35.156,-32.227,-23.438,0.000
1714028424.958,-36.133,-34.180,-34.668,-27.832,0.000
1714028424.962,-33.691,-30.762,-29.785,-39.551,0.000
1714028424.966,-39.551,-30.762,-29.785,-36.133,0.000
1714028424.970,-40.039,-34.180,-33.203,-26.855,0.000
1714028424.973,-37.598,-36.133,-31.250,-32.227,0.000
1714028424.977,-32.227,-35.156,-26.855,-41.016,0.000
1714028424.981,-23.926,-32.715,-26.367,-39.551,0.000
1714028424.985,-21.484,-33.203,-33.691,-35.645,0.000
1714028424.989,-18.555,-32.715,-32.715,-29.297,0.000
1714028424.993,-11.719,-27.344,-31.250,-31.738,0.000
1714028424.997,-9.766,-20.020,-30.762,-29.297,0.000
1714028425.001,-6.836,-17.090,-27.344,-21.973,0.000
1714028425.005,-10.254,-16.602,-25.391,-19.531,0.000
1714028425.009,-20.020,-18.555,-26.855,-22.461,0.000
1714028425.013,-20.508,-26.367,-18.555,-20.508,0.000
1714028425.016,-23.438,-31.738,-18.555,-20.020,0.000
1714028425.020,-27.832,-29.785,-29.785,-19.043,0.000
1714028425.024,-20.508,-25.879,-28.809,-18.555,0.000
1714028425.028,-20.996,-28.809,-25.391,-22.949,0.000
1714028425.032,-26.855,-28.320,-24.414,-18.066,0.000
1714028425.036,-24.902,-24.902,-22.461,-18.555,0.000
1714028425.040,-19.043,-26.855,-27.344,-25.391,0.000
1714028425.044,-15.625,-21.973,-28.809,-27.344,0.000
1714028425.048,-20.020,-21.484,-20.996,-31.738,0.000
1714028425.052,-18.555,-24.902,-20.508,-31.250,0.000
1714028425.055,-14.648,-24.414,-32.227,-29.785,0.000
1714028425.059,-20.996,-29.297,-36.621,-41.504,0.000
1714028425.063,-21.973,-28.809,-29.785,-44.434,0.000
1714028425.067,-16.113,-21.973,-29.297,-30.273,0.000
1714028425.071,-26.367,-25.879,-32.227,-36.133,0.000
1714028425.075,-30.762,-31.250,-21.484,-41.016,0.000
1714028425.079,-33.203,-33.691,-20.996,-42.480,0.000
1714028425.083,-38.574,-37.598,-37.109,-46.875,0.000
1714028425.087,-33.691,-33.203,-42.480,-38.086,0.000
1714028425.091,-26.855,-29.785,-33.691,-34.180,0.000
1714028425.095,-29.297,-30.762,-35.156,-40.527,0.000
1714028425.098,-29.785,-31.738,-35.645,-41.016,0.000
1714028425.102,-25.391,-34.668,-29.785,-32.227,0.000
1714028425.106,-30.273,-33.203,-26.367,-30.273,0.000
1714028425.110,-33.691,-31.250,-27.344,-33.691,0.000
1714028425.114,-29.785,-28.809,-30.762,-29.785,0.000
1714028425.118,-24.902,-27.832,-30.762,-23.438,0.000
1714028425.122,-24.902,-24.902,-34.180,-25.391,0.000
1714028425.126,-28.809,-20.020,-32.227,-24.414,0.000
1714028425.130,-33.203,-22.461,-30.273,-32.227,0.000
1714028425.134,-28.809,-24.902,-31.250,-35.156,0.000
1714028425.138,-24.414,-23.926,-31.738,-28.809,0.000
1714028425.141,-19.043,-22.461,-23.438,-36.621,0.000
1714028425.145,-18.066,-21.973,-17.578,-35.156,0.000
1714028425.149,-19.531,-22.461,-24.902,-27.832,0.000
1714028425.153,-18.555,-22.949,-30.762,-29.785,0.000
1714028425.157,-20.508,-24.902,-28.320,-30.762,0.000
1714028425.161,-25.391,-26.367,-29.785,-28.809,0.000
1714028425.165,-29.297,-25.879,-18.555,-26.855,0.000
1714028425.169,-30.273,-27.344,-13.672,-27.344,0.000
1714028425.173,-25.391,-27.832,-23.926,-28.320,0.000
1714028425.177,-31.738,-27.832,-24.902,-29.297,0.000
1714028425.181,-30.762,-24.902,-26.855,-21.973,0.000
1714028425.184,-21.973,-20.020,-26.367,-18.555,0.000
1714028425.188,-24.902,-21.484,-28.320,-25.879,0.000
1714028425.192,-21.484,-23.926,-26.367,-27.344,0.000
1714028425.196,-18.555,-26.367,-21.484,-30.273,0.000
1714028425.200,-23.926,-28.320,-20.996,-29.785,0.000
1714028425.204,-23.926,-21.484,-21.484,-24.414,0.000
1714028425.208,-28.809,-23.926,-26.855,-33.203,0.000
1714028425.212,-28.320,-24.414,-29.785,-37.598,0.000
1714028425.216,-25.879,-24.902,-24.414,-32.227,0.000
1714028425.220,-30.762,-29.297,-30.273,-35.645,0.000
1714028425.223,-27.344,-28.809,-33.691,-38.574,0.000
1714028425.227,-22.461,-23.438,-25.391,-28.320,0.000
1714028425.231,-17.090,-13.184,-17.090,-22.949,0.000
1714028425.235,-19.531,-16.602,-18.555,-18.555,0.000
1714028425.239,-26.855,-27.832,-28.320,-25.391,0.000
1714028425.243,0.000,-26.367,-25.879,-35.156,0.000
1714028425.247,0.000,-20.508,-20.020,-36.621,0.000
1714028425.251,0.000,-30.273,-34.668,-27.344,0.000
1714028425.255,0.000,-35.645,-40.039,-20.508,0.000
1714028425.259,0.000,-30.762,-29.297,-25.391,0.000
1714028425.263,0.000,-32.227,-29.297,-27.344,0.000
1714028425.266,0.000,-37.109,-32.227,-27.344,0.000
1714028425.270,0.000,-33.691,-32.227,-21.484,0.000
1714028425.274,0.000,-25.879,-32.715,-28.809,0.000
1714028425.278,0.000,-23.438,-17.578,-37.598,0.000
1714028425.282,0.000,-24.902,-17.090,-30.273,0.000
1714028425.286,0.000,-26.855,-33.203,-27.344,0.000
1714028425.290,-26.367,-25.879,-24.902,-34.668,0.000
1714028425.294,-23.438,-27.344,-22.949,-39.062,0.000
1714028425.298,-26.367,-29.297,-34.668,-38.574,0.000
1714028425.302,-32.715,-26.367,-37.598,-38.574,0.000
1714028425.305,-33.691,-28.809,-28.809,-37.598,0.000
1714028425.309,-30.762,-35.645,-22.461,-40.527,0.000
1714028425.313,-34.180,-34.180,-25.879,-44.922,0.000
1714028425.317,-33.203,-28.320,-26.855,-38.086,0.000
1714028425.321,-29.785,-24.902,-19.043,-30.762,0.000
1714028425.325,-33.203,-28.320,-29.297,-46.387,0.000
1714028425.329,-35.156,-33.691,-45.410,-56.152,0.000
1714028425.333,-37.109,-31.250,-36.133,-43.945,0.000
1714028425.337,-34.668,-25.391,-28.809,-33.203,0.000
1714028425.341,-28.809,-22.949,-25.879,-33.691,0.000
1714028425.345,-30.273,-25.391,-21.484,-40.039,0.000
1714028425.348,-31.738,-27.344,-19.531,-41.992,0.000
1714028425.352,-24.414,-23.438,-7.324,-26.367,0.000
1714028425.356,-20.508,-20.020,-10.254,-20.020,0.000
1714028425.360,-26.855,-20.996,-34.180,-34.180,0.000
1714028425.364,-31.738,-20.996,-41.504,-37.598,0.000
1714028425.368,-22.461,-18.066,-33.203,-27.832,0.000
1714028425.372,-19.043,-21.484,-31.250,-26.367,0.000
1714028425.376,-14.160,-17.578,-37.109,-24.902,0.000
1714028425.380,-11.719,-12.207,-30.762,-22.461,0.000
1714028425.384,-17.090,-18.066,-27.344,-25.391,0.000
1714028425.387,-22.461,-22.461,-27.344,-30.762,0.000
1714028425.391,-20.020,-22.949,-22.949,-31.250,0.000
1714028425.395,-24.414,-25.879,-28.809,-30.762,0.000
1714028425.399,-32.227,-26.855,-41.016,-32.715,0.000
1714028425.403,-29.297,-28.809,-43.457,-31.738,0.000
1714028425.407,-23.926,-31.738,-39.551,-25.879,0.000
1714028425.411,-30.762,-34.668,-34.180,-38.574,0.000
1714028425.415,-37.598,-37.109,-26.367,-45.410,0.000
1714028425.419,-29.785,-31.738,-23.926,-29.785,0.000
1714028425.423,-25.879,-30.762,-29.785,-34.180,0.000
1714028425.427,-28.809,-30.273,-25.879,-39.551,0.000
1714028425.430,-30.762,-30.273,-28.809,-30.273,0.000
1714028425.434,-27.832,-26.855,-30.273,-25.391,0.000
1714028425.438,-25.391,-23.926,-24.902,-28.320,0.000
1714028425.442,-24.902,-26.367,-24.414,-28.809,0.000
1714028425.446,-23.438,-22.949,-19.531,-25.391,0.000
1714028425.450,-23.926,-24.414,-11.719,-21.484,0.000
1714028425.454,-28.809,-25.879,-19.043,-25.879,0.000
1714028425.458,-33.203,-27.344,-29.297,-35.645,0.000
1714028425.462,-38.086,-31.738,-33.691,-41.504,0.000
1714028425.466,-34.668,-27.832,-37.109,-31.738,0.000
1714028425.469,-31.738,-24.902,-34.180,-22.949,0.000
1714028425.473,-26.855,-19.043,-27.832,-20.508,0.000
1714028425.477,-25.391,-21.973,-26.367,-29.785,0.000
1714028425.481,-33.203,-29.785,-26.855,-32.715,0.000
1714028425.485,-31.250,-29.297,-29.297,-25.391,0.000
1714028425.489,-28.809,-26.367,-31.738,-25.879,0.000
1714028425.493,-30.762,-25.391,-33.691,-32.715,0.000
1714028425.497,-26.855,-21.973,-29.297,-27.832,0.000
1714028425.501,-29.785,-21.484,-20.508,-25.879,0.000
1714028425.505,-26.367,-21.973,-24.902,-31.250,0.000
1714028425.509,-22.949,-22.461,-32.227,-28.809,0.000
1714028425.512,-20.996,-20.996,-27.832,-24.902,0.000
1714028425.516,-17.578,-17.578,-24.902,-25.879,0.000
1714028425.520,-19.531,-22.949,-23.438,-23.926,0.000
1714028425.524,-20.508,-26.855,-31.250,-23.438,0.000
1714028425.528,-22.461,-25.391,-39.551,-26.855,0.000
1714028425.532,-30.273,-24.902,-37.109,-25.391,0.000
1714028425.536,-28.320,-20.996,-32.227,-24.902,0.000
1714028425.540,-18.066,-19.043,-23.926,-17.578,0.000
1714028425.544,-18.066,-22.949,-18.555,-21.973,0.000
1714028425.548,-29.785,-28.320,-22.461,-31.738,0.000
1714028425.552,-30.762,-30.273,-27.344,-31.738,0.000
1714028425.555,-18.066,-23.926,-23.438,-16.602,0.000
1714028425.559,-14.648,-23.926,-27.832,-12.207,0.000
1714028425.563,-30.273,-29.785,-25.391,-24.902,0.000
1714028425.567,-45.410,-30.273,-29.785,-29.297,0.000
1714028425.571,-40.527,-29.297,-35.645,-26.367,0.000
1714028425.575,-32.227,-31.738,-24.902,-28.809,0.000
1714028425.579,-37.109,-30.762,-19.043,-41.504,0.000
1714028425.583,-32.715,-29.785,-19.531,-34.668,0.000
1714028425.587,-25.879,-30.273,-20.996,-21.973,0.000
1714028425.591,-24.414,-27.832,-21.973,-28.320,0.000
1714028425.595,-20.020,-25.391,-27.832,-32.227,0.000
1714028425.598,-20.508,-29.297,-34.180,-27.832,0.000
1714028425.602,-20.996,-31.738,-33.691,-19.531,0.000
1714028425.606,-23.926,-31.250,-24.902,-24.414,0.000
1714028425.610,-24.414,-29.785,-22.461,-32.227,0.000
1714028425.614,-28.320,-30.273,-25.391,-33.691,0.000
1714028425.618,-28.320,-31.738,-32.715,-28.809,0.000
1714028425.622,-28.320,-28.809,-28.809,-26.367,0.000
1714028425.626,-30.762,-30.762,-24.414,-32.715,0.000
1714028425.630,-31.250,-30.762,-31.738,-36.621,0.000
1714028425.634,-28.320,-26.367,-33.203,-32.715,0.000
1714028425.637,-22.461,-25.391,-28.809,-26.367,0.000
1714028425.641,-31.738,-30.762,-19.531,-30.273,0.000
1714028425.645,-35.645,-29.297,-22.949,-34.668,0.000
1714028425.649,-28.809,-26.367,-25.391,-23.926,0.000
1714028425.653,-27.344,-29.297,-19.043,-22.949,0.000
1714028425.657,-35.156,-27.832,-20.020,-31.738,0.000
1714028425.661,-41.016,-30.273,-26.855,-34.180,0.000
1714028425.665,-34.668,-35.645,-37.109,-33.203,0.000
1714028425.669,-31.250,-35.156,-37.598,-28.809,0.000
1714028425.673,-33.203,-33.691,-37.598,-26.367,0.000
1714028425.677,-30.762,-28.809,-40.039,-28.809,0.000
1714028425.680,-34.668,-30.273,-26.855,-32.715,0.000
1714028425.684,-40.039,-33.691,-23.438,-34.180,0.000
1714028425.688,-37.598,-25.391,-29.297,-29.297,0.000
1714028425.692,-33.691,-25.391,-33.203,-28.809,0.000
1714028425.696,-35.156,-28.320,-39.551,-35.156,0.000
1714028425.700,-31.738,-25.391,-38.574,-26.855,0.000
1714028425.704,-29.297,-27.832,-32.227,-21.973,0.000
1714028425.708,-36.621,-27.832,-34.180,-29.785,0.000
1714028425.712,-38.086,-31.738,-32.715,-31.738,0.000
1714028425.716,-32.227,-32.227,-25.879,-23.926,0.000
1714028425.719,-26.855,-25.391,-28.320,-23.438,0.000
1714028425.723,-23.926,-30.762,-22.461,-25.879,0.000
1714028425.727,-30.273,-32.715,-28.809,-32.715,0.000
1714028425.731,-34.668,-29.785,-42.969,-43.457,0.000
1714028425.735,-33.203,-30.273,-41.504,-36.621,0.000
1714028425.739,-28.809,-28.320,-31.738,-23.926,0.000
1714028425.743,-28.320,-28.809,-29.785,-28.320,0.000
1714028425.747,-37.598,-31.250,-34.180,-35.645,0.000
1714028425.751,-33.203,-30.273,-28.809,-31.250,0.000
1714028425.755,-25.391,-31.250,-25.391,-25.879,0.000
1714028425.759,-25.391,-30.273,-34.668,-33.203,0.000
1714028425.762,-26.855,-26.367,-30.273,-34.668,0.000
1714028425.766,-25.391,-24.902,-27.344,-29.297,0.000
1714028425.770,-25.879,-26.855,-33.203,-37.109,0.000
1714028425.774,-41.504,-21.484,-22.949,-45.410,0.000
1714028425.778,-40.039,-23.926,-14.648,-39.551,0.000
1714028425.782,-31.738,-27.832,-22.949,-33.203,0.000
1714028425.786,-36.133,-24.414,-9.277,-33.691,0.000
1714028425.790,-40.527,-25.391,-11.719,-39.062,0.000
1714028425.794,-57.129,-30.273,-25.879,-58.594,0.000
1714028425.798,-73.730,-31.250,-24.902,-75.195,0.000
1714028425.801,-85.449,-29.297,-22.949,-83.008,0.000
1714028425.805,-81.543,-23.926,-15.625,-78.125,0.000
1714028425.809,-85.938,-20.508,-12.695,-84.961,0.000
1714028425.813,-103.027,-18.066,-7.812,-105.469,0.000
1714028425.817,-111.816,-17.090,-2.441,-110.352,0.000
1714028425.821,-117.676,-20.508,-0.977,-113.281,0.000
1714028425.825,-122.070,-18.555,-5.859,-120.117,0.000
1714028425.829,-126.953,-20.020,-9.766,-129.883,0.000
1714028425.833,-129.395,-20.508,-8.789,-131.836,0.000
1714028425.837,-128.906,-21.484,-10.254,-128.906,0.000
1714028425.841,-126.953,-23.438,-7.324,-126.465,0.000
1714028425.844,-115.234,-19.043,0.000,-120.117,0.000
1714028425.848,-107.422,-11.719,-0.977,-114.746,0.000
1714028425.852,-100.586,-5.859,-3.906,-107.422,0.000
1714028425.856,-98.633,-9.277,-6.348,-106.934,0.000
1714028425.860,-100.098,-16.602,-5.371,-112.793,0.000
1714028425.864,-91.797,-21.484,0.488,-103.027,0.000
1714028425.868,-80.078,-18.555,4.883,-89.844,0.000
1714028425.872,-66.406,-17.090,5.859,-85.938,0.000
1714028425.876,-60.059,-19.043,4.395,-89.355,0.000
1714028425.880,-58.105,-17.090,-10.742,-88.867,0.000
1714028425.884,-49.805,-18.555,-16.602,-74.707,0.000
1714028425.887,-46.387,-20.020,-6.836,-69.824,0.000
1714028425.891,-49.805,-25.391,-2.441,-76.172,0.000
1714028425.895,-46.387,-29.297,-0.488,-66.895,0.000
1714028425.899,-43.945,-28.809,-1.953,-53.223,0.000
1714028425.903,-42.969,-29.297,-8.789,-45.898,0.000
1714028425.907,-45.410,-33.203,-7.324,-47.852,0.000
1714028425.911,-57.129,-32.227,-1.465,-54.199,0.000
1714028425.915,-64.453,-28.320,3.418,-52.734,0.000
1714028425.919,-65.918,-34.180,0.000,-54.199,0.000
1714028425.923,-74.219,-31.738,-2.930,-64.941,0.000
1714028425.927,-84.473,-24.902,-2.930,-80.566,0.000
1714028425.930,-83.008,-29.785,3.418,-73.242,0.000
1714028425.934,-86.914,-32.227,10.742,-64.453,0.000
1714028425.938,-100.098,-36.133,8.301,-83.984,0.000
1714028425.942,-94.238,-37.598,6.348,-88.379,0.000
1714028425.946,-92.773,-38.086,9.766,-83.984,0.000
1714028425.950,-96.680,-38.086,14.160,-87.402,0.000
1714028425.954,-93.750,-34.668,16.602,-90.820,0.000
1714028425.958,-94.238,-39.551,0.000,-91.309,0.000
1714028425.962,-97.656,-42.969,-4.395,-89.844,0.000
1714028425.966,-90.820,-43.457,11.230,-83.984,0.000
1714028425.970,-83.008,-43.457,12.207,-75.195,0.000
1714028425.973,-82.031,-42.480,1.953,-73.242,0.000
1714028425.977,-72.266,-40.039,0.977,-63.965,0.000
1714028425.981,-61.523,-40.039,2.441,-59.570,0.000
1714028425.985,-49.805,-41.992,0.000,-42.969,0.000
1714028425.989,-31.738,-38.086,2.441,-30.273,0.000
1714028425.993,-29.785,-34.180,-5.371,-35.645,0.000
1714028425.997,-31.738,-41.504,-5.859,-34.180,0.000
1714028426.001,-22.949,-40.527,-4.395,-21.484,0.000
1714028426.005,-17.090,-37.598,-14.160,-11.230,0.000
1714028426.009,-16.602,-44.434,-23.438,-8.789,0.000
1714028426.012,-6.836,-46.387,-22.949,-1.465,0.000
1714028426.016,3.418,-42.969,-30.762,4.395,0.000
1714028426.020,1.465,-41.992,-46.387,13.184,0.000
1714028426.024,12.695,-38.574,-37.598,19.531,0.000
1714028426.028,13.184,-33.203,-36.133,5.859,0.000
1714028426.032,3.418,-34.180,-40.039,-7.324,0.000
1714028426.036,14.160,-37.109,-36.621,13.184,0.000
1714028426.040,15.137,-33.203,-47.363,17.090,0.000
1714028426.044,4.883,-33.691,-61.523,5.859,0.000
1714028426.048,12.207,-36.133,-66.406,14.648,0.000
1714028426.052,20.508,-34.180,-66.406,19.043,0.000
1714028426.055,23.926,-33.203,-60.059,15.625,0.000
1714028426.059,21.973,-37.598,-62.988,10.742,0.000
1714028426.063,17.090,-32.227,-66.895,11.230,0.000
1714028426.067,23.438,-29.785,-62.012,25.879,0.000
1714028426.071,30.273,-33.691,-57.617,34.668,0.000
1714028426.075,29.297,-35.156,-55.176,34.180,0.000
1714028426.079,27.344,-35.645,-58.105,26.855,0.000
1714028426.083,32.227,-32.227,-62.012,29.297,0.000
1714028426.087,31.250,-27.344,-55.176,40.527,0.000
1714028426.091,31.250,-27.832,-49.805,40.039,0.000
1714028426.094,32.715,-26.855,-56.152,40.039,0.000
1714028426.098,23.926,-27.344,-55.176,29.297,0.000
1714028426.102,19.531,-31.250,-54.688,19.531,0.000
1714028426.106,24.414,-28.809,-55.664,17.090,0.000
1714028426.110,19.043,-27.832,-54.688,16.602,0.000
1714028426.114,14.160,-31.250,-60.547,21.973,0.000
1714028426.118,19.043,-32.227,-59.570,28.809,0.000
1714028426.122,24.902,-30.273,-54.688,38.574,0.000
1714028426.126,23.438,-29.297,-52.734,36.621,0.000
1714028426.130,17.578,-30.762,-47.852,27.344,0.000
1714028426.134,21.484,-29.297,-48.828,28.809,0.000
1714028426.137,25.391,-20.996,-50.293,31.738,0.000
1714028426.141,25.391,-15.137,-44.922,24.902,0.000
1714028426.145,24.414,-16.113,-42.969,13.672,0.000
1714028426.149,19.043,-19.531,-54.688,1.953,0.000
1714028426.153,17.090,-20.996,-55.176,8.301,0.000
1714028426.157,19.043,-24.902,-47.363,13.672,0.000
1714028426.161,13.184,-26.855,-51.758,1.953,0.000
1714028426.165,7.812,-22.461,-49.805,-2.441,0.000
1714028426.169,11.719,-20.508,-41.504,9.766,0.000
1714028426.173,15.625,-21.484,-42.480,11.230,0.000
1714028426.176,16.113,-18.066,-47.363,3.906,0.000
1714028426.180,11.230,-16.113,-52.246,2.930,0.000
1714028426.184,9.277,-18.555,-46.875,3.418,0.000
1714028426.188,12.695,-15.137,-33.203,4.395,0.000
1714028426.192,10.254,-13.184,-33.203,4.883,0.000
1714028426.196,5.371,-16.602,-43.457,-3.906,0.000
1714028426.200,7.812,-18.066,-44.434,2.930,0.000
1714028426.204,8.789,-19.531,-40.039,10.742,0.000
1714028426.208,6.836,-16.113,-32.715,4.883,0.000
1714028426.212,3.418,-16.113,-33.691,-1.953,0.000
1714028426.216,-1.953,-22.949,-44.434,-0.977,0.000
1714028426.219,-2.441,-21.973,-42.969,4.395,0.000
1714028426.223,-5.859,-23.926,-37.109,4.883,0.000
1714028426.227,-9.277,-25.391,-41.992,-0.488,0.000
1714028426.231,-9.277,-21.484,-49.805,-5.859,0.000
1714028426.235,-8.789,-21.973,-49.805,-3.906,0.000
1714028426.239,-14.648,-25.391,-46.875,-8.301,0.000
1714028426.243,-19.531,-28.809,-53.711,-17.090,0.000
1714028426.247,-11.230,-29.785,-52.246,-13.184,0.000
1714028426.251,-9.277,-27.344,-36.133,-4.883,0.000
1714028426.255,-10.254,-19.531,-32.715,-2.930,0.000
1714028426.259,-9.766,-15.625,-45.898,-6.348,0.000
1714028426.262,-12.207,-24.902,-48.340,-3.418,0.000
1714028426.266,-12.695,-25.879,-39.551,-6.836,0.000
1714028426.270,-14.160,-18.555,-38.086,-12.695,0.000
1714028426.274,-14.648,-19.531,-38.086,-13.672,0.000
1714028426.278,-17.090,-22.949,-42.480,-23.438,0.000
1714028426.282,-20.996,-15.625,-37.598,-26.367,0.000
1714028426.286,-11.719,-14.648,-22.461,-6.836,0.000
1714028426.290,-6.348,-14.648,-23.926,1.465,0.000
1714028426.294,-15.137,-13.672,-36.621,-17.090,0.000
1714028426.298,-25.391,-17.090,-38.086,-28.809,0.000
1714028426.302,-17.090,-15.625,-34.668,-20.020,0.000
1714028426.305,-11.719,-19.531,-38.574,-13.672,0.000
1714028426.309,-17.090,-22.461,-33.203,-15.625,0.000
1714028426.313,-7.812,-20.020,-24.414,-21.973,0.000
1714028426.317,-0.977,-16.602,-18.066,-16.113,0.000
1714028426.321,-8.301,-13.672,-15.137,-6.348,0.000
1714028426.325,-14.160,-16.602,-28.320,-14.160,0.000
1714028426.329,-17.090,-11.230,-33.691,-20.020,0.000
1714028426.333,-16.602,-9.277,-30.273,-13.672,0.000
1714028426.337,-17.578,-20.996,-27.832,-9.766,0.000
1714028426.341,-21.973,-27.344,-31.250,-17.090,0.000
1714028426.345,-23.438,-25.391,-27.832,-27.832,0.000
1714028426.348,-17.578,-20.020,-16.113,-18.555,0.000
1714028426.352,-15.625,-21.973,-9.766,-1.953,0.000
1714028426.356,-12.207,-21.973,-4.395,-4.883,0.000
1714028426.360,-11.719,-20.508,-14.648,-15.625,0.000
1714028426.364,-17.090,-21.484,-25.391,-17.578,0.000
1714028426.368,-12.207,-28.809,-27.344,-12.207,0.000
1714028426.372,-7.812,-30.762,-31.738,-12.695,0.000
1714028426.376,-9.766,-25.391,-31.738,-12.695,0.000
1714028426.380,-13.184,-25.391,-34.668,-19.531,0.000
1714028426.384,-11.230,-21.484,-24.414,-20.020,0.000
1714028426.387,-12.207,-22.461,-17.578,-15.625,0.000
1714028426.391,-24.414,-26.367,-26.855,-31.250,0.000
1714028426.395,-27.832,-24.902,-38.086,-36.621,0.000
1714028426.399,-28.320,-20.508,-39.062,-32.227,0.000
1714028426.403,-31.738,-29.785,-31.738,-33.691,0.000
1714028426.407,-29.297,-28.809,-33.203,-35.156,0.000
1714028426.411,-23.926,-25.879,-34.180,-33.691,0.000
1714028426.415,-18.066,-29.297,-27.832,-28.320,0.000
1714028426.419,-19.043,-26.855,-20.020,-23.438,0.000
1714028426.423,-24.414,-25.879,-18.555,-27.344,0.000
1714028426.427,-23.438,-23.438,-26.855,-31.738,0.000
1714028426.430,-19.531,-22.949,-37.109,-24.414,0.000
1714028426.434,-15.137,-23.438,-36.133,-21.973,0.000
1714028426.438,-14.160,-22.949,-32.715,-21.484,0.000
1714028426.442,-16.113,-21.973,-32.227,-20.020,0.000
1714028426.446,-15.137,-15.137,-29.297,-25.879,0.000
1714028426.450,-14.160,-16.602,-25.879,-27.344,0.000
1714028426.454,-22.461,-30.273,-27.344,-32.715,0.000
1714028426.458,-22.949,-33.691,-34.668,-37.109,0.000
1714028426.462,-21.973,-23.438,-34.180,-35.645,0.000
1714028426.466,-25.391,-22.461,-25.879,-35.156,0.000
1714028426.469,-27.344,-27.832,-22.949,-31.738,0.000
1714028426.473,-24.414,-24.902,-21.973,-24.902,0.000
1714028426.477,-22.949,-22.949,-26.855,-23.926,0.000
1714028426.481,-30.762,-29.297,-30.273,-29.297,0.000
1714028426.485,-32.227,-33.691,-27.344,-22.949,0.000
1714028426.489,-33.691,-32.227,-30.762,-20.996,0.000
1714028426.493,-36.133,-29.297,-37.109,-36.133,0.000
1714028426.497,-36.621,-26.855,-38.086,-40.527,0.000
1714028426.501,-32.715,-27.832,-32.715,-27.832,0.000
1714028426.505,-30.273,-30.762,-30.273,-21.973,0.000
1714028426.508,-29.785,-29.297,-33.691,-28.809,0.000
1714028426.512,-31.250,-27.832,-37.109,-28.809,0.000
1714028426.516,-26.855,-30.273,-39.062,-22.949,0.000
1714028426.520,-23.926,-27.832,-36.621,-25.391,0.000
1714028426.524,-24.414,-20.996,-27.344,-25.879,0.000
1714028426.528,-26.855,-20.996,-35.645,-31.738,0.000
1714028426.532,-30.273,-22.461,-45.898,-31.738,0.000
1714028426.536,-29.297,-23.926,-35.156,-27.344,0.000
1714028426.540,-23.438,-31.250,-33.203,-33.691,0.000
1714028426.544,-20.020,-32.227,-37.598,-38.574,0.000
1714028426.548,-19.531,-28.320,-33.691,-33.203,0.000
1714028426.551,-16.602,-31.738,-29.785,-22.461,0.000
1714028426.555,-15.137,-31.250,-34.668,-18.066,0.000
1714028426.559,-16.602,-21.973,-34.668,-22.949,0.000
1714028426.563,-20.020,-24.902,-33.691,-27.832,0.000
1714028426.567,-25.879,-36.133,-35.645,-30.273,0.000
1714028426.571,-28.809,-33.203,-33.691,-35.645,0.000
1714028426.575,-32.715,-31.250,-32.715,-36.621,0.000
1714028426.579,-37.109,-36.621,-32.715,-35.156,0.000
1714028426.583,-33.691,-26.855,-26.855,-26.367,0.000
1714028426.587,-26.367,-23.438,-21.973,-20.996,0.000
1714028426.590,-21.973,-28.320,-17.090,-20.508,0.000
1714028426.594,-22.461,-26.855,-19.043,-20.996,0.000
1714028426.598,-17.578,-21.973,-28.809,-20.508,0.000
1714028426.602,-11.230,-23.926,-27.832,-18.555,0.000
1714028426.606,-11.230,-27.344,-25.879,-19.043,0.000
1714028426.610,-16.602,-26.855,-27.344,-26.855,0.000
1714028426.614,-18.555,-22.461,-24.902,-32.715,0.000
1714028426.618,-20.996,-20.508,-25.879,-37.598,0.000
1714028426.622,-21.484,-26.855,-33.203,-33.203,0.000
1714028426.626,-19.531,-33.691,-32.227,-33.691,0.000
1714028426.630,-18.555,-31.250,-29.297,-38.086,0.000
1714028426.633,-23.438,-28.809,-35.645,-35.645,0.000
1714028426.637,-25.391,-35.645,-32.227,-34.180,0.000
1714028426.641,-19.531,-29.297,-27.344,-41.992,0.000
1714028426.645,-17.578,-16.113,-21.973,-45.410,0.000
1714028426.649,-21.484,-18.066,-13.672,-37.109,0.000
1714028426.653,-24.414,-14.648,-23.926,-38.086,0.000
1714028426.657,-20.020,-16.113,-26.367,-40.527,0.000
1714028426.661,-21.973,-23.438,-30.762,-43.457,0.000
1714028426.665,-29.785,-32.227,-35.645,-35.156,0.000
1714028426.669,-28.809,-32.227,-32.715,-24.414,0.000
1714028426.673,-27.344,-30.762,-34.180,-25.879,0.000
1714028426.676,-24.902,-39.551,-31.250,-22.949,0.000
1714028426.680,-23.926,-31.250,-22.949,-20.996,0.000
1714028426.684,-30.273,-26.367,-17.090,-12.695,0.000
1714028426.688,-32.715,-31.250,-18.066,-9.277,0.000
1714028426.692,-28.320,-24.414,-26.855,-17.578,0.000
1714028426.696,-27.832,-28.809,-36.621,-22.949,0.000
1714028426.700,-31.738,-37.109,-34.668,-29.785,0.000
1714028426.704,-25.879,-35.645,-29.297,-28.809,0.000
1714028426.708,-18.555,-35.156,-23.438,-26.367,0.000
1714028426.712,-21.973,-29.297,-19.043,-24.414,0.000
1714028426.716,-27.344,-23.438,-27.832,-26.855,0.000
1714028426.719,-23.926,-19.531,-28.320,-29.785,0.000
1714028426.723,-23.438,-21.484,-28.809,-31.250,0.000
1714028426.727,-33.203,-25.879,-35.645,-29.785,0.000
1714028426.731,-39.551,-26.855,-33.691,-37.109,0.000
1714028426.735,-38.574,-26.855,-20.020,-37.598,0.000
1714028426.739,-34.180,-24.414,-17.578,-30.762,0.000
1714028426.743,-33.203,-22.949,-15.137,-33.203,0.000
1714028426.747,-36.621,-28.320,-15.137,-40.527,0.000
1714028426.751,-31.738,-26.367,-23.438,-35.645,0.000
1714028426.755,-25.879,-23.926,-22.949,-26.855,0.000
1714028426.758,-28.320,-28.809,-30.762,-31.250,0.000
1714028426.762,-25.879,-31.250,-40.039,-35.156,0.000
1714028426.766,-16.602,-27.832,-36.133,-29.297,0.000
1714028426.770,-8.301,-21.484,-32.227,-18.066,0.000
1714028426.774,-2.930,-21.484,-26.855,-16.602,0.000
1714028426.778,-3.418,-22.461,-24.902,-22.461,0.000
1714028426.782,3.906,-17.578,-20.508,-19.531,0.000
1714028426.786,4.395,-14.648,-13.672,-15.137,0.000
1714028426.790,-9.766,-22.949,-16.602,-13.672,0.000
1714028426.794,-24.414,-29.785,-25.879,-20.020,0.000
1714028426.798,-28.809,-27.344,-31.738,-31.738,0.000
1714028426.801,-31.738,-22.461,-30.273,-28.320,0.000
1714028426.805,-42.969,-28.809,-33.691,-21.973,0.000
1714028426.809,-44.434,-28.809,-37.598,-33.691,0.000
1714028426.813,-40.527,-21.973,-25.391,-36.621,0.000
1714028426.817,-38.574,-22.949,-26.855,-26.367,0.000
1714028426.821,-35.645,-24.902,-30.762,-30.273,0.000
1714028426.825,-37.598,-23.438,-25.879,-41.504,0.000
1714028426.829,-38.086,-24.414,-28.809,-47.852,0.000
1714028426.833,-41.016,-27.832,-41.016,-47.852,0.000
1714028426.837,-37.109,-27.344,-48.340,-38.086,0.000
1714028426.840,-26.367,-33.691,-45.410,-39.551,0.000
1714028426.844,-28.809,-36.621,-41.992,-47.363,0.000
1714028426.848,-27.344,-27.344,-29.297,-38.574,0.000
1714028426.852,-20.508,-20.020,-21.484,-27.344,0.000
1714028426.856,-23.438,-20.508,-28.809,-28.320,0.000
1714028426.860,-21.973,-31.250,-24.902,-25.391,0.000
1714028426.864,-21.484,-37.598,-29.297,-20.508,0.000
1714028426.868,-18.066,-26.855,-34.180,-17.578,0.000
1714028426.872,-18.066,-21.484,-27.832,-14.160,0.000
1714028426.876,-22.461,-27.344,-28.809,-25.879,0.000
1714028426.880,-19.043,-26.367,-20.020,-36.133,0.000
1714028426.883,-13.184,-22.461,-5.859,-29.297,0.000
1714028426.887,-17.578,-28.809,-5.859,-26.367,0.000
1714028426.891,-25.879,-28.320,-12.695,-35.645,0.000
1714028426.895,-27.832,-20.996,-19.531,-41.992,0.000
1714028426.899,-28.809,-22.461,-25.879,-38.086,0.000
1714028426.903,-37.109,-30.273,-35.645,-35.645,0.000
1714028426.907,-37.598,-31.738,-42.480,-28.320,0.000
1714028426.911,-36.133,-32.715,-29.297,-29.297,0.000
1714028426.915,-44.922,-35.645,-21.484,-36.621,0.000
1714028426.919,-47.363,-30.762,-17.090,-36.133,0.000
1714028426.922,-39.551,-26.367,-12.207,-34.668,0.000
1714028426.926,-39.062,-31.738,-26.855,-43.457,0.000
1714028426.930,-41.992,-29.785,-40.527,-53.223,0.000
1714028426.934,-31.738,-24.902,-35.645,-43.457,0.000
1714028426.938,-20.996,-30.273,-27.832,-38.574,0.000
1714028426.942,-10.742,-30.273,-27.832,-31.250,0.000
1714028426.946,-6.836,-25.391,-29.785,-24.414,0.000
1714028426.950,-12.695,-25.391,-24.414,-25.879,0.000
1714028426.954,-13.672,-36.621,-19.043,-19.043,0.000
1714028426.958,-11.719,-34.668,-15.625,-17.090,0.000
1714028426.962,-21.484,-25.879,-23.926,-21.973,0.000
1714028426.965,-28.320,-23.926,-32.715,-22.461,0.000
1714028426.969,-19.043,-19.043,-26.367,-18.555,0.000
1714028426.973,-16.113,-20.996,-22.461,-22.949,0.000
1714028426.977,-16.113,-28.320,-22.461,-21.973,0.000
1714028426.981,-16.602,-27.832,-19.531,-17.090,0.000
1714028426.985,-22.461,-24.414,-11.719,-17.578,0.000
1714028426.989,-23.438,-24.902,-13.672,-20.508,0.000
1714028426.993,-20.020,-25.391,-23.926,-21.484,0.000
1714028426.997,-28.809,-27.832,-28.320,-31.250,0.000
1714028427.001,-32.715,-24.414,-26.367,-31.250,0.000
1714028427.005,-19.531,-21.973,-18.555,-13.672,0.000
1714028427.008,-21.484,-26.367,-20.996,-13.672,0.000
1714028427.012,-21.973,-22.949,-24.902,-21.973,0.000
1714028427.016,-11.719,-17.090,-20.996,-21.973,0.000
1714028427.020,-9.277,-19.043,-15.625,-16.113,0.000
1714028427.024,-11.230,-24.414,-17.090,-19.043,0.000
1714028427.028,-11.230,-21.973,-14.648,-20.020,0.000
1714028427.032,-16.113,-22.461,-14.160,-16.602,0.000
1714028427.036,-14.648,-24.902,-22.461,-7.324,0.000
1714028427.040,-6.836,-21.973,-29.297,-6.836,0.000
1714028427.044,-4.883,-17.090,-32.715,-15.625,0.000
1714028427.047,-6.836,-18.555,-36.133,-19.531,0.000
1714028427.051,-15.137,-18.555,-27.344,-20.996,0.000
1714028427.055,-19.531,-20.996,-15.137,-13.184,0.000
1714028427.059,-22.949,-27.344,-17.578,-19.531,0.000
1714028427.063,-31.738,-30.273,-23.438,-39.551,0.000
1714028427.067,-33.691,-27.344,-30.273,-36.621,0.000
1714028427.071,-31.250,-27.832,-37.598,-33.691,0.000
1714028427.075,-30.273,-31.250,-27.832,-33.691,0.000
1714028427.079,-34.668,-17.578,-21.484,-32.227,0.000
1714028427.083,-32.227,-14.160,-29.297,-28.809,0.000
1714028427.087,-33.203,-25.879,-30.273,-31.738,0.000
1714028427.090,-37.109,-26.855,-24.414,-39.062,0.000
1714028427.094,-40.039,-28.320,-20.020,-41.016,0.000
1714028427.098,-44.922,-32.227,-20.996,-37.109,0.000
1714028427.102,-33.691,-31.738,-31.738,-21.973,0.000
1714028427.106,-18.555,-27.344,-34.180,-18.555,0.000
1714028427.110,-17.578,-16.602,-40.039,-28.809,0.000
1714028427.114,-24.414,-11.719,-43.457,-35.645,0.000
1714028427.118,-17.578,-19.531,-26.855,-20.996,0.000
1714028427.122,-8.789,-21.973,-19.531,-7.812,0.000
1714028427.126,-12.207,-23.438,-36.621,-20.508,0.000
1714028427.130,-13.184,-26.367,-40.039,-30.273,0.000
1714028427.133,-13.184,-25.391,-38.086,-27.832,0.000
1714028427.137,-16.113,-24.414,-39.551,-20.996,0.000
1714028427.141,-19.531,-22.461,-32.227,-25.879,0.000
1714028427.145,-24.902,-27.832,-27.344,-33.691,0.000
1714028427.149,-26.367,-26.855,-27.344,-26.855,0.000
1714028427.153,-26.855,-21.484,-18.066,-26.367,0.000
1714028427.157,-34.668,-30.273,-24.414,-30.762,0.000
1714028427.161,-38.086,-34.180,-35.156,-39.551,0.000
1714028427.165,-45.410,-31.738,-32.227,-50.781,0.000
1714028427.169,-53.223,-29.785,-35.156,-50.781,0.000
1714028427.172,-52.246,-27.832,-33.691,-46.875,0.000
1714028427.176,-49.805,-25.879,-26.367,-44.434,0.000
1714028427.180,-44.434,-24.414,-17.578,-43.945,0.000
1714028427.184,-40.039,-25.391,-19.043,-39.551,0.000
1714028427.188,-33.203,-22.949,-27.832,-30.273,0.000
1714028427.192,-35.156,-24.902,-29.785,-28.320,0.000
1714028427.196,-36.621,-26.855,-28.809,-37.598,0.000
1714028427.200,-29.785,-27.832,-34.668,-36.621,0.000
1714028427.204,-26.367,-27.832,-40.039,-33.203,0.000
1714028427.208,-18.066,-19.531,-27.832,-27.832,0.000
1714028427.212,-10.742,-19.043,-16.602,-20.996,0.000
1714028427.215,-12.695,-21.484,-17.578,-20.508,0.000
1714028427.219,-21.484,-20.996,-23.438,-29.785,0.000
1714028427.223,-24.902,-24.902,-26.367,-27.344,0.000
1714028427.227,-26.855,-35.156,-30.273,-28.320,0.000
1714028427.231,-36.621,-33.691,-41.016,-36.133,0.000
1714028427.235,-40.527,-30.273,-42.969,-26.855,0.000
1714028427.239,-40.039,-32.715,-35.156,-21.973,0.000
1714028427.243,-41.504,-28.809,-35.156,-32.715,0.000
1714028427.247,-42.480,-24.902,-34.180,-41.504,0.000
1714028427.251,-39.551,-29.297,-34.668,-41.016,0.000
1714028427.254,-36.133,-31.250,-24.902,-36.621,0.000
1714028427.258,-37.109,-30.762,-17.090,-41.992,0.000
1714028427.262,-37.598,-27.832,-41.016,-47.363,0.000
1714028427.266,-35.156,-22.461,-49.316,-41.992,0.000
1714028427.270,-32.715,-29.785,-33.691,-33.691,0.000
1714028427.274,-26.855,-32.715,-27.832,-30.273,0.000
1714028427.278,-28.320,-28.320,-36.621,-37.598,0.000
1714028427.282,-27.832,-24.902,-35.156,-28.320,0.000
1714028427.286,-18.066,-20.996,-18.555,-19.531,0.000
1714028427.290,-15.625,-23.926,-16.113,-20.996,0.000
1714028427.294,-14.648,-25.391,-25.391,-21.484,0.000
1714028427.297,-18.555,-22.461,-29.297,-31.738,0.000
1714028427.301,-20.020,-20.508,-26.367,-28.320,0.000
1714028427.305,-20.508,-22.461,-30.762,-28.320,0.000
1714028427.309,-17.578,-22.949,-36.133,-27.344,0.000
1714028427.313,-12.695,-20.508,-28.320,-18.066,0.000
1714028427.317,-13.184,-20.020,-16.113,-11.719,0.000
1714028427.321,-16.602,-20.508,-7.812,-10.742,0.000
1714028427.325,-16.602,-15.625,-15.625,-12.695,0.000
1714028427.329,-22.461,-21.973,-30.762,-24.902,0.000
1714028427.333,-32.715,-30.273,-37.598,-32.715,0.000
1714028427.337,-35.156,-32.227,-41.504,-29.785,0.000
1714028427.340,-34.668,-31.738,-39.551,-30.762,0.000
1714028427.344,-37.109,-26.367,-34.180,-33.691,0.000
1714028427.348,-32.227,-25.879,-20.508,-33.203,0.000
1714028427.352,-31.250,-25.879,-7.324,-33.203,0.000
1714028427.356,-31.250,-28.320,-13.184,-31.250,0.000
1714028427.360,-27.344,-28.320,-23.926,-30.273,0.000
1714028427.364,-28.809,-23.926,-32.227,-30.273,0.000
1714028427.368,-24.902,-23.438,-39.551,-26.855,0.000
1714028427.372,-14.160,-21.973,-36.621,-14.160,0.000
1714028427.376,-11.719,-22.461,-32.227,-10.742,0.000
1714028427.379,-17.090,-25.391,-35.645,-18.555,0.000
1714028427.383,-9.277,-18.555,-21.484,-7.324,0.000
1714028427.387,-1.465,-20.020,-7.812,10.742,0.000
1714028427.391,-7.812,-21.973,-15.625,-3.418,0.000
1714028427.395,-17.578,-21.973,-31.738,-20.020,0.000
1714028427.399,-17.578,-21.973,-34.180,-14.648,0.000
1714028427.403,-17.090,-15.625,-22.461,-11.230,0.000
1714028427.407,-24.902,-17.578,-15.137,-17.578,0.000
1714028427.411,-26.367,-27.344,-19.043,-26.855,0.000
1714028427.415,-31.250,-31.250,-16.602,-28.809,0.000
1714028427.419,-32.227,-27.832,-10.742,-21.973,0.000
1714028427.422,-28.320,-27.344,-15.137,-19.531,0.000
1714028427.426,-39.551,-26.855,-25.391,-29.297,0.000
1714028427.430,-45.410,-26.855,-31.738,-36.621,0.000
1714028427.434,-34.668,-22.461,-23.438,-27.832,0.000
1714028427.438,-28.320,-18.066,-17.090,-26.367,0.000
1714028427.442,-29.785,-18.555,-21.484,-37.109,0.000
1714028427.446,-30.762,-19.043,-22.461,-36.133,0.000
1714028427.450,-22.461,-22.461,-14.160,-25.879,0.000
1714028427.454,-21.484,-26.855,-18.555,-27.344,0.000
1714028427.458,-19.043,-26.367,-31.250,-26.367,0.000
1714028427.462,-14.648,-26.855,-26.855,-21.484,0.000
1714028427.465,-18.555,-22.461,-23.926,-26.855,0.000
1714028427.469,-13.184,-17.578,-28.809,-22.949,0.000
1714028427.473,-12.695,-18.555,-24.414,-15.625,0.000
1714028427.477,-9.766,-18.555,-16.113,-8.301,0.000
1714028427.481,-9.766,-20.508,-13.184,-17.090,0.000
1714028427.485,-17.090,-26.855,-19.531,-25.391,0.000
1714028427.489,-13.184,-28.809,-24.414,-17.578,0.000
1714028427.493,-14.648,-26.367,-29.297,-22.949,0.000
1714028427.497,-20.020,-25.879,-31.250,-26.855,0.000
1714028427.501,-22.461,-25.879,-29.785,-21.484,0.000
1714028427.505,-28.809,-23.438,-23.438,-27.344,0.000
1714028427.508,-36.621,-26.855,-21.973,-47.363,0.000
1714028427.512,-42.480,-35.645,-24.902,-53.711,0.000
1714028427.516,-36.133,-34.668,-24.902,-36.133,0.000
1714028427.520,-28.809,-25.879,-23.438,-24.414,0.000
1714028427.524,-29.785,-27.832,-29.297,-20.996,0.000
1714028427.528,-24.414,-27.832,-34.180,-25.879,0.000
1714028427.532,-18.066,-22.949,-29.785,-30.273,0.000
1714028427.536,-14.648,-21.484,-29.297,-17.090,0.000
1714028427.540,-17.090,-21.973,-33.203,-13.672,0.000
1714028427.544,-20.996,-22.949,-36.133,-19.043,0.000
1714028427.547,-19.531,-23.438,-32.715,-22.461,0.000
1714028427.551,-16.602,-24.902,-31.250,-23.926,0.000
1714028427.555,-16.113,-27.344,-28.320,-18.555,0.000
1714028427.559,-19.043,-25.391,-26.367,-20.508,0.000
1714028427.563,-20.996,-23.926,-25.879,-22.461,0.000
1714028427.567,-25.391,-26.855,-26.855,-18.555,0.000
1714028427.571,-36.133,-31.738,-31.250,-28.809,0.000
1714028427.575,-30.273,-30.273,-32.715,-28.809,0.000
1714028427.579,-23.438,-27.832,-29.785,-21.973,0.000
1714028427.583,-28.809,-26.855,-27.344,-35.645,0.000
1714028427.587,-31.250,-24.414,-25.879,-38.574,0.000
1714028427.590,-27.832,-25.879,-25.391,-37.598,0.000
1714028427.594,-32.715,-33.691,-29.785,-38.574,0.000
1714028427.598,-34.668,-34.668,-24.902,-34.668,0.000
1714028427.602,-33.203,-30.762,-25.879,-30.762,0.000
1714028427.606,-35.156,-34.180,-32.715,-29.297,0.000
1714028427.610,-35.156,-33.203,-24.902,-32.227,0.000
1714028427.614,-28.320,-27.344,-21.973,-27.832,0.000
1714028427.618,-22.461,-21.973,-20.996,-26.367,0.000
1714028427.622,-20.996,-22.949,-20.020,-21.973,0.000
1714028427.626,-19.043,-28.809,-27.344,-15.625,0.000
1714028427.629,-18.066,-24.902,-25.879,-18.555,0.000
1714028427.633,-15.137,-22.949,-21.484,-24.414,0.000
1714028427.637,-12.695,-28.320,-22.461,-20.508,0.000
1714028427.641,-19.043,-30.762,-26.367,-20.508,0.000
1714028427.645,-16.113,-25.879,-30.273,-22.949,0.000
1714028427.649,-15.625,-23.438,-25.879,-18.555,0.000
1714028427.653,-23.438,-22.949,-24.902,-21.973,0.000
1714028427.657,-27.832,-25.391,-31.738,-19.531,0.000
1714028427.661,-33.203,-28.809,-32.227,-24.414,0.000
1714028427.665,-30.273,-29.297,-29.785,-29.297,0.000
1714028427.669,-26.855,-27.832,-31.738,-31.250,0.000
1714028427.672,-30.762,-28.320,-27.344,-34.668,0.000
1714028427.676,-31.250,-28.320,-24.902,-37.598,0.000
1714028427.680,-30.762,-23.926,-23.926,-44.922,0.000
1714028427.684,-33.203,-24.414,-20.508,-43.457,0.000
1714028427.688,-29.297,-31.738,-27.344,-28.809,0.000
1714028427.692,-34.668,-32.715,-32.715,-28.320,0.000
1714028427.696,-46.387,-28.809,-34.180,-43.457,0.000
1714028427.700,-39.062,-29.297,-37.598,-29.785,0.000
1714028427.704,-31.738,-28.809,-30.273,-15.137,0.000
1714028427.708,-28.320,-23.438,-22.949,-22.461,0.000
1714028427.711,-22.949,-22.461,-21.484,-15.137,0.000
1714028427.715,-19.043,-26.367,-22.461,-6.348,0.000
1714028427.719,-18.066,-23.926,-26.367,-14.648,0.000
1714028427.723,-15.625,-19.531,-28.320,-17.090,0.000
1714028427.727,-6.348,-18.066,-26.855,-13.184,0.000
1714028427.731,-4.395,-18.555,-23.926,-20.020,0.000
1714028427.735,1.465,-12.207,-23.438,-18.555,0.000
1714028427.739,0.000,-13.672,-24.902,-16.602,0.000
1714028427.743,-2.930,-19.531,-29.785,-20.996,0.000
1714028427.747,-13.672,-23.438,-32.715,-24.414,0.000
1714028427.751,-21.484,-24.902,-33.203,-24.414,0.000
1714028427.754,-17.090,-23.438,-41.016,-25.391,0.000
1714028427.758,-21.484,-20.508,-43.945,-25.391,0.000
1714028427.762,-31.250,-20.508,-37.598,-25.879,0.000
1714028427.766,-46.387,-28.320,-39.062,-36.133,0.000
1714028427.770,-46.387,-24.414,-40.527,-29.297,0.000
1714028427.774,-41.504,-25.879,-30.762,-21.973,0.000
1714028427.778,-37.598,-29.785,-26.855,-28.320,0.000
1714028427.782,-33.203,-26.367,-32.715,-25.879,0.000
1714028427.786,-36.133,-27.832,-39.551,-22.949,0.000
1714028427.790,-29.785,-32.227,-40.527,-16.602,0.000
1714028427.794,-22.949,-29.785,-27.832,-12.695,0.000
1714028427.797,-26.367,-29.297,-23.438,-17.090,0.000
1714028427.801,-26.855,-29.785,-37.598,-16.602,0.000
1714028427.805,-21.484,-27.344,-46.387,-11.719,0.000
1714028427.809,-21.484,-24.902,-36.133,-20.996,0.000
1714028427.813,-25.391,-20.508,-21.973,-32.715,0.000
1714028427.817,-24.902,-20.508,-22.461,-28.809,0.000
1714028427.821,-19.531,-17.578,-29.785,-22.461,0.000
1714028427.825,-20.508,-17.578,-30.273,-21.484,0.000
1714028427.829,-24.414,-21.973,-21.973,-20.996,0.000
1714028427.833,-23.926,-24.902,-20.020,-20.508,0.000
1714028427.836,-25.879,-24.902,-27.832,-20.020,0.000
1714028427.840,-28.320,-25.879,-33.203,-22.949,0.000
1714028427.844,-28.320,-23.438,-30.762,-34.180,0.000
1714028427.848,-30.273,-24.902,-28.809,-36.621,0.000
1714028427.852,-37.109,-27.832,-33.691,-31.250,0.000
1714028427.856,-41.016,-25.879,-31.250,-35.645,0.000
1714028427.860,-36.133,-26.855,-24.414,-36.621,0.000
1714028427.864,-41.016,-31.250,-26.367,-40.039,0.000
1714028427.868,-37.598,-32.227,-31.250,-41.504,0.000
1714028427.872,-28.320,-27.344,-20.996,-28.809,0.000
1714028427.876,-31.738,-25.879,-19.531,-33.203,0.000
1714028427.879,-23.438,-30.273,-26.855,-35.156,0.000
1714028427.883,-18.555,-30.273,-24.902,-25.879,0.000
1714028427.887,-32.227,-31.250,-33.203,-25.391,0.000
1714028427.891,-30.762,-29.785,-40.527,-27.344,0.000
1714028427.895,-17.090,-24.902,-38.574,-16.113,0.000
1714028427.899,-8.789,-16.602,-31.250,-5.859,0.000
1714028427.903,-6.836,-20.508,-24.902,-5.371,0.000
1714028427.907,-3.418,-22.949,-16.113,0.000,0.000
1714028427.911,-4.883,-19.043,-12.695,-6.836,0.000
1714028427.915,-17.090,-21.973,-30.273,-14.160,0.000
1714028427.918,-17.578,-24.902,-44.434,-11.719,0.000
1714028427.922,-16.602,-25.391,-36.133,-17.578,0.000
1714028427.926,-19.043,-20.508,-29.785,-25.879,0.000
1714028427.930,-23.438,-19.043,-31.738,-29.785,0.000
1714028427.934,-32.227,-24.902,-30.273,-32.227,0.000
1714028427.938,-30.762,-29.297,-29.297,-31.250,0.000
1714028427.942,-28.809,-26.367,-23.438,-25.391,0.000
1714028427.946,-32.715,-27.344,-15.625,-30.762,0.000
1714028427.950,-32.227,-29.785,-12.695,-33.203,0.000
1714028427.954,-27.344,-30.762,-16.113,-26.367,0.000
1714028427.958,-25.879,-30.762,-29.297,-28.809,0.000
1714028427.961,-26.855,-27.344,-29.297,-32.715,0.000
1714028427.965,-21.484,-25.391,-29.297,-24.902,0.000
1714028427.969,-20.020,-21.973,-36.621,-25.391,0.000
1714028427.973,-23.438,-22.461,-38.574,-22.461,0.000
1714028427.977,-32.227,-29.785,-35.156,-22.949,0.000
1714028427.981,-30.762,-36.621,-28.809,-29.297,0.000
1714028427.985,-20.996,-27.832,-25.391,-17.090,0.000
1714028427.989,-21.484,-24.414,-25.879,-13.184,0.000
1714028427.993,-23.438,-30.273,-33.691,-22.949,0.000
1714028427.997,-25.879,-34.668,-35.645,-24.414,0.000
1714028428.001,-24.414,-33.691,-32.715,-16.602,0.000
1714028428.004,-17.578,-25.391,-29.297,-9.277,0.000
1714028428.008,-16.113,-24.414,-26.855,-13.672,0.000
1714028428.012,-15.137,-26.855,-28.320,-19.043,0.000
1714028428.016,-10.254,-25.879,-25.391,-13.672,0.000
1714028428.020,-16.602,-24.902,-20.020,-12.695,0.000
1714028428.024,-28.320,-26.855,-35.645,-25.391,0.000
1714028428.028,-32.227,-32.227,-41.016,-31.738,0.000
1714028428.032,-27.832,-34.180,-38.086,-21.484,0.000
1714028428.036,-31.738,-28.320,-36.621,-23.926,0.000
1714028428.040,-35.156,-26.367,-25.879,-22.461,0.000
1714028428.043,-33.203,-26.855,-30.273,-23.926,0.000
1714028428.047,-31.738,-24.414,-35.645,-34.180,0.000
1714028428.051,-33.691,-30.273,-37.598,-35.156,0.000
1714028428.055,-29.297,-29.297,-34.668,-30.762,0.000
1714028428.059,-24.414,-29.297,-25.879,-28.320,0.000
1714028428.063,-25.391,-30.762,-27.344,-27.344,0.000
1714028428.067,-20.996,-28.809,-33.691,-27.344,0.000
1714028428.071,-10.742,-24.414,-28.320,-16.113,0.000
1714028428.075,-10.742,-22.461,-25.391,-12.695,0.000
1714028428.079,-20.020,-20.996,-31.738,-21.484,0.000
1714028428.082,-10.742,-16.602,-33.691,-18.066,0.000
1714028428.086,-5.859,-17.090,-25.879,-10.742,0.000
1714028428.090,-15.137,-28.320,-23.438,-7.324,0.000
1714028428.094,-17.578,-30.273,-26.855,-17.578,0.000
1714028428.098,-15.625,-20.996,-22.949,-22.461,0.000
1714028428.102,-17.090,-18.555,-22.461,-19.043,0.000
1714028428.106,-20.508,-23.438,-30.762,-24.902,0.000
1714028428.110,-20.508,-21.973,-29.785,-28.809,0.000
1714028428.114,-21.973,-19.531,-24.414,-35.156,0.000
1714028428.118,-28.809,-23.438,-20.996,-35.645,0.000
1714028428.122,-32.715,-28.320,-25.391,-29.785,0.000
1714028428.125,-33.203,-24.902,-28.809,-32.715,0.000
1714028428.129,-31.738,-27.344,-28.809,-32.227,0.000
1714028428.133,-35.156,-28.320,-27.344,-27.832,0.000
1714028428.137,-33.691,-25.879,-30.762,-21.484,0.000
1714028428.141,-22.461,-25.391,-35.156,-20.508,0.000
1714028428.145,-20.020,-20.020,-33.203,-25.391,0.000
1714028428.149,-21.973,-17.578,-26.367,-23.926,0.000
1714028428.153,-21.484,-20.996,-18.555,-22.949,0.000
1714028428.157,-22.461,-23.438,-23.926,-22.949,0.000
1714028428.161,-20.996,-19.531,-23.438,-19.531,0.000
1714028428.165,-20.508,-16.602,-15.625,-20.020,0.000
1714028428.168,-26.855,-24.902,-27.832,-18.555,0.000
1714028428.172,-28.809,-31.250,-34.180,-19.531,0.000
1714028428.176,-31.250,-28.809,-23.438,-26.367,0.000
1714028428.180,-33.203,-25.879,-17.578,-27.344,0.000
1714028428.184,-30.762,-23.926,-20.996,-28.809,0.000
1714028428.188,-30.762,-25.879,-24.902,-34.668,0.000
1714028428.192,-26.855,-26.855,-22.949,-29.785,0.000
1714028428.196,-32.227,-23.926,-19.043,-35.645,0.000
1714028428.200,-47.363,-28.809,-21.484,-53.711,0.000
1714028428.204,-54.199,-32.227,-25.879,-52.246,0.000
1714028428.208,-55.176,-28.809,-23.926,-43.945,0.000
1714028428.211,-59.570,-25.879,-21.484,-51.758,0.000
1714028428.215,-69.336,-29.785,-25.879,-63.965,0.000
1714028428.219,-64.453,-27.344,-26.367,-64.453,0.000
1714028428.223,-60.547,-23.438,-20.508,-67.383,0.000
1714028428.227,-67.871,-20.996,-20.996,-72.754,0.000
1714028428.231,-70.312,-14.648,-21.484,-83.984,0.000
1714028428.235,-67.871,-17.090,-15.625,-80.566,0.000
1714028428.239,-62.988,-15.625,-15.625,-74.219,0.000
1714028428.243,-61.523,-12.207,-16.113,-73.730,0.000
1714028428.247,-60.547,-14.648,-13.184,-72.266,0.000
1714028428.250,-60.547,-17.578,-16.602,-81.543,0.000
1714028428.254,-68.359,-20.020,-17.090,-86.426,0.000
1714028428.258,-73.242,-18.555,-20.508,-79.102,0.000
1714028428.262,-79.102,-20.020,-23.438,-82.031,0.000
1714028428.266,-80.078,-17.578,-18.555,-86.426,0.000
1714028428.270,-74.219,-16.602,-18.555,-79.590,0.000
1714028428.274,-79.590,-13.672,-19.531,-87.891,0.000
1714028428.278,-86.914,-8.789,-18.555,-99.609,0.000
1714028428.282,-90.332,-12.695,-16.602,-103.027,0.000
1714028428.286,-90.820,-17.090,-18.555,-91.309,0.000
1714028428.290,-90.820,-19.531,-19.531,-76.660,0.000
1714028428.293,-95.215,-22.461,-23.438,-82.031,0.000
1714028428.297,-93.750,-16.113,-21.973,-93.262,0.000
1714028428.301,-97.168,-15.137,-15.137,-85.938,0.000
1714028428.305,-99.121,-17.578,-13.672,-80.566,0.000
1714028428.309,-90.820,-15.137,-20.508,-88.867,0.000
1714028428.313,-88.379,-12.207,-23.926,-96.680,0.000
1714028428.317,-85.938,-9.277,-30.273,-88.379,0.000
1714028428.321,-76.172,-7.324,-34.668,-82.031,0.000
1714028428.325,-62.988,-6.348,-33.203,-82.031,0.000
1714028428.329,-59.082,-4.395,-29.297,-84.961,0.000
1714028428.332,-62.500,-6.836,-21.973,-84.473,0.000
1714028428.336,-60.547,-12.207,-9.766,-71.289,0.000
1714028428.340,-62.988,-12.695,-10.742,-68.359,0.000
1714028428.344,-63.965,-15.625,-10.742,-70.312,0.000
1714028428.348,-51.758,-18.555,-2.930,-62.012,0.000
1714028428.352,-43.945,-13.672,-8.301,-65.430,0.000
1714028428.356,-52.246,-12.695,-15.137,-82.031,0.000
1714028428.360,-53.711,-13.672,-19.043,-83.008,0.000
1714028428.364,-52.734,-11.230,-19.043,-74.219,0.000
1714028428.368,-58.105,-12.695,-12.207,-76.660,0.000
1714028428.372,-67.383,-19.531,-15.137,-77.637,0.000
1714028428.375,-67.383,-23.926,-16.113,-78.125,0.000
1714028428.379,-65.918,-23.926,-10.254,-80.078,0.000
1714028428.383,-71.289,-23.438,-4.883,-80.566,0.000
1714028428.387,-68.359,-29.297,-3.906,-71.289,0.000
1714028428.391,-71.289,-29.297,-14.160,-68.359,0.000
1714028428.395,-75.684,-27.344,-13.672,-82.031,0.000
1714028428.399,-75.195,-31.738,-7.324,-86.914,0.000
1714028428.403,-74.707,-29.297,-12.695,-82.520,0.000
1714028428.407,-64.453,-25.879,-7.812,-68.359,0.000
1714028428.411,-62.500,-25.391,-0.488,-71.777,0.000
1714028428.414,-64.941,-28.320,-4.883,-79.102,0.000
1714028428.418,-54.199,-20.996,3.418,-67.383,0.000
1714028428.422,-46.387,-13.184,15.625,-59.082,0.000
1714028428.426,-46.387,-17.578,14.648,-64.453,0.000
1714028428.430,-42.480,-25.391,13.672,-63.965,0.000
1714028428.434,-42.480,-26.855,10.254,-55.176,0.000
1714028428.438,-47.852,-31.738,10.254,-53.223,0.000
1714028428.442,-47.363,-34.180,9.766,-59.082,0.000
1714028428.446,-40.527,-27.832,8.789,-61.035,0.000
1714028428.450,-46.875,-31.738,2.930,-60.059,0.000
1714028428.454,-54.688,-33.203,-0.977,-54.688,0.000
1714028428.457,-57.129,-32.715,1.953,-56.152,0.000
1714028428.461,-63.965,-34.180,9.766,-63.477,0.000
1714028428.465,-68.848,-39.551,11.230,-67.383,0.000
1714028428.469,-70.801,-40.527,2.930,-65.918,0.000
1714028428.473,-65.430,-36.133,4.883,-60.547,0.000
1714028428.477,-65.430,-35.156,2.441,-60.547,0.000
1714028428.481,-67.871,-35.645,3.906,-69.336,0.000
1714028428.485,-61.523,-35.645,10.742,-62.012,0.000
1714028428.489,-53.223,-34.668,8.789,-49.805,0.000
1714028428.493,-55.664,-29.785,15.137,-46.875,0.000
1714028428.497,-66.895,-31.738,17.090,-49.316,0.000
1714028428.500,-69.336,-40.527,1.465,-50.781,0.000
1714028428.504,-65.430,-46.875,-7.324,-50.293,0.000
1714028428.508,-56.152,-41.992,-4.883,-39.551,0.000
1714028428.512,-47.852,-33.203,-1.953,-30.762,0.000
1714028428.516,-46.387,-29.297,0.000,-33.691,0.000
1714028428.520,-43.945,-33.203,7.812,-31.738,0.000
1714028428.524,-39.062,-36.621,8.301,-31.250,0.000
1714028428.528,-36.133,-37.109,2.930,-26.367,0.000
1714028428.532,-34.180,-31.250,1.953,-28.809,0.000
1714028428.536,-26.855,-32.715,5.371,-28.320,0.000
1714028428.540,-22.461,-41.504,-4.395,-28.809,0.000
1714028428.543,-24.902,-38.574,-17.090,-35.156,0.000
1714028428.547,-32.227,-35.156,-16.602,-42.480,0.000
1714028428.551,-48.340,-43.945,-16.113,-50.293,0.000
1714028428.555,-49.805,-41.504,-11.230,-39.062,0.000
1714028428.559,-39.062,-38.086,-9.277,-36.621,0.000
1714028428.563,-49.316,-38.574,-16.113,-59.570,0.000
1714028428.567,-56.152,-41.992,-19.531,-60.059,0.000
1714028428.571,-55.664,-49.316,-15.625,-50.781,0.000
1714028428.575,-58.594,-46.875,-11.719,-53.223,0.000
1714028428.579,-55.176,-44.434,-18.066,-53.223,0.000
1714028428.583,-47.363,-40.039,-20.508,-51.270,0.000
1714028428.586,-46.875,-36.621,-20.996,-54.688,0.000
1714028428.590,-51.758,-40.039,-20.996,-57.129,0.000
1714028428.594,-54.688,-40.527,-19.043,-61.523,0.000
1714028428.598,-56.641,-41.504,-16.113,-62.988,0.000
1714028428.602,-52.246,-42.969,-10.254,-41.016,0.000
1714028428.606,-37.598,-34.180,-0.977,-18.066,0.000
1714028428.610,-22.949,-31.250,0.488,-15.625,0.000
1714028428.614,-26.855,-35.156,-17.578,-34.180,0.000
1714028428.618,-38.086,-38.086,-32.227,-37.598,0.000
1714028428.622,-39.062,-31.738,-27.344,-35.645,0.000
1714028428.625,-27.344,-27.344,-18.066,-34.668,0.000
1714028428.629,-24.414,-31.738,-22.949,-33.691,0.000
1714028428.633,-34.180,-35.156,-37.109,-39.551,0.000
1714028428.637,-41.016,-36.133,-33.691,-41.992,0.000
1714028428.641,-48.340,-31.738,-33.203,-43.945,0.000
1714028428.645,-52.246,-31.250,-38.086,-40.527,0.000
1714028428.649,-52.246,-37.598,-34.668,-34.668,0.000
1714028428.653,-55.176,-32.227,-29.297,-37.109,0.000
1714028428.657,-60.059,-25.391,-33.203,-46.875,0.000
1714028428.661,-52.734,-20.020,-40.039,-48.828,0.000
1714028428.665,-55.664,-19.043,-33.691,-49.316,0.000
1714028428.668,-64.941,-20.020,-33.203,-55.664,0.000
1714028428.672,-47.363,-16.113,-34.180,-42.480,0.000
1714028428.676,-23.438,-12.207,-34.668,-32.227,0.000
1714028428.680,-18.066,-17.578,-42.480,-36.621,0.000
1714028428.684,-18.066,-23.926,-41.992,-36.133,0.000
1714028428.688,-16.602,-19.043,-30.273,-33.691,0.000
1714028428.692,-9.766,-17.578,-23.438,-18.066,0.000
1714028428.696,-6.348,-18.066,-26.855,-15.625,0.000
1714028428.700,-14.160,-15.137,-33.691,-26.855,0.000
1714028428.704,-21.484,-17.090,-25.391,-22.949,0.000
1714028428.707,-34.180,-18.555,-19.531,-23.926,0.000
1714028428.711,-45.898,-20.508,-27.344,-37.109,0.000
1714028428.715,-47.363,-20.508,-31.250,-43.457,0.000
1714028428.719,-39.551,-20.020,-31.250,-32.715,0.000
1714028428.723,-24.414,-12.695,-24.414,-23.438,0.000
1714028428.727,-29.297,-7.812,-20.996,-38.574,0.000
1714028428.731,-40.527,-16.602,-31.250,-49.316,0.000
1714028428.735,-34.668,-27.344,-33.203,-31.250,0.000
1714028428.739,-34.180,-27.832,-39.062,-21.484,0.000
1714028428.743,-45.898,-20.996,-41.016,-41.504,0.000
1714028428.747,-50.293,-19.531,-39.062,-51.758,0.000
1714028428.750,-41.992,-17.578,-37.598,-43.457,0.000
1714028428.754,-37.109,-17.090,-35.645,-41.504,0.000
1714028428.758,-32.227,-19.043,-30.762,-36.133,0.000
1714028428.762,-35.156,-21.973,-26.367,-37.109,0.000
1714028428.766,-47.363,-23.438,-35.156,-46.875,0.000
1714028428.770,-39.062,-21.973,-31.738,-34.668,0.000
1714028428.774,-27.344,-24.414,-25.879,-26.855,0.000
1714028428.778,-27.832,-24.902,-34.668,-39.551,0.000
1714028428.782,-33.691,-23.438,-39.551,-52.246,0.000
1714028428.786,-36.133,-19.043,-35.645,-53.711,0.000
1714028428.789,-30.762,-21.973,-36.133,-49.805,0.000
1714028428.793,-32.227,-21.973,-38.086,-55.664,0.000
1714028428.797,-39.062,-19.531,-35.156,-60.059,0.000
1714028428.801,-37.109,-22.949,-29.297,-47.363,0.000
1714028428.805,-30.762,-26.367,-29.297,-35.156,0.000
1714028428.809,-35.156,-27.344,-33.203,-44.922,0.000
1714028428.813,-39.062,-24.414,-34.668,-58.105,0.000
1714028428.817,-35.645,-20.020,-39.062,-58.594,0.000
1714028428.821,-35.156,-14.160,-35.156,-53.711,0.000
1714028428.825,-47.363,-20.996,-35.156,-53.223,0.000
1714028428.829,-53.223,-21.484,-36.621,-58.105,0.000
1714028428.832,-39.062,-14.160,-31.250,-41.992,0.000
1714028428.836,-35.645,-6.348,-31.738,-33.691,0.000
1714028428.840,-41.504,-11.230,-23.438,-37.109,0.000
1714028428.844,-32.715,-19.043,-19.531,-23.438,0.000
1714028428.848,-20.020,-9.766,-26.855,-14.648,0.000
1714028428.852,-31.250,-6.348,-32.227,-30.273,0.000
1714028428.856,-36.621,-11.230,-30.762,-39.062,0.000
1714028428.860,-29.785,-13.184,-33.203,-48.340,0.000
1714028428.864,-31.738,-17.090,-38.086,-57.129,0.000
1714028428.868,-31.738,-21.484,-33.203,-50.293,0.000
1714028428.872,-34.668,-19.043,-37.109,-48.828,0.000
1714028428.875,-41.992,-18.555,-44.434,-54.688,0.000
1714028428.879,-41.504,-19.043,-39.062,-63.477,0.000
1714028428.883,-37.598,-19.043,-41.992,-58.105,0.000
1714028428.887,-36.621,-15.625,-50.781,-42.480,0.000
1714028428.891,-41.992,-15.137,-45.410,-46.875,0.000
1714028428.895,-47.852,-19.531,-36.133,-51.270,0.000
1714028428.899,-38.574,-18.066,-36.621,-44.922,0.000
1714028428.903,-32.715,-11.719,-40.527,-48.828,0.000
1714028428.907,-39.062,-12.207,-36.621,-52.734,0.000
1714028428.911,-31.738,-13.672,-33.203,-40.527,0.000
1714028428.915,-27.344,-8.789,-37.598,-41.992,0.000
1714028428.918,-35.156,-8.789,-40.039,-49.805,0.000
1714028428.922,-31.738,-8.301,-39.062,-43.457,0.000
1714028428.926,-21.484,-11.719,-32.227,-38.086,0.000
1714028428.930,-18.066,-9.277,-31.738,-38.086,0.000
1714028428.934,-15.137,-8.301,-34.668,-32.715,0.000
1714028428.938,-15.625,-14.648,-35.645,-26.367,0.000
1714028428.942,-17.578,-17.578,-41.992,-23.926,0.000
1714028428.946,-22.949,-18.555,-54.688,-35.156,0.000
1714028428.950,-34.668,-17.090,-53.223,-43.945,0.000
1714028428.954,-28.809,-19.531,-46.387,-29.297,0.000
1714028428.958,-19.043,-20.508,-45.898,-28.809,0.000
1714028428.961,-28.809,-20.020,-45.898,-44.434,0.000
1714028428.965,-29.297,-20.996,-46.387,-39.062,0.000
1714028428.969,-23.926,-18.066,-41.992,-33.691,0.000
1714028428.973,-26.367,-11.719,-35.645,-44.434,0.000
1714028428.977,-24.414,-9.766,-37.109,-43.457,0.000
1714028428.981,-25.391,-12.695,-35.156,-42.480,0.000
1714028428.985,-26.367,-18.066,-42.480,-44.434,0.000
1714028428.989,-30.273,-15.137,-42.480,-39.062,0.000
1714028428.993,-25.879,-10.742,-32.227,-32.227,0.000
1714028428.997,-20.508,-11.719,-30.762,-29.785,0.000
1714028429.000,-25.391,-4.883,-29.297,-25.391,0.000
1714028429.004,-25.879,-5.859,-28.320,-18.066,0.000
1714028429.008,-28.320,-12.695,-36.621,-24.902,0.000
1714028429.012,-30.762,-14.648,-39.551,-33.691,0.000
1714028429.016,-26.855,-11.230,-30.762,-32.227,0.000
1714028429.020,-30.273,-7.812,-27.832,-22.949,0.000
1714028429.024,-31.738,-7.324,-31.250,-13.184,0.000
1714028429.028,-26.855,-6.836,-33.691,-21.484,0.000
1714028429.032,-26.855,-7.812,-30.762,-32.715,0.000
1714028429.036,-36.621,-10.742,-27.832,-41.016,0.000
1714028429.040,-29.785,-5.371,-32.715,-35.156,0.000
1714028429.043,-16.113,0.977,-37.598,-23.926,0.000
1714028429.047,-19.531,-0.488,-36.133,-24.414,0.000
1714028429.051,-26.855,-2.441,-27.344,-31.738,0.000
1714028429.055,-29.297,-7.324,-31.738,-33.203,0.000
1714028429.059,-30.273,-12.695,-41.504,-35.156,0.000
1714028429.063,-27.344,-13.184,-39.551,-31.250,0.000
1714028429.067,-27.832,-11.719,-40.527,-27.344,0.000
1714028429.071,-37.109,-12.695,-34.180,-41.016,0.000
1714028429.075,-32.227,-16.602,-31.738,-34.180,0.000
1714028429.079,-14.648,-13.672,-41.504,-18.555,0.000
1714028429.083,-9.766,-11.719,-41.504,-18.066,0.000
1714028429.086,-16.602,-11.230,-36.621,-15.137,0.000
1714028429.090,-16.113,-9.766,-36.621,-11.230,0.000
1714028429.094,-7.812,-13.184,-33.203,-10.254,0.000
1714028429.098,-6.348,-13.184,-23.926,-16.113,0.000
1714028429.102,-15.625,-9.277,-27.344,-18.555,0.000
1714028429.106,-20.996,-6.836,-38.086,-18.555,0.000
1714028429.110,-20.996,-3.418,-42.480,-25.391,0.000
1714028429.114,-26.855,-7.324,-43.457,-30.273,0.000
1714028429.118,-25.391,-12.207,-43.945,-29.297,0.000
1714028429.122,-20.020,-11.230,-42.969,-19.043,0.000
1714028429.125,-24.902,-5.371,-36.621,-20.020,0.000
1714028429.129,-35.156,-7.324,-35.156,-36.133,0.000
1714028429.133,-29.785,-7.812,-39.062,-39.062,0.000
1714028429.137,-20.508,-4.883,-36.621,-25.391,0.000
1714028429.141,-19.531,-10.742,-37.109,-20.508,0.000
1714028429.145,-14.648,-12.695,-42.969,-25.391,0.000
1714028429.149,-13.672,-7.812,-39.551,-31.250,0.000
1714028429.153,-25.391,-9.766,-34.180,-30.273,0.000
1714028429.157,-27.344,-8.789,-33.203,-28.809,0.000
1714028429.161,-15.625,-4.883,-29.785,-32.227,0.000
1714028429.164,-15.625,-8.301,-27.832,-39.062,0.000
1714028429.168,-15.137,-7.324,-29.785,-36.621,0.000
1714028429.172,-7.812,-4.395,-27.832,-24.414,0.000
1714028429.176,-4.883,0.000,-24.902,-22.461,0.000
1714028429.180,-9.277,-0.977,-28.809,-34.668,0.000
1714028429.184,-5.371,-5.371,-34.180,-25.391,0.000
1714028429.188,-3.906,-6.348,-38.086,-16.113,0.000
1714028429.192,-9.277,-6.348,-37.109,-25.391,0.000
1714028429.196,-6.836,-9.766,-40.039,-34.180,0.000
1714028429.200,-12.207,-11.230,-41.992,-40.039,0.000
1714028429.204,-14.160,-12.207,-33.691,-33.691,0.000
1714028429.207,7.812,-9.766,-31.738,-10.254,0.000
1714028429.211,14.160,-5.371,-22.461,-9.277,0.000
1714028429.215,1.953,-9.277,-23.926,-18.066,0.000
1714028429.219,-3.906,-17.578,-32.715,-21.484,0.000
1714028429.223,-11.719,-21.484,-34.180,-30.273,0.000
1714028429.227,-13.184,-20.996,-30.273,-30.273,0.000
1714028429.231,-26.367,-26.367,-27.832,-46.875,0.000
1714028429.235,-41.504,-31.738,-24.414,-56.152,0.000
1714028429.239,-33.691,-25.879,-18.555,-41.992,0.000
1714028429.243,-22.949,-24.414,-21.973,-31.738,0.000
1714028429.247,-28.320,-32.715,-19.531,-35.645,0.000
1714028429.250,-32.715,-32.715,-5.371,-41.016,0.000
1714028429.254,-20.996,-30.762,-0.977,-23.438,0.000
1714028429.258,-15.625,-38.086,-14.648,-11.719,0.000
1714028429.262,-31.250,-45.898,-27.832,-21.484,0.000
1714028429.266,-29.297,-47.852,-28.809,-21.973,0.000
1714028429.270,-18.555,-50.293,-21.973,-9.277,0.000
1714028429.274,-24.902,-48.340,-12.207,-7.324,0.000
1714028429.278,-25.391,-51.758,-4.395,-13.672,0.000
1714028429.282,-11.719,-52.734,-5.859,-8.789,0.000
1714028429.286,-18.066,-52.734,-13.672,-12.207,0.000
1714028429.289,-24.414,-53.223,-11.719,-13.184,0.000
1714028429.293,-24.902,-54.688,-13.672,-4.395,0.000
1714028429.297,-36.621,-64.941,-18.555,-10.742,0.000
1714028429.301,-36.133,-65.430,-10.742,-10.254,0.000
1714028429.305,-30.762,-64.941,-3.906,2.441,0.000
1714028429.309,-41.992,-64.941,-8.301,-11.719,0.000
1714028429.313,-46.875,-64.941,-11.719,-23.438,0.000
1714028429.317,-40.527,-66.895,-5.859,-20.508,0.000
1714028429.321,-43.945,-68.359,-1.465,-27.832,0.000
1714028429.325,-38.086,-69.336,0.488,-14.160,0.000
1714028429.329,-39.551,-71.777,-0.488,-12.207,0.000
1714028429.332,-42.480,-73.242,-0.977,-25.879,0.000
1714028429.336,-22.949,-70.801,5.371,-4.883,0.000
1714028429.340,-21.484,-70.312,4.395,5.859,0.000
1714028429.344,-28.809,-69.336,6.348,2.441,0.000
1714028429.348,-17.578,-64.453,12.695,16.113,0.000
1714028429.352,-11.230,-67.383,12.207,30.273,0.000
1714028429.356,-20.020,-68.359,16.602,25.391,0.000
1714028429.360,-23.926,-59.570,18.555,13.184,0.000
1714028429.364,-23.438,-59.570,16.602,3.418,0.000
1714028429.368,-20.508,-60.547,16.113,9.277,0.000
1714028429.372,-22.461,-60.547,17.578,12.207,0.000
1714028429.375,-24.414,-60.547,14.160,1.465,0.000
1714028429.379,-16.113,-64.453,5.859,3.418,0.000
1714028429.383,-12.695,-67.383,10.254,11.230,0.000
1714028429.387,-24.902,-64.941,5.371,2.930,0.000
1714028429.391,-20.020,-62.012,-2.930,-0.488,0.000
1714028429.395,-17.578,-64.453,3.418,0.977,0.000
1714028429.399,-36.133,-61.035,-3.906,-13.184,0.000
1714028429.403,-41.992,-60.547,-1.465,-28.809,0.000
1714028429.407,-29.297,-59.570,5.371,-16.602,0.000
1714028429.411,-21.484,-62.500,9.277,-4.883,0.000
1714028429.414,-29.297,-58.594,11.230,-10.742,0.000
1714028429.418,-28.320,-57.129,2.930,-7.812,0.000
1714028429.422,-13.184,-61.035,-2.441,6.348,0.000
1714028429.426,-11.230,-61.035,0.977,9.277,0.000
1714028429.430,-17.090,-58.105,7.324,5.371,0.000
1714028429.434,-18.555,-53.711,10.254,8.301,0.000
1714028429.438,-17.578,-55.176,9.766,14.160,0.000
1714028429.442,-19.043,-62.012,6.836,12.207,0.000
1714028429.446,-25.879,-60.547,6.836,-4.395,0.000
1714028429.450,-25.879,-54.199,10.254,-5.371,0.000
1714028429.454,-19.043,-54.199,10.742,6.348,0.000
1714028429.457,-18.555,-51.758,3.906,14.160,0.000
1714028429.461,-22.461,-49.805,0.977,11.719,0.000
1714028429.465,-30.273,-55.664,-3.418,-2.441,0.000
1714028429.469,-27.832,-57.129,-9.277,0.000,0.000
1714028429.473,-31.250,-57.129,-13.672,-8.301,0.000
1714028429.477,-37.598,-55.176,-13.184,-16.113,0.000
1714028429.481,-24.902,-50.781,-13.672,-11.719,0.000
1714028429.485,-31.738,-54.688,-11.719,-22.949,0.000
1714028429.489,-47.363,-59.570,-6.348,-31.738,0.000
1714028429.493,-38.086,-57.617,-4.395,-30.273,0.000
1714028429.497,-20.508,-54.688,-4.395,-19.531,0.000
1714028429.500,-20.508,-54.688,-10.254,-11.230,0.000
1714028429.504,-19.043,-54.199,-13.672,-4.883,0.000
1714028429.508,-7.812,-46.387,-5.859,6.836,0.000
1714028429.512,-7.324,-43.457,-4.395,5.859,0.000
1714028429.516,-16.113,-50.781,-7.324,0.977,0.000
1714028429.520,-17.578,-51.270,-4.883,9.766,0.000
1714028429.524,-9.766,-46.387,0.977,10.742,0.000
1714028429.528,0.488,-46.387,5.371,15.625,0.000
1714028429.532,-0.977,-50.293,0.977,18.555,0.000
1714028429.536,-7.812,-46.387,5.371,10.254,0.000
1714028429.539,-2.930,-41.016,4.883,11.719,0.000
1714028429.543,1.465,-42.969,-4.395,15.625,0.000
1714028429.547,-3.906,-41.992,-7.324,2.441,0.000
1714028429.551,-2.930,-41.504,-7.812,-3.906,0.000
1714028429.555,-6.836,-41.992,-11.230,-7.812,0.000
1714028429.559,-9.766,-43.945,-13.184,-17.090,0.000
1714028429.563,1.953,-47.852,-8.301,-15.625,0.000
1714028429.567,-0.977,-46.875,-10.254,-17.578,0.000
1714028429.571,-8.301,-53.711,-13.184,-15.625,0.000
1714028429.575,-2.441,-53.223,-11.719,-9.277,0.000
1714028429.578,-12.695,-50.781,-15.625,-15.137,0.000
1714028429.582,-18.066,-48.340,-16.113,-13.184,0.000
1714028429.586,-13.184,-47.852,-19.043,-2.441,0.000
1714028429.590,-12.207,-49.316,-26.367,3.906,0.000
1714028429.594,-10.254,-50.781,-25.391,-0.977,0.000
1714028429.598,-15.625,-49.316,-23.438,-11.719,0.000
1714028429.602,-10.254,-44.434,-18.066,2.930,0.000
1714028429.606,-4.883,-51.270,-25.879,20.508,0.000
1714028429.610,-1.953,-51.270,-35.156,20.508,0.000
1714028429.614,1.465,-49.805,-37.598,10.254,0.000
1714028429.618,5.859,-49.316,-44.434,12.695,0.000
1714028429.621,4.883,-47.363,-46.387,21.484,0.000
1714028429.625,0.000,-49.316,-45.898,15.625,0.000
1714028429.629,-8.789,-47.852,-43.945,3.906,0.000
1714028429.633,-14.160,-47.852,-40.039,4.883,0.000
1714028429.637,-13.672,-45.898,-35.645,18.066,0.000
1714028429.641,-20.508,-39.551,-32.227,3.418,0.000
1714028429.645,-23.926,-32.715,-39.551,-11.230,0.000
1714028429.649,-23.438,-36.133,-42.969,-13.672,0.000
1714028429.653,-30.273,-41.992,-40.039,-20.020,0.000
1714028429.657,-34.180,-39.551,-42.480,-20.508,0.000
1714028429.661,-20.020,-40.527,-43.945,-17.090,0.000
1714028429.664,-0.977,-37.598,-44.922,-9.766,0.000
1714028429.668,-12.695,-34.668,-51.270,-23.438,0.000
1714028429.672,-29.297,-27.832,-48.340,-40.527,0.000
1714028429.676,-27.344,-21.973,-41.992,-38.574,0.000
1714028429.680,-18.555,-28.320,-53.711,-26.855,0.000
1714028429.684,-8.301,-22.461,-60.547,-18.555,0.000
1714028429.688,-14.648,-13.184,-61.035,-28.809,0.000
1714028429.692,-25.391,-15.625,-69.336,-40.527,0.000
1714028429.696,-20.996,-14.648,-77.637,-40.527,0.000
1714028429.700,-19.531,-8.789,-73.730,-41.992,0.000
1714028429.704,-25.391,-8.789,-73.242,-45.410,0.000
1714028429.707,-26.367,-9.766,-76.172,-38.086,0.000
1714028429.711,-13.184,-1.465,-71.289,-29.297,0.000
1714028429.715,-12.695,6.836,-67.871,-41.016,0.000
1714028429.719,-22.461,0.488,-72.754,-53.711,0.000
1714028429.723,-16.602,-5.859,-85.449,-51.758,0.000
1714028429.727,-16.113,-2.441,-94.727,-54.688,0.000
1714028429.731,-19.043,-0.977,-89.355,-57.129,0.000
1714028429.735,-15.137,-6.348,-83.008,-50.293,0.000
1714028429.739,-15.137,-12.207,-89.355,-41.992,0.000
1714028429.743,-16.113,-13.184,-84.473,-41.016,0.000
1714028429.746,-11.719,-14.648,-73.242,-45.898,0.000
1714028429.750,-9.766,-15.625,-72.754,-47.363,0.000
1714028429.754,-11.230,-15.625,-69.336,-40.039,0.000
1714028429.758,-0.488,-19.531,-68.359,-26.855,0.000
1714028429.762,2.930,-20.996,-71.289,-21.973,0.000
1714028429.766,2.930,-18.555,-71.289,-15.137,0.000
1714028429.770,13.672,-16.113,-65.918,3.418,0.000
1714028429.774,17.090,-19.043,-60.059,8.789,0.000
1714028429.778,14.160,-15.625,-58.105,3.906,0.000
1714028429.782,11.230,-13.184,-58.594,6.348,0.000
1714028429.786,18.066,-19.043,-56.641,17.090,0.000
1714028429.789,16.113,-21.973,-60.059,15.137,0.000
1714028429.793,9.766,-20.020,-64.453,11.230,0.000
1714028429.797,9.766,-20.996,-63.965,4.883,0.000
1714028429.801,2.441,-20.996,-55.664,-5.859,0.000
1714028429.805,2.441,-17.578,-54.688,-5.371,0.000
1714028429.809,11.230,-20.996,-57.617,0.488,0.000
1714028429.813,6.348,-22.461,-60.547,-3.418,0.000
1714028429.817,3.418,-19.531,-59.082,4.883,0.000
1714028429.821,9.766,-13.184,-46.387,8.789,0.000
1714028429.825,3.418,-18.555,-50.781,-5.859,0.000
1714028429.828,-0.488,-26.367,-62.500,-15.137,0.000
1714028429.832,3.418,-20.020,-65.918,-16.113,0.000
1714028429.836,5.859,-13.184,-58.594,-3.418,0.000
1714028429.840,8.301,-11.230,-46.387,8.301,0.000
1714028429.844,8.789,-15.625,-50.293,5.859,0.000
