timestamps,TP9,AF7,AF8,TP10,Right AUX
1714023330.996,-30.762,-63.965,-62.988,-44.922,0.000
1714023331.000,-29.297,-66.895,-71.289,-51.270,0.000
1714023331.004,-33.691,-68.359,-75.684,-51.758,0.000
1714023331.008,-31.250,-65.918,-71.289,-44.434,0.000
1714023331.012,-27.344,-66.406,-61.523,-35.645,0.000
1714023331.016,-22.461,-68.359,-62.500,-41.504,0.000
1714023331.020,-25.391,-71.289,-65.918,-47.363,0.000
1714023331.024,-30.273,-68.848,-57.617,-45.410,0.000
1714023331.028,-27.832,-64.453,-57.129,-34.668,0.000
1714023331.032,-26.367,-62.012,-69.824,-39.551,0.000
1714023331.036,-26.367,-58.594,-72.754,-49.805,0.000
1714023331.039,-32.227,-65.430,-67.383,-49.805,0.000
1714023331.043,-32.227,-68.848,-65.430,-40.527,0.000
1714023331.047,-24.902,-67.383,-62.012,-37.598,0.000
1714023331.051,-24.902,-60.547,-52.246,-46.875,0.000
1714023331.055,-22.461,-55.664,-54.199,-48.340,0.000
1714023331.059,-20.996,-61.523,-70.801,-38.086,0.000
1714023331.063,-26.855,-77.637,-78.125,-38.086,0.000
1714023331.067,-28.809,-78.613,-71.777,-46.875,0.000
1714023331.071,-26.855,-55.664,-68.848,-50.781,0.000
1714023331.075,-23.438,-54.199,-66.895,-45.410,0.000
1714023331.078,-24.902,-67.871,-69.336,-35.156,0.000
1714023331.082,-30.762,-66.406,-62.500,-44.922,0.000
1714023331.086,-34.180,-63.477,-57.129,-56.152,0.000
1714023331.090,-33.203,-67.383,-64.453,-53.223,0.000
1714023331.094,-29.785,-76.172,-64.941,-39.551,0.000
1714023331.098,-27.832,-80.566,-63.965,-44.434,0.000
1714023331.102,-26.855,-77.637,-72.754,-50.293,0.000
1714023331.106,-35.645,-77.148,-80.566,-48.340,0.000
1714023331.110,-46.387,-70.312,-77.637,-47.363,0.000
1714023331.114,-41.504,-62.988,-65.430,-43.945,0.000
1714023331.118,-37.109,-60.059,-67.383,-49.805,0.000
1714023331.121,-39.551,-65.918,-74.707,-49.805,0.000
1714023331.125,-36.133,-75.684,-62.500,-34.668,0.000
1714023331.129,-29.297,-70.801,-56.641,-30.273,0.000
1714023331.133,-26.367,-62.012,-66.895,-38.574,0.000
1714023331.137,-28.320,-65.918,-79.102,-40.527,0.000
1714023331.141,-32.227,-64.453,-74.219,-33.203,0.000
1714023331.145,-37.109,-69.336,-58.105,-28.320,0.000
1714023331.149,-39.062,-70.801,-62.500,-41.992,0.000
1714023331.153,-42.969,-67.871,-70.312,-58.594,0.000
1714023331.157,-45.410,-70.312,-63.477,-46.387,0.000
1714023331.161,-37.109,-59.082,-68.848,-33.691,0.000
1714023331.164,-32.715,-57.617,-74.219,-34.180,0.000
1714023331.168,-38.086,-64.941,-66.406,-39.062,0.000
1714023331.172,-41.504,-60.059,-55.176,-36.621,0.000
1714023331.176,-41.504,-60.547,-57.617,-32.227,0.000
1714023331.180,-45.410,-60.059,-57.617,-42.969,0.000
1714023331.184,-40.039,-61.035,-56.152,-50.781,0.000
1714023331.188,-40.039,-62.500,-61.523,-50.781,0.000
1714023331.192,-45.410,-66.895,-65.430,-47.363,0.000
1714023331.196,-40.527,-69.336,-62.500,-41.992,0.000
1714023331.200,-51.758,-65.430,-63.477,-61.035,0.000
1714023331.203,-62.012,-65.918,-67.383,-75.195,0.000
1714023331.207,-61.035,-72.266,-57.129,-59.082,0.000
1714023331.211,-66.895,-71.777,-52.246,-54.199,0.000
1714023331.215,-78.125,-69.824,-56.641,-76.660,0.000
1714023331.219,-83.008,-70.801,-49.805,-87.891,0.000
1714023331.223,-82.031,-79.590,-48.828,-83.496,0.000
1714023331.227,-94.238,-76.660,-47.363,-87.402,0.000
1714023331.231,-102.051,-72.754,-36.621,-93.750,0.000
1714023331.235,-96.191,-76.660,-34.180,-93.750,0.000
1714023331.239,-103.516,-66.895,-43.457,-106.445,0.000
1714023331.243,-111.816,-68.848,-37.109,-113.770,0.000
1714023331.246,-110.840,-68.359,-27.832,-105.957,0.000
1714023331.250,-115.723,-66.895,-45.898,-109.863,0.000
1714023331.254,-116.699,-70.801,-57.129,-122.559,0.000
1714023331.258,-112.305,-75.195,-54.688,-111.328,0.000
1714023331.262,-108.398,-72.754,-41.504,-101.074,0.000
1714023331.266,-105.957,-68.848,-31.738,-113.770,0.000
1714023331.270,-120.605,-68.848,-36.133,-131.836,0.000
1714023331.274,-126.465,-62.988,-38.086,-133.301,0.000
1714023331.278,-116.211,-69.824,-32.227,-122.559,0.000
1714023331.282,-103.516,-73.242,-32.715,-114.258,0.000
1714023331.286,-101.562,-70.801,-41.016,-115.723,0.000
1714023331.289,-104.004,-65.918,-36.621,-119.141,0.000
1714023331.293,-113.281,-62.988,-31.250,-118.164,0.000
1714023331.297,-119.629,-61.523,-29.785,-122.070,0.000
1714023331.301,-102.051,-68.848,-31.250,-112.793,0.000
1714023331.305,-96.191,-75.195,-30.273,-104.004,0.000
1714023331.309,-99.609,-60.059,-14.160,-104.492,0.000
1714023331.313,-101.562,-56.152,-20.508,-104.004,0.000
1714023331.317,-106.934,-69.336,-33.691,-118.164,0.000
1714023331.321,-104.004,-65.918,-37.598,-110.840,0.000
1714023331.325,-101.562,-65.918,-35.645,-92.285,0.000
1714023331.328,-98.633,-76.660,-38.086,-95.703,0.000
1714023331.332,-98.633,-73.242,-48.828,-102.539,0.000
1714023331.336,-106.445,-67.871,-40.039,-110.840,0.000
1714023331.340,-115.234,-68.359,-30.273,-115.723,0.000
1714023331.344,-113.281,-69.336,-35.645,-106.445,0.000
1714023331.348,-104.980,-72.754,-34.180,-93.262,0.000
1714023331.352,-105.957,-68.848,-30.762,-106.445,0.000
1714023331.356,-112.793,-64.453,-28.809,-118.164,0.000
1714023331.360,-99.121,-63.477,-28.809,-95.703,0.000
1714023331.364,-97.168,-73.730,-37.109,-97.168,0.000
1714023331.368,-112.793,-84.961,-35.156,-117.188,0.000
1714023331.371,-112.793,-81.543,-28.320,-109.863,0.000
1714023331.375,-110.352,-72.266,-26.367,-97.656,0.000
1714023331.379,-106.934,-64.453,-18.555,-95.703,0.000
1714023331.383,-108.398,-77.148,-19.531,-109.863,0.000
1714023331.387,-118.652,-90.332,-32.227,-118.652,0.000
1714023331.391,-128.418,-86.914,-35.156,-118.164,0.000
1714023331.395,-128.906,-85.938,-24.902,-112.793,0.000
1714023331.399,-115.723,-73.242,-19.531,-109.375,0.000
1714023331.403,-119.629,-73.730,-39.062,-122.559,0.000
1714023331.407,-116.699,-85.938,-45.898,-116.699,0.000
1714023331.410,-105.469,-79.102,-34.180,-104.004,0.000
1714023331.414,-107.910,-80.566,-24.902,-102.539,0.000
1714023331.418,-100.586,-77.148,-22.949,-100.586,0.000
1714023331.422,-99.121,-78.613,-32.715,-104.492,0.000
1714023331.426,-101.562,-74.219,-38.086,-98.145,0.000
1714023331.430,-88.379,-65.430,-29.297,-81.055,0.000
1714023331.434,-83.496,-73.242,-26.367,-83.496,0.000
1714023331.438,-87.402,-78.613,-32.715,-87.891,0.000
1714023331.442,-90.332,-82.031,-36.133,-87.402,0.000
1714023331.446,-79.590,-79.102,-32.715,-76.172,0.000
1714023331.450,-68.848,-69.336,-34.668,-76.172,0.000
1714023331.453,-73.730,-66.895,-48.340,-75.195,0.000
1714023331.457,-69.336,-73.730,-40.527,-63.477,0.000
1714023331.461,-65.430,-76.660,-36.133,-59.570,0.000
1714023331.465,-62.500,-65.430,-37.598,-65.918,0.000
1714023331.469,-58.105,-64.941,-36.133,-79.590,0.000
1714023331.473,-53.711,-78.613,-40.527,-79.590,0.000
1714023331.477,-49.805,-73.730,-30.762,-74.707,0.000
1714023331.481,-55.664,-78.125,-32.227,-77.148,0.000
1714023331.485,-60.547,-88.379,-45.898,-83.984,0.000
1714023331.489,-53.223,-80.078,-45.410,-76.172,0.000
1714023331.493,-50.293,-83.984,-41.016,-62.012,0.000
1714023331.496,-64.941,-93.750,-38.574,-68.848,0.000
1714023331.500,-75.684,-84.473,-42.480,-72.754,0.000
1714023331.504,-69.336,-79.590,-42.969,-65.430,0.000
1714023331.508,-75.195,-81.543,-45.898,-68.848,0.000
1714023331.512,-65.918,-69.824,-51.270,-62.012,0.000
1714023331.516,-68.359,-74.219,-53.223,-73.242,0.000
1714023331.520,-81.055,-83.008,-61.523,-89.844,0.000
1714023331.524,-80.078,-85.449,-73.242,-81.055,0.000
1714023331.528,-66.895,-91.309,-77.148,-62.012,0.000
1714023331.532,-66.406,-90.332,-61.035,-61.035,0.000
1714023331.536,-77.637,-83.984,-51.270,-80.566,0.000
1714023331.539,-59.082,-79.102,-57.617,-69.824,0.000
1714023331.543,-36.621,-85.449,-62.012,-46.387,0.000
1714023331.547,-38.086,-82.520,-45.410,-44.434,0.000
1714023331.551,-39.551,-78.125,-48.340,-54.199,0.000
1714023331.555,-35.156,-86.426,-64.941,-57.617,0.000
1714023331.559,-35.645,-84.473,-58.105,-48.340,0.000
1714023331.563,-34.668,-83.496,-57.129,-45.898,0.000
1714023331.567,-25.391,-87.402,-51.758,-40.039,0.000
1714023331.571,-20.508,-86.426,-51.270,-32.715,0.000
1714023331.575,-15.137,-90.332,-58.105,-25.391,0.000
1714023331.578,-0.977,-95.215,-61.035,-8.301,0.000
1714023331.582,8.789,-89.355,-68.848,-1.953,0.000
1714023331.586,6.348,-98.633,-71.289,-7.812,0.000
1714023331.590,1.953,-106.445,-70.312,1.953,0.000
1714023331.594,9.766,-86.914,-64.453,19.531,0.000
1714023331.598,18.555,-78.125,-61.035,21.973,0.000
1714023331.602,17.578,-90.820,-69.824,13.672,0.000
1714023331.606,23.438,-81.055,-68.848,17.090,0.000
1714023331.610,28.809,-63.965,-63.965,27.344,0.000
1714023331.614,27.344,-76.172,-75.684,23.926,0.000
1714023331.618,30.273,-84.473,-87.891,21.484,0.000
1714023331.621,28.809,-80.566,-91.309,20.996,0.000
1714023331.625,35.645,-81.055,-89.844,23.438,0.000
1714023331.629,50.293,-79.102,-92.773,29.785,0.000
1714023331.633,46.875,-83.496,-108.887,22.949,0.000
1714023331.637,42.480,-84.473,-102.539,14.648,0.000
1714023331.641,45.410,-77.148,-103.027,25.391,0.000
1714023331.645,42.969,-74.219,-112.305,31.250,0.000
1714023331.649,41.992,-78.125,-102.051,26.855,0.000
1714023331.653,42.969,-79.590,-106.445,23.438,0.000
1714023331.657,46.387,-70.801,-112.305,26.855,0.000
1714023331.660,49.805,-64.941,-114.258,39.062,0.000
1714023331.664,54.199,-50.781,-121.094,43.457,0.000
1714023331.668,53.223,-51.270,-116.699,37.598,0.000
1714023331.672,54.199,-69.336,-109.863,37.598,0.000
1714023331.676,62.988,-66.406,-113.281,44.922,0.000
1714023331.680,68.848,-52.734,-120.117,51.758,0.000
1714023331.684,69.336,-48.340,-108.887,41.992,0.000
1714023331.688,63.965,-63.477,-107.422,35.156,0.000
1714023331.692,59.082,-66.895,-115.234,45.410,0.000
1714023331.696,55.176,-58.105,-109.863,49.316,0.000
1714023331.700,60.059,-56.641,-99.609,44.434,0.000
1714023331.703,57.129,-58.594,-106.445,38.086,0.000
1714023331.707,45.410,-67.383,-122.559,37.109,0.000
1714023331.711,47.363,-63.965,-104.004,45.898,0.000
1714023331.715,49.316,-56.152,-89.844,41.016,0.000
1714023331.719,45.410,-61.035,-111.816,26.855,0.000
1714023331.723,41.504,-71.777,-115.234,27.344,0.000
1714023331.727,36.621,-68.359,-98.633,22.461,0.000
1714023331.731,38.574,-64.941,-96.680,18.555,0.000
1714023331.735,47.363,-69.824,-103.027,18.066,0.000
1714023331.739,46.387,-60.059,-102.051,25.391,0.000
1714023331.743,41.016,-52.734,-100.586,29.297,0.000
1714023331.746,41.504,-50.781,-89.355,28.809,0.000
1714023331.750,42.480,-58.594,-87.891,28.320,0.000
1714023331.754,38.574,-62.500,-89.355,25.391,0.000
1714023331.758,29.297,-55.664,-85.449,26.367,0.000
1714023331.762,28.320,-48.828,-83.496,31.738,0.000
1714023331.766,34.668,-58.594,-88.867,35.156,0.000
1714023331.770,36.621,-64.941,-92.285,31.738,0.000
1714023331.774,35.645,-49.316,-83.008,35.645,0.000
1714023331.778,32.227,-44.434,-75.684,40.039,0.000
1714023331.782,25.391,-51.758,-80.078,23.438,0.000
1714023331.785,24.414,-51.270,-85.449,12.207,0.000
1714023331.789,19.043,-52.246,-86.914,12.207,0.000
1714023331.793,19.043,-50.781,-85.938,16.113,0.000
1714023331.797,23.926,-47.852,-84.961,15.137,0.000
1714023331.801,15.137,-54.199,-83.984,3.906,0.000
1714023331.805,4.883,-60.547,-91.309,-2.441,0.000
1714023331.809,3.418,-66.406,-92.285,3.418,0.000
1714023331.813,2.441,-66.895,-84.961,10.254,0.000
1714023331.817,4.883,-55.176,-80.566,6.348,0.000
1714023331.821,1.465,-52.246,-79.590,-3.418,0.000
1714023331.825,-7.324,-61.035,-82.520,-1.465,0.000
1714023331.828,-6.836,-67.383,-90.820,4.883,0.000
1714023331.832,-13.672,-57.617,-89.844,-12.207,0.000
1714023331.836,-18.066,-58.594,-87.402,-24.414,0.000
1714023331.840,-12.207,-66.406,-90.820,-15.137,0.000
1714023331.844,-8.789,-72.754,-81.543,-8.789,0.000
1714023331.848,-8.301,-74.707,-67.383,-15.137,0.000
1714023331.852,-8.789,-62.988,-69.824,-20.508,0.000
1714023331.856,-16.602,-53.223,-89.844,-14.160,0.000
1714023331.860,-16.113,-48.340,-84.473,-6.348,0.000
1714023331.864,-13.672,-44.922,-69.824,-7.324,0.000
1714023331.868,-17.090,-43.457,-74.219,-19.043,0.000
1714023331.871,-17.578,-51.758,-82.520,-15.137,0.000
1714023331.875,-15.625,-61.523,-79.102,-9.766,0.000
1714023331.879,-8.301,-52.246,-62.988,-10.742,0.000
1714023331.883,-1.465,-53.223,-57.617,-8.301,0.000
1714023331.887,-10.254,-68.848,-80.078,-22.949,0.000
1714023331.891,-18.555,-62.012,-91.797,-32.227,0.000
1714023331.895,-12.695,-55.176,-83.496,-20.508,0.000
1714023331.899,-10.742,-65.430,-80.566,-21.484,0.000
1714023331.903,-11.230,-67.871,-83.008,-27.832,0.000
1714023331.907,-16.602,-54.199,-84.961,-28.320,0.000
1714023331.910,-23.438,-51.270,-77.637,-27.344,0.000
1714023331.914,-24.414,-64.941,-69.824,-31.738,0.000
1714023331.918,-21.973,-70.312,-78.125,-36.133,0.000
1714023331.922,-20.508,-56.152,-73.242,-30.273,0.000
1714023331.926,-21.973,-52.734,-71.777,-25.391,0.000
1714023331.930,-24.902,-61.035,-72.754,-29.785,0.000
1714023331.934,-23.926,-54.199,-67.871,-36.621,0.000
1714023331.938,-26.855,-52.246,-65.430,-39.551,0.000
1714023331.942,-29.785,-54.688,-62.500,-33.203,0.000
1714023331.946,-23.926,-49.805,-65.430,-20.996,0.000
1714023331.950,-27.832,-61.523,-65.430,-34.180,0.000
1714023331.953,-42.480,-76.660,-66.895,-50.293,0.000
1714023331.957,-35.645,-68.359,-67.871,-43.457,0.000
1714023331.961,-26.367,-72.266,-78.125,-37.109,0.000
1714023331.965,-29.785,-70.801,-74.707,-39.551,0.000
1714023331.969,-26.367,-55.664,-57.617,-46.875,0.000
1714023331.973,-23.926,-56.641,-62.988,-41.016,0.000
1714023331.977,-25.879,-59.082,-74.707,-28.809,0.000
1714023331.981,-21.973,-61.523,-57.617,-35.156,0.000
1714023331.985,-18.555,-65.430,-51.270,-45.410,0.000
1714023331.989,-22.949,-70.801,-69.336,-43.945,0.000
1714023331.993,-27.832,-77.148,-75.195,-31.250,0.000
1714023331.996,-18.555,-72.754,-66.406,-20.020,0.000
1714023332.000,-16.602,-71.289,-64.941,-31.738,0.000
1714023332.004,-23.926,-78.125,-67.871,-40.039,0.000
1714023332.008,-20.996,-72.754,-73.730,-27.832,0.000
1714023332.012,-20.020,-63.965,-68.359,-25.879,0.000
1714023332.016,-23.438,-69.336,-62.500,-38.574,0.000
1714023332.020,-23.438,-67.871,-66.406,-46.387,0.000
1714023332.024,-29.785,-66.406,-72.266,-50.293,0.000
1714023332.028,-33.203,-65.918,-69.824,-43.457,0.000
1714023332.032,-29.297,-67.383,-67.871,-38.574,0.000
1714023332.035,-27.832,-67.383,-71.289,-42.480,0.000
1714023332.039,-29.297,-63.965,-70.801,-39.062,0.000
1714023332.043,-23.926,-65.918,-60.547,-28.809,0.000
1714023332.047,-13.672,-64.453,-50.293,-27.344,0.000
1714023332.051,-15.137,-75.195,-59.082,-34.668,0.000
1714023332.055,-25.879,-77.148,-70.312,-36.133,0.000
1714023332.059,-23.926,-67.383,-56.641,-25.879,0.000
1714023332.063,-23.438,-72.754,-49.805,-21.973,0.000
1714023332.067,-24.902,-65.430,-60.059,-34.668,0.000
1714023332.071,-23.926,-59.570,-65.918,-34.668,0.000
1714023332.075,-24.414,-65.430,-64.453,-28.809,0.000
1714023332.078,-22.949,-60.547,-55.664,-25.879,0.000
1714023332.082,-15.625,-58.105,-53.223,-24.902,0.000
1714023332.086,-13.184,-61.035,-51.270,-28.809,0.000
1714023332.090,-24.902,-71.777,-54.199,-33.691,0.000
1714023332.094,-33.691,-81.055,-65.430,-29.785,0.000
1714023332.098,-32.715,-84.961,-75.195,-29.297,0.000
1714023332.102,-35.645,-73.242,-67.871,-48.340,0.000
1714023332.106,-38.086,-59.570,-59.082,-55.664,0.000
1714023332.110,-40.039,-64.453,-62.988,-45.410,0.000
1714023332.114,-39.062,-66.895,-63.965,-45.410,0.000
1714023332.117,-36.133,-62.012,-55.664,-47.852,0.000
1714023332.121,-32.715,-66.406,-54.199,-44.922,0.000
1714023332.125,-31.250,-71.289,-58.105,-41.016,0.000
1714023332.129,-28.809,-71.289,-56.641,-35.645,0.000
1714023332.133,-24.414,-74.707,-58.105,-37.598,0.000
1714023332.137,-26.855,-77.148,-62.012,-47.852,0.000
1714023332.141,-18.555,-73.242,-65.918,-36.621,0.000
1714023332.145,-13.184,-63.965,-63.477,-25.391,0.000
1714023332.149,-27.344,-65.918,-55.664,-35.645,0.000
1714023332.153,-24.902,-69.336,-57.129,-37.109,0.000
1714023332.157,-19.043,-60.059,-67.871,-28.809,0.000
1714023332.160,-24.902,-60.547,-64.941,-24.902,0.000
1714023332.164,-27.832,-72.266,-54.688,-33.203,0.000
1714023332.168,-29.297,-76.660,-63.477,-40.039,0.000
1714023332.172,-27.832,-71.289,-73.242,-37.598,0.000
1714023332.176,-24.902,-59.082,-59.570,-28.320,0.000
1714023332.180,-20.996,-50.293,-54.199,-26.855,0.000
1714023332.184,-19.531,-56.641,-57.617,-34.180,0.000
1714023332.188,-23.438,-64.941,-56.641,-35.645,0.000
1714023332.192,-26.855,-67.383,-62.012,-35.645,0.000
1714023332.196,-26.367,-64.453,-61.035,-35.156,0.000
1714023332.199,-24.414,-63.477,-59.570,-37.109,0.000
1714023332.203,-19.531,-75.684,-71.289,-35.645,0.000
1714023332.207,-22.949,-73.242,-72.266,-34.180,0.000
1714023332.211,-27.832,-59.570,-56.641,-32.227,0.000
1714023332.215,-29.297,-65.918,-57.129,-34.668,0.000
1714023332.219,-31.250,-64.453,-54.688,-32.715,0.000
1714023332.223,-30.762,-56.152,-51.758,-25.391,0.000
1714023332.227,-29.297,-61.035,-60.059,-26.367,0.000
1714023332.231,-28.809,-64.453,-61.523,-35.645,0.000
1714023332.235,-32.227,-66.895,-67.871,-43.945,0.000
1714023332.239,-33.691,-73.242,-67.871,-44.922,0.000
1714023332.243,-30.762,-83.984,-57.129,-38.574,0.000
1714023332.246,-23.926,-81.543,-65.430,-34.180,0.000
1714023332.250,-23.438,-60.547,-64.941,-35.645,0.000
1714023332.254,-27.832,-54.199,-53.711,-45.410,0.000
1714023332.258,-24.414,-55.664,-59.082,-44.434,0.000
1714023332.262,-22.461,-62.012,-66.406,-41.504,0.000
1714023332.266,-22.949,-63.477,-68.848,-49.805,0.000
1714023332.270,-24.414,-56.641,-61.035,-53.223,0.000
1714023332.274,-27.832,-70.801,-57.129,-49.805,0.000
1714023332.278,-25.391,-79.590,-61.035,-45.410,0.000
1714023332.282,-27.344,-69.336,-58.594,-50.781,0.000
1714023332.285,-28.320,-73.730,-64.453,-54.688,0.000
1714023332.289,-21.973,-71.777,-69.336,-44.922,0.000
1714023332.293,-22.461,-62.500,-64.941,-36.621,0.000
1714023332.297,-31.738,-68.848,-69.336,-37.109,0.000
1714023332.301,-31.738,-64.941,-68.848,-38.574,0.000
1714023332.305,-24.414,-59.082,-62.988,-34.668,0.000
1714023332.309,-20.508,-68.359,-60.547,-24.902,0.000
1714023332.313,-24.902,-78.125,-50.293,-28.320,0.000
1714023332.317,-26.367,-81.055,-58.594,-31.738,0.000
1714023332.321,-31.738,-81.055,-74.219,-36.621,0.000
1714023332.325,-36.621,-72.754,-68.848,-39.062,0.000
1714023332.328,-35.156,-69.336,-59.082,-34.668,0.000
1714023332.332,-27.344,-72.266,-54.199,-31.738,0.000
1714023332.336,-29.297,-62.012,-63.965,-34.180,0.000
1714023332.340,-37.598,-62.988,-64.453,-43.945,0.000
1714023332.344,-35.645,-67.383,-44.922,-51.270,0.000
1714023332.348,-30.762,-73.730,-43.457,-45.410,0.000
1714023332.352,-31.250,-81.543,-59.082,-41.504,0.000
1714023332.356,-36.621,-76.172,-67.383,-43.457,0.000
1714023332.360,-30.762,-71.289,-62.500,-33.203,0.000
1714023332.364,-23.438,-68.359,-49.316,-27.832,0.000
1714023332.368,-31.250,-67.871,-51.758,-41.992,0.000
1714023332.371,-33.691,-70.312,-60.059,-44.434,0.000
1714023332.375,-27.832,-75.684,-56.152,-27.344,0.000
1714023332.379,-26.367,-76.660,-55.664,-16.602,0.000
1714023332.383,-20.508,-79.590,-58.105,-20.508,0.000
1714023332.387,-16.602,-70.312,-49.805,-29.785,0.000
1714023332.391,-19.043,-72.754,-55.176,-33.691,0.000
1714023332.395,-24.414,-88.867,-60.059,-29.785,0.000
1714023332.399,-27.344,-80.078,-57.617,-36.621,0.000
1714023332.403,-27.832,-71.777,-62.500,-40.039,0.000
1714023332.407,-22.949,-79.102,-63.477,-34.180,0.000
1714023332.410,-19.531,-76.172,-64.453,-32.715,0.000
1714023332.414,-20.020,-62.988,-64.941,-41.504,0.000
1714023332.418,-3.906,-60.059,-56.641,-44.922,0.000
1714023332.422,10.254,-61.523,-59.570,-37.598,0.000
1714023332.426,6.836,-65.430,-72.754,-32.715,0.000
1714023332.430,-11.230,-72.754,-73.730,-41.016,0.000
1714023332.434,-32.227,-70.312,-66.895,-55.176,0.000
1714023332.438,-39.062,-65.918,-64.941,-54.688,0.000
1714023332.442,-35.645,-76.660,-58.594,-44.922,0.000
1714023332.446,-36.621,-76.172,-55.176,-41.992,0.000
1714023332.450,-32.715,-62.500,-60.059,-45.898,0.000
1714023332.453,-32.227,-62.500,-62.988,-47.852,0.000
1714023332.457,-38.574,-73.242,-66.895,-43.457,0.000
1714023332.461,-33.691,-78.613,-65.430,-30.273,0.000
1714023332.465,-27.832,-75.195,-63.477,-29.297,0.000
1714023332.469,-25.879,-71.777,-67.871,-31.250,0.000
1714023332.473,-23.438,-72.266,-75.195,-11.719,0.000
1714023332.477,-25.391,-69.824,-67.871,-8.789,0.000
1714023332.481,-23.438,-69.824,-55.176,-18.555,0.000
1714023332.485,-22.949,-73.730,-61.035,-18.555,0.000
1714023332.489,-27.344,-70.801,-68.848,-19.043,0.000
1714023332.492,-26.855,-69.824,-68.359,-21.973,0.000
1714023332.496,-21.484,-73.242,-61.523,-19.531,0.000
1714023332.500,-17.090,-71.289,-57.617,-21.973,0.000
1714023332.504,-19.043,-62.988,-60.547,-30.273,0.000
1714023332.508,-22.461,-57.129,-63.477,-23.438,0.000
1714023332.512,-19.531,-62.500,-62.988,-20.996,0.000
1714023332.516,-18.066,-74.707,-58.105,-29.297,0.000
1714023332.520,-29.297,-73.730,-62.012,-40.527,0.000
1714023332.524,-33.203,-67.383,-71.289,-49.805,0.000
1714023332.528,-33.203,-72.266,-77.148,-41.992,0.000
1714023332.532,-31.738,-79.590,-75.684,-33.203,0.000
1714023332.535,-15.625,-82.031,-72.266,-25.391,0.000
1714023332.539,-17.578,-73.242,-66.895,-31.250,0.000
1714023332.543,-34.180,-59.570,-59.570,-41.992,0.000
1714023332.547,-35.156,-57.617,-69.824,-41.992,0.000
1714023332.551,-31.738,-69.824,-70.312,-42.969,0.000
1714023332.555,-26.367,-72.266,-59.082,-33.691,0.000
1714023332.559,-21.973,-60.547,-69.336,-24.902,0.000
1714023332.563,-20.996,-65.918,-82.031,-28.809,0.000
1714023332.567,-23.926,-69.824,-76.660,-40.039,0.000
1714023332.571,-22.949,-64.453,-64.941,-37.598,0.000
1714023332.575,-17.090,-71.777,-65.918,-29.785,0.000
1714023332.578,-15.625,-82.031,-75.684,-28.809,0.000
1714023332.582,-20.020,-71.777,-69.336,-37.598,0.000
1714023332.586,-17.578,-60.059,-58.105,-44.434,0.000
1714023332.590,-23.926,-53.223,-71.289,-51.758,0.000
1714023332.594,-28.320,-54.199,-70.312,-44.922,0.000
1714023332.598,-21.484,-63.477,-62.500,-47.852,0.000
1714023332.602,-18.066,-67.871,-63.477,-54.688,0.000
1714023332.606,-23.926,-71.289,-63.477,-52.734,0.000
1714023332.610,-30.762,-70.801,-69.824,-49.316,0.000
1714023332.614,-30.273,-68.848,-65.430,-48.828,0.000
1714023332.617,-25.879,-67.871,-56.641,-53.711,0.000
1714023332.621,-26.855,-64.453,-62.988,-53.223,0.000
1714023332.625,-31.250,-62.500,-57.617,-47.363,0.000
1714023332.629,-32.715,-65.430,-50.293,-45.898,0.000
1714023332.633,-31.738,-73.730,-59.570,-50.293,0.000
1714023332.637,-21.484,-73.730,-61.035,-38.574,0.000
1714023332.641,-7.812,-64.453,-56.641,-25.879,0.000
1714023332.645,-9.766,-71.777,-64.453,-32.715,0.000
1714023332.649,-11.230,-71.777,-58.594,-38.574,0.000
1714023332.653,-10.254,-70.312,-53.711,-36.621,0.000
1714023332.657,-14.648,-75.684,-57.129,-29.297,0.000
1714023332.660,-19.531,-71.777,-54.688,-27.344,0.000
1714023332.664,-22.461,-68.848,-56.641,-34.668,0.000
1714023332.668,-22.461,-67.871,-64.453,-40.039,0.000
1714023332.672,-26.367,-60.059,-62.988,-51.758,0.000
1714023332.676,-28.809,-62.500,-65.430,-54.199,0.000
1714023332.680,-20.508,-69.824,-55.664,-43.945,0.000
1714023332.684,-17.090,-64.453,-47.852,-42.480,0.000
1714023332.688,-18.555,-66.406,-56.641,-41.992,0.000
1714023332.692,-15.137,-73.730,-64.941,-36.133,0.000
1714023332.696,-12.207,-63.477,-66.895,-39.551,0.000
1714023332.700,-17.578,-56.152,-61.035,-43.457,0.000
1714023332.703,-17.090,-54.688,-53.223,-40.527,0.000
1714023332.707,-11.719,-57.129,-44.434,-29.785,0.000
1714023332.711,-14.160,-61.035,-51.270,-20.020,0.000
1714023332.715,-15.137,-62.988,-64.453,-27.344,0.000
1714023332.719,-14.160,-58.105,-51.270,-37.598,0.000
1714023332.723,-17.578,-62.500,-43.945,-32.715,0.000
1714023332.727,-20.020,-68.359,-49.316,-29.785,0.000
1714023332.731,-17.090,-69.336,-48.340,-30.762,0.000
1714023332.735,-20.020,-66.895,-59.570,-39.062,0.000
1714023332.739,-21.484,-65.430,-62.500,-39.062,0.000
1714023332.742,-20.020,-65.430,-59.570,-31.738,0.000
1714023332.746,-25.879,-63.965,-61.523,-35.156,0.000
1714023332.750,-29.785,-62.500,-58.105,-41.992,0.000
1714023332.754,-31.250,-69.336,-54.199,-41.016,0.000
1714023332.758,-30.762,-71.289,-61.523,-32.715,0.000
1714023332.762,-34.180,-62.012,-61.523,-32.715,0.000
1714023332.766,-31.738,-64.941,-60.059,-38.086,0.000
1714023332.770,-33.691,-73.242,-66.895,-44.922,0.000
1714023332.774,-37.598,-68.359,-59.082,-42.480,0.000
1714023332.778,-31.738,-65.430,-52.246,-31.250,0.000
1714023332.782,-26.855,-67.383,-53.711,-35.156,0.000
1714023332.785,-28.809,-64.941,-65.918,-46.875,0.000
1714023332.789,-30.762,-57.129,-63.477,-41.504,0.000
1714023332.793,-31.250,-64.941,-56.152,-39.062,0.000
1714023332.797,-28.320,-72.266,-59.082,-36.133,0.000
1714023332.801,-28.320,-72.754,-64.453,-29.785,0.000
1714023332.805,-34.668,-72.754,-70.312,-27.832,0.000
1714023332.809,-35.156,-73.730,-65.430,-29.297,0.000
1714023332.813,-31.738,-91.309,-64.941,-31.738,0.000
1714023332.817,-26.855,-80.078,-69.336,-37.109,0.000
1714023332.821,-20.020,-64.941,-58.105,-33.203,0.000
1714023332.824,-20.020,-61.035,-53.223,-29.297,0.000
1714023332.828,-18.066,-64.941,-65.430,-27.832,0.000
1714023332.832,-18.066,-75.195,-80.566,-35.156,0.000
1714023332.836,-26.367,-71.289,-73.242,-43.945,0.000
1714023332.840,-28.320,-66.895,-62.500,-40.039,0.000
1714023332.844,-26.855,-69.336,-62.500,-34.668,0.000
1714023332.848,-24.414,-65.918,-71.289,-28.809,0.000
1714023332.852,-28.809,-65.918,-63.965,-41.504,0.000
1714023332.856,-36.133,-65.430,-60.059,-42.969,0.000
1714023332.860,-30.273,-66.895,-68.848,-33.691,0.000
1714023332.864,-24.414,-68.848,-66.406,-38.574,0.000
1714023332.867,-30.273,-69.824,-66.406,-46.387,0.000
1714023332.871,-30.273,-68.359,-69.336,-49.316,0.000
1714023332.875,-33.691,-66.406,-71.777,-46.875,0.000
1714023332.879,-36.621,-70.312,-63.965,-47.852,0.000
1714023332.883,-27.344,-68.359,-53.223,-45.410,0.000
1714023332.887,-27.344,-62.988,-64.941,-39.062,0.000
1714023332.891,-28.809,-61.035,-69.336,-25.391,0.000
1714023332.895,-24.414,-65.918,-57.617,-13.184,0.000
1714023332.899,-26.367,-62.500,-54.688,-22.949,0.000
1714023332.903,-26.855,-57.617,-61.523,-32.227,0.000
1714023332.906,-28.809,-65.430,-65.918,-30.273,0.000
1714023332.910,-27.344,-68.848,-57.129,-29.785,0.000
1714023332.914,-31.250,-68.359,-54.199,-34.668,0.000
1714023332.918,-39.551,-71.777,-60.547,-41.016,0.000
1714023332.922,-38.574,-83.496,-59.082,-42.480,0.000
1714023332.926,-33.691,-84.473,-60.059,-34.180,0.000
1714023332.930,-35.156,-65.918,-65.430,-38.086,0.000
1714023332.934,-41.992,-56.641,-66.406,-52.246,0.000
1714023332.938,-41.504,-63.477,-73.730,-48.828,0.000
1714023332.942,-40.039,-65.430,-78.613,-44.922,0.000
1714023332.946,-37.598,-62.988,-71.777,-41.504,0.000
1714023332.949,-33.691,-72.266,-71.777,-45.898,0.000
1714023332.953,-31.738,-79.590,-78.613,-44.434,0.000
1714023332.957,-37.598,-75.195,-71.777,-41.504,0.000
1714023332.961,-40.039,-70.801,-68.359,-33.203,0.000
1714023332.965,-36.133,-69.824,-68.848,-30.273,0.000
1714023332.969,-34.180,-71.289,-63.965,-36.133,0.000
1714023332.973,-33.203,-80.566,-64.453,-29.297,0.000
1714023332.977,-28.320,-79.590,-64.941,-20.020,0.000
1714023332.981,-25.391,-69.824,-63.477,-21.973,0.000
1714023332.985,-26.367,-64.941,-62.988,-31.738,0.000
1714023332.989,-27.344,-62.012,-65.430,-31.250,0.000
1714023332.992,-28.320,-64.941,-60.059,-20.508,0.000
1714023332.996,-29.297,-67.871,-65.430,-25.391,0.000
1714023333.000,-35.645,-83.496,-71.289,-38.086,0.000
1714023333.004,-40.039,-82.520,-64.941,-44.434,0.000
1714023333.008,-38.574,-71.289,-63.477,-38.086,0.000
1714023333.012,-34.668,-74.219,-58.105,-31.738,0.000
1714023333.016,-37.109,-65.430,-52.246,-44.434,0.000
1714023333.020,-40.527,-62.500,-59.082,-55.664,0.000
1714023333.024,-43.457,-70.312,-69.336,-47.363,0.000
1714023333.028,-43.945,-71.289,-68.848,-40.527,0.000
1714023333.032,-35.645,-72.266,-64.453,-43.945,0.000
1714023333.035,-29.785,-66.895,-61.523,-49.805,0.000
1714023333.039,-28.809,-64.453,-61.523,-41.992,0.000
1714023333.043,-29.785,-72.754,-77.637,-36.133,0.000
1714023333.047,-29.297,-68.848,-68.848,-40.527,0.000
1714023333.051,-33.691,-64.941,-61.035,-45.410,0.000
1714023333.055,-34.180,-65.918,-67.871,-42.480,0.000
1714023333.059,-29.785,-64.941,-61.523,-27.344,0.000
1714023333.063,-33.691,-70.801,-54.199,-28.809,0.000
1714023333.067,-33.203,-80.566,-53.711,-38.086,0.000
1714023333.071,-27.832,-74.219,-66.895,-37.598,0.000
1714023333.075,-33.203,-65.918,-77.637,-34.668,0.000
1714023333.078,-30.762,-66.406,-72.266,-30.273,0.000
1714023333.082,-28.809,-65.430,-65.918,-33.203,0.000
1714023333.086,-31.250,-66.895,-62.988,-41.016,0.000
1714023333.090,-37.109,-70.801,-57.617,-43.945,0.000
1714023333.094,-42.969,-63.965,-46.387,-47.852,0.000
1714023333.098,-46.875,-65.918,-49.805,-59.082,0.000
1714023333.102,-47.363,-63.965,-57.617,-71.777,0.000
1714023333.106,-53.711,-65.918,-64.453,-81.543,0.000
1714023333.110,-69.336,-77.637,-60.547,-90.332,0.000
1714023333.114,-76.660,-74.219,-59.570,-98.145,0.000
1714023333.117,-79.102,-72.754,-58.594,-106.445,0.000
1714023333.121,-89.844,-74.707,-52.246,-113.281,0.000
1714023333.125,-99.121,-71.777,-55.176,-109.863,0.000
1714023333.129,-104.492,-77.148,-53.711,-109.375,0.000
1714023333.133,-104.004,-83.496,-47.363,-114.746,0.000
1714023333.137,-108.398,-81.055,-33.203,-114.258,0.000
1714023333.141,-110.840,-80.566,-20.508,-100.098,0.000
1714023333.145,-99.609,-78.613,-22.949,-89.844,0.000
1714023333.149,-100.586,-76.660,-28.320,-101.074,0.000
1714023333.153,-104.980,-75.684,-30.273,-110.352,0.000
1714023333.157,-102.539,-69.824,-41.504,-104.492,0.000
1714023333.160,-96.680,-69.824,-43.457,-97.168,0.000
1714023333.164,-88.379,-67.383,-34.668,-96.680,0.000
1714023333.168,-85.938,-64.941,-38.086,-98.633,0.000
1714023333.172,-87.402,-78.125,-42.969,-97.656,0.000
1714023333.176,-83.496,-81.055,-54.199,-87.891,0.000
1714023333.180,-80.078,-75.195,-64.453,-79.102,0.000
1714023333.184,-72.266,-71.289,-63.965,-81.543,0.000
1714023333.188,-65.430,-70.801,-60.547,-79.102,0.000
1714023333.192,-74.219,-74.219,-54.199,-80.078,0.000
1714023333.196,-71.289,-70.801,-54.199,-77.637,0.000
1714023333.199,-58.105,-71.777,-61.035,-70.312,0.000
1714023333.203,-62.500,-76.172,-57.617,-74.707,0.000
1714023333.207,-64.941,-75.195,-64.941,-74.707,0.000
1714023333.211,-64.941,-74.219,-70.312,-71.289,0.000
1714023333.215,-54.688,-64.941,-51.270,-63.965,0.000
1714023333.219,-42.969,-59.570,-51.758,-62.500,0.000
1714023333.223,-44.434,-78.613,-80.078,-60.547,0.000
1714023333.227,-40.527,-77.637,-74.219,-55.176,0.000
1714023333.231,-38.574,-63.965,-52.246,-59.082,0.000
1714023333.235,-51.270,-74.707,-54.199,-68.359,0.000
1714023333.239,-62.988,-83.496,-58.594,-83.496,0.000
1714023333.242,-78.613,-81.055,-41.992,-91.797,0.000
1714023333.246,-85.449,-79.102,-32.227,-85.449,0.000
1714023333.250,-102.051,-76.660,-36.621,-99.121,0.000
1714023333.254,-119.629,-76.172,-32.227,-115.723,0.000
1714023333.258,-131.836,-83.008,-25.879,-135.254,0.000
1714023333.262,-149.902,-84.961,-28.320,-159.668,0.000
1714023333.266,-147.949,-80.078,-35.645,-162.109,0.000
1714023333.270,-140.137,-76.660,-36.621,-158.691,0.000
1714023333.274,-140.625,-69.336,-34.180,-158.691,0.000
1714023333.278,-137.207,-61.035,-32.227,-156.250,0.000
1714023333.281,-132.324,-63.965,-38.574,-154.297,0.000
1714023333.285,-125.000,-69.824,-35.645,-144.043,0.000
1714023333.289,-114.746,-72.266,-28.809,-129.395,0.000
1714023333.293,-93.750,-70.801,-43.457,-107.422,0.000
1714023333.297,-73.730,-59.082,-51.758,-95.703,0.000
1714023333.301,-66.895,-53.223,-48.340,-92.773,0.000
1714023333.305,-50.781,-57.617,-48.828,-70.312,0.000
1714023333.309,-39.551,-65.918,-51.758,-46.875,0.000
1714023333.313,-30.762,-72.266,-63.477,-31.250,0.000
1714023333.317,-15.137,-66.406,-65.918,-25.879,0.000
1714023333.321,-12.207,-65.430,-66.406,-24.902,0.000
1714023333.324,-11.719,-68.359,-78.613,-15.137,0.000
1714023333.328,0.977,-65.430,-86.914,-1.953,0.000
1714023333.332,3.418,-69.336,-80.078,-4.883,0.000
1714023333.336,-4.395,-69.824,-76.172,-16.602,0.000
1714023333.340,-13.672,-73.242,-87.402,-19.043,0.000
1714023333.344,-7.324,-82.031,-83.008,-8.301,0.000
1714023333.348,4.395,-76.660,-69.824,-2.441,0.000
1714023333.352,1.953,-76.172,-70.312,-11.230,0.000
1714023333.356,-4.395,-84.961,-79.102,-17.090,0.000
1714023333.360,-2.930,-87.891,-83.496,-9.277,0.000
1714023333.364,-2.930,-90.332,-75.195,-6.348,0.000
1714023333.367,5.371,-91.309,-69.824,-4.395,0.000
1714023333.371,10.254,-89.355,-84.473,-6.348,0.000
1714023333.375,11.230,-85.938,-86.914,3.906,0.000
1714023333.379,16.602,-85.938,-72.266,11.719,0.000
1714023333.383,24.902,-75.195,-76.172,13.672,0.000
1714023333.387,39.551,-66.406,-87.891,18.555,0.000
1714023333.391,45.898,-69.824,-94.238,20.996,0.000
1714023333.395,51.758,-71.289,-84.473,29.785,0.000
1714023333.399,60.547,-76.172,-78.125,34.180,0.000
1714023333.403,54.199,-81.543,-90.332,30.273,0.000
1714023333.407,43.945,-80.078,-90.332,24.414,0.000
1714023333.410,41.016,-75.195,-72.266,33.691,0.000
1714023333.414,38.574,-78.613,-64.453,38.086,0.000
1714023333.418,29.297,-89.844,-85.938,26.367,0.000
1714023333.422,21.484,-88.379,-88.379,18.555,0.000
1714023333.426,17.578,-80.078,-83.008,24.414,0.000
1714023333.430,11.230,-81.543,-78.613,21.484,0.000
1714023333.434,7.324,-84.961,-72.754,3.906,0.000
1714023333.438,-4.395,-88.379,-87.891,-9.766,0.000
1714023333.442,-10.254,-85.938,-98.145,-8.301,0.000
1714023333.446,-5.859,-79.102,-85.938,-7.324,0.000
1714023333.449,-10.742,-70.312,-73.242,-20.020,0.000
1714023333.453,-10.742,-71.289,-86.426,-21.973,0.000
1714023333.457,-5.371,-77.637,-93.262,-13.184,0.000
1714023333.461,0.488,-67.871,-88.379,-4.883,0.000
1714023333.465,8.789,-54.688,-86.914,6.836,0.000
1714023333.469,8.789,-53.223,-74.707,1.953,0.000
1714023333.473,13.184,-58.594,-69.824,4.883,0.000
1714023333.477,26.855,-61.523,-68.848,23.926,0.000
1714023333.481,26.855,-66.406,-64.453,22.949,0.000
1714023333.485,25.879,-62.988,-62.500,16.113,0.000
1714023333.489,24.902,-52.246,-74.219,17.090,0.000
1714023333.492,19.531,-55.664,-92.285,20.020,0.000
1714023333.496,18.066,-66.895,-90.820,22.461,0.000
1714023333.500,9.277,-71.777,-86.914,8.789,0.000
1714023333.504,4.883,-66.895,-83.008,-2.441,0.000
1714023333.508,0.488,-66.895,-84.473,7.812,0.000
1714023333.512,-2.930,-60.547,-74.707,4.395,0.000
1714023333.516,3.418,-52.734,-70.801,-12.207,0.000
1714023333.520,1.465,-66.406,-80.566,-16.113,0.000
1714023333.524,-5.371,-66.895,-68.848,-7.324,0.000
1714023333.528,-4.883,-62.988,-62.988,-1.953,0.000
1714023333.531,-9.766,-62.988,-73.242,-10.254,0.000
1714023333.535,-14.648,-59.570,-76.172,-20.020,0.000
1714023333.539,-18.066,-61.523,-77.148,-19.043,0.000
1714023333.543,-9.766,-62.988,-71.777,-8.301,0.000
1714023333.547,3.906,-60.547,-64.453,-4.395,0.000
1714023333.551,6.836,-57.129,-64.941,-4.395,0.000
1714023333.555,3.418,-63.965,-79.102,2.441,0.000
1714023333.559,5.371,-62.012,-73.242,6.836,0.000
1714023333.563,5.371,-56.641,-67.383,0.488,0.000
1714023333.567,4.883,-60.547,-67.871,-4.395,0.000
1714023333.571,7.324,-63.965,-61.523,0.488,0.000
1714023333.574,-0.488,-68.359,-62.012,3.418,0.000
1714023333.578,-0.977,-79.590,-56.641,13.184,0.000
1714023333.582,3.906,-65.918,-52.734,17.090,0.000
1714023333.586,-4.883,-48.828,-59.570,-3.906,0.000
1714023333.590,-14.648,-59.082,-74.707,-12.207,0.000
1714023333.594,-12.695,-66.406,-80.566,-2.930,0.000
1714023333.598,-9.766,-67.871,-79.102,-7.812,0.000
1714023333.602,-6.836,-64.453,-69.336,-17.578,0.000
1714023333.606,-16.602,-67.871,-68.848,-27.832,0.000
1714023333.610,-20.020,-68.848,-75.684,-28.809,0.000
1714023333.614,-5.859,-60.547,-59.570,-21.973,0.000
1714023333.617,-10.254,-58.105,-56.641,-31.738,0.000
1714023333.621,-21.484,-58.105,-67.383,-39.551,0.000
1714023333.625,-22.461,-65.430,-67.871,-28.320,0.000
1714023333.629,-12.695,-66.895,-57.617,-14.648,0.000
1714023333.633,-2.441,-67.383,-60.547,-15.137,0.000
1714023333.637,-4.395,-71.777,-66.895,-21.973,0.000
1714023333.641,-10.254,-64.941,-58.105,-12.207,0.000
1714023333.645,-8.301,-55.176,-57.617,-5.371,0.000
1714023333.649,-8.789,-60.059,-68.848,-23.438,0.000
1714023333.653,-10.742,-66.895,-75.195,-29.785,0.000
1714023333.656,-8.301,-61.035,-70.801,-16.602,0.000
1714023333.660,-12.695,-57.617,-73.242,-20.020,0.000
1714023333.664,-12.207,-65.430,-67.871,-28.809,0.000
1714023333.668,-16.113,-81.055,-60.059,-32.227,0.000
1714023333.672,-22.949,-83.984,-61.523,-34.180,0.000
1714023333.676,-34.180,-74.707,-51.758,-32.715,0.000
1714023333.680,-36.133,-68.848,-54.688,-36.133,0.000
1714023333.684,-30.273,-66.406,-72.754,-41.992,0.000
1714023333.688,-35.645,-70.801,-81.055,-40.527,0.000
1714023333.692,-33.691,-71.777,-67.871,-32.227,0.000
1714023333.696,-26.367,-66.406,-55.664,-28.320,0.000
1714023333.699,-26.367,-66.406,-59.570,-38.086,0.000
1714023333.703,-22.949,-70.312,-64.941,-36.133,0.000
1714023333.707,-21.484,-64.941,-67.383,-26.855,0.000
1714023333.711,-11.230,-59.570,-61.523,-20.508,0.000
1714023333.715,-11.230,-64.453,-61.523,-19.043,0.000
1714023333.719,-17.090,-59.570,-74.219,-25.879,0.000
1714023333.723,-20.996,-53.711,-69.824,-28.320,0.000
1714023333.727,-20.020,-58.594,-63.965,-20.508,0.000
1714023333.731,-20.508,-62.988,-68.848,-30.273,0.000
1714023333.735,-27.832,-71.777,-70.312,-42.480,0.000
1714023333.739,-23.926,-73.730,-58.105,-37.109,0.000
1714023333.742,-23.438,-72.266,-54.688,-40.039,0.000
1714023333.746,-24.414,-68.359,-62.012,-41.992,0.000
1714023333.750,-24.902,-67.871,-61.523,-34.180,0.000
1714023333.754,-33.203,-73.730,-62.012,-35.645,0.000
1714023333.758,-33.691,-71.289,-68.848,-31.738,0.000
1714023333.762,-30.273,-71.289,-67.871,-28.809,0.000
1714023333.766,-29.785,-74.219,-60.059,-40.527,0.000
1714023333.770,-34.668,-80.566,-60.059,-53.223,0.000
1714023333.774,-34.668,-78.613,-71.289,-48.828,0.000
1714023333.778,-23.926,-67.871,-75.684,-35.645,0.000
1714023333.781,-25.391,-73.242,-79.590,-36.133,0.000
1714023333.785,-20.508,-79.590,-75.684,-38.086,0.000
1714023333.789,-13.184,-79.590,-63.965,-28.809,0.000
1714023333.793,-19.043,-77.148,-65.918,-20.508,0.000
1714023333.797,-20.508,-68.848,-60.547,-26.367,0.000
1714023333.801,-18.066,-70.312,-59.082,-32.227,0.000
1714023333.805,-19.531,-75.684,-61.523,-25.391,0.000
1714023333.809,-24.414,-74.707,-62.500,-23.438,0.000
1714023333.813,-25.879,-68.359,-62.012,-32.227,0.000
1714023333.817,-26.855,-62.500,-59.082,-33.203,0.000
1714023333.821,-32.715,-63.965,-62.012,-31.250,0.000
1714023333.824,-33.203,-66.895,-58.105,-29.785,0.000
1714023333.828,-24.902,-63.965,-58.105,-20.996,0.000
1714023333.832,-18.555,-60.547,-52.734,-22.949,0.000
1714023333.836,-22.949,-73.242,-66.895,-31.250,0.000
1714023333.840,-28.809,-83.496,-80.566,-31.250,0.000
1714023333.844,-31.250,-80.078,-63.477,-31.250,0.000
1714023333.848,-34.180,-81.543,-58.594,-37.598,0.000
1714023333.852,-36.621,-80.566,-66.406,-46.875,0.000
1714023333.856,-34.668,-82.031,-64.941,-41.992,0.000
1714023333.860,-33.203,-75.684,-64.453,-32.715,0.000
1714023333.864,-25.391,-66.406,-59.082,-33.691,0.000
1714023333.867,-17.090,-65.918,-56.641,-36.621,0.000
1714023333.871,-18.066,-68.359,-62.988,-33.203,0.000
1714023333.875,-22.949,-69.824,-65.430,-28.809,0.000
1714023333.879,-21.484,-64.941,-66.895,-28.809,0.000
1714023333.883,-6.348,-57.129,-62.988,-18.555,0.000
1714023333.887,-6.836,-60.059,-53.223,-24.902,0.000
1714023333.891,-18.066,-57.129,-58.594,-36.133,0.000
1714023333.895,-12.695,-62.012,-63.477,-28.809,0.000
1714023333.899,-9.766,-69.336,-51.758,-27.344,0.000
1714023333.903,-13.184,-64.941,-53.711,-31.250,0.000
1714023333.906,-11.230,-58.105,-69.336,-28.320,0.000
1714023333.910,-12.695,-60.547,-69.336,-24.414,0.000
1714023333.914,-18.066,-63.477,-62.012,-24.902,0.000
1714023333.918,-24.414,-67.871,-60.547,-33.691,0.000
1714023333.922,-28.809,-75.684,-63.477,-34.668,0.000
1714023333.926,-28.809,-80.566,-69.824,-29.785,0.000
1714023333.930,-24.414,-79.102,-69.336,-24.414,0.000
1714023333.934,-23.926,-64.941,-61.523,-38.574,0.000
1714023333.938,-30.273,-68.359,-65.918,-46.875,0.000
1714023333.942,-29.297,-86.914,-72.266,-35.645,0.000
1714023333.946,-25.879,-71.777,-67.871,-32.715,0.000
1714023333.949,-22.461,-48.828,-61.035,-35.645,0.000
1714023333.953,-23.438,-56.152,-64.941,-30.762,0.000
1714023333.957,-26.367,-65.918,-68.848,-20.508,0.000
1714023333.961,-27.832,-68.848,-60.547,-16.602,0.000
1714023333.965,-29.297,-67.383,-55.664,-20.508,0.000
1714023333.969,-24.414,-69.336,-70.801,-19.043,0.000
1714023333.973,-27.832,-72.266,-74.707,-15.625,0.000
1714023333.977,-28.809,-71.777,-56.641,-14.648,0.000
1714023333.981,-22.949,-78.125,-50.781,-19.531,0.000
1714023333.985,-20.020,-75.684,-53.223,-24.902,0.000
1714023333.988,-24.902,-67.871,-60.547,-26.367,0.000
1714023333.992,-22.461,-62.500,-56.641,-20.996,0.000
1714023333.996,-20.020,-67.383,-55.664,-20.996,0.000
1714023334.000,-32.227,-77.148,-68.359,-37.109,0.000
1714023334.004,-32.715,-71.777,-66.895,-41.992,0.000
1714023334.008,-29.297,-65.918,-62.988,-37.109,0.000
1714023334.012,-30.762,-66.406,-62.988,-40.039,0.000
1714023334.016,-32.227,-69.336,-66.895,-46.875,0.000
1714023334.020,-34.180,-71.289,-71.289,-43.457,0.000
1714023334.024,-39.551,-60.059,-62.500,-44.922,0.000
1714023334.028,-32.227,-53.711,-58.105,-43.457,0.000
1714023334.031,-19.531,-60.059,-60.059,-36.621,0.000
1714023334.035,-22.461,-64.453,-60.547,-40.527,0.000
1714023334.039,-28.809,-64.941,-67.383,-41.992,0.000
1714023334.043,-23.438,-64.941,-71.777,-34.180,0.000
1714023334.047,-18.066,-72.266,-68.359,-32.715,0.000
1714023334.051,-23.438,-78.125,-60.059,-40.527,0.000
1714023334.055,-24.414,-70.312,-62.012,-37.598,0.000
1714023334.059,-28.809,-68.359,-63.477,-29.785,0.000
1714023334.063,-33.203,-70.312,-68.359,-27.832,0.000
1714023334.067,-31.250,-63.477,-67.871,-31.250,0.000
1714023334.071,-34.180,-61.035,-63.965,-38.574,0.000
1714023334.074,-38.574,-68.848,-60.059,-38.086,0.000
1714023334.078,-32.715,-70.312,-67.871,-28.320,0.000
1714023334.082,-29.785,-66.895,-64.453,-40.527,0.000
1714023334.086,-27.832,-71.777,-50.781,-48.340,0.000
1714023334.090,-29.297,-70.312,-53.223,-41.016,0.000
1714023334.094,-33.691,-66.406,-66.406,-42.969,0.000
1714023334.098,-24.414,-60.059,-68.359,-44.434,0.000
1714023334.102,-22.949,-61.523,-62.500,-46.387,0.000
1714023334.106,-22.949,-73.242,-64.941,-44.922,0.000
1714023334.110,-28.809,-72.266,-57.129,-40.527,0.000
1714023334.113,-43.945,-76.172,-43.945,-48.828,0.000
1714023334.117,-38.574,-73.242,-47.852,-51.270,0.000
1714023334.121,-39.062,-71.777,-64.941,-48.828,0.000
1714023334.125,-51.270,-80.566,-72.754,-43.945,0.000
1714023334.129,-40.039,-71.777,-62.012,-36.621,0.000
1714023334.133,-28.320,-68.359,-55.664,-36.621,0.000
1714023334.137,-34.180,-75.195,-64.941,-32.715,0.000
1714023334.141,-31.250,-74.707,-52.734,-21.973,0.000
1714023334.145,-26.855,-69.336,-38.086,-22.949,0.000
1714023334.149,-27.832,-64.941,-55.664,-29.297,0.000
1714023334.153,-32.715,-75.195,-72.754,-37.598,0.000
1714023334.156,-38.574,-79.102,-67.871,-38.086,0.000
1714023334.160,-38.574,-67.871,-62.012,-34.180,0.000
1714023334.164,-32.227,-60.059,-55.176,-36.621,0.000
1714023334.168,-23.926,-69.336,-48.828,-32.715,0.000
1714023334.172,-26.855,-74.707,-41.992,-36.133,0.000
1714023334.176,-30.273,-68.848,-51.270,-33.691,0.000
1714023334.180,-31.250,-67.871,-59.570,-32.227,0.000
1714023334.184,-35.156,-71.289,-60.547,-41.992,0.000
1714023334.188,-34.180,-67.383,-71.777,-40.039,0.000
1714023334.192,-33.203,-67.871,-73.730,-36.133,0.000
1714023334.196,-31.250,-66.406,-65.918,-39.551,0.000
1714023334.199,-35.156,-60.059,-61.035,-44.922,0.000
1714023334.203,-35.156,-66.895,-62.988,-42.480,0.000
1714023334.207,-32.715,-70.312,-64.453,-38.086,0.000
1714023334.211,-35.645,-75.195,-62.988,-29.785,0.000
1714023334.215,-34.180,-86.426,-66.406,-22.949,0.000
1714023334.219,-29.297,-76.172,-64.453,-32.227,0.000
1714023334.223,-27.832,-65.430,-66.895,-33.691,0.000
1714023334.227,-29.297,-70.801,-64.453,-27.832,0.000
1714023334.231,-30.762,-74.707,-51.270,-35.645,0.000
1714023334.235,-28.320,-71.289,-49.805,-50.781,0.000
1714023334.238,-24.414,-67.871,-62.988,-41.504,0.000
1714023334.242,-27.832,-72.754,-60.059,-25.391,0.000
1714023334.246,-27.832,-66.895,-58.594,-26.855,0.000
1714023334.250,-25.879,-67.383,-65.918,-36.133,0.000
1714023334.254,-31.738,-76.172,-63.965,-41.016,0.000
1714023334.258,-35.156,-80.078,-62.012,-31.738,0.000
1714023334.262,-35.645,-78.125,-60.059,-34.180,0.000
1714023334.266,-33.691,-73.730,-63.965,-41.504,0.000
1714023334.270,-35.156,-71.777,-67.383,-45.898,0.000
1714023334.274,-36.621,-69.824,-61.035,-43.945,0.000
1714023334.278,-33.691,-73.730,-59.570,-39.551,0.000
1714023334.281,-31.250,-81.055,-62.988,-46.875,0.000
1714023334.285,-26.855,-73.730,-66.895,-43.945,0.000
1714023334.289,-33.203,-63.477,-65.430,-40.527,0.000
1714023334.293,-34.180,-58.105,-60.059,-30.273,0.000
1714023334.297,-22.461,-63.477,-62.012,-23.926,0.000
1714023334.301,-23.438,-73.242,-63.965,-29.785,0.000
1714023334.305,-23.438,-76.172,-56.641,-26.855,0.000
1714023334.309,-23.438,-70.312,-49.316,-28.320,0.000
1714023334.313,-20.020,-67.383,-58.594,-28.320,0.000
1714023334.317,-24.902,-65.918,-70.312,-40.039,0.000
1714023334.321,-27.832,-62.500,-63.477,-51.758,0.000
1714023334.324,-16.602,-62.500,-58.105,-40.039,0.000
1714023334.328,-11.719,-64.941,-65.430,-39.551,0.000
1714023334.332,-12.695,-69.336,-66.406,-52.734,0.000
1714023334.336,-12.695,-73.730,-64.941,-55.176,0.000
1714023334.340,-11.230,-68.848,-68.848,-53.711,0.000
1714023334.344,-9.277,-61.035,-58.594,-41.504,0.000
1714023334.348,-13.672,-64.941,-63.965,-32.715,0.000
1714023334.352,-30.273,-68.359,-71.777,-45.410,0.000
1714023334.356,-37.598,-66.406,-58.105,-45.898,0.000
1714023334.360,-41.992,-63.477,-55.664,-32.227,0.000
1714023334.363,-46.387,-68.848,-60.547,-37.598,0.000
1714023334.367,-47.363,-70.312,-62.500,-46.875,0.000
1714023334.371,-43.945,-72.266,-69.336,-38.574,0.000
1714023334.375,-40.527,-80.566,-64.453,-27.344,0.000
1714023334.379,-39.062,-71.777,-58.105,-29.785,0.000
1714023334.383,-36.621,-64.941,-57.617,-37.598,0.000
1714023334.387,-31.250,-58.594,-59.570,-36.133,0.000
1714023334.391,-31.738,-52.734,-62.012,-25.879,0.000
1714023334.395,-37.109,-66.406,-62.988,-24.902,0.000
1714023334.399,-34.180,-70.312,-53.223,-32.715,0.000
1714023334.403,-35.156,-63.477,-50.781,-36.133,0.000
1714023334.406,-36.133,-70.801,-64.453,-34.668,0.000
1714023334.410,-35.156,-70.801,-58.105,-34.668,0.000
1714023334.414,-31.738,-59.570,-52.246,-36.133,0.000
1714023334.418,-29.785,-52.246,-55.176,-36.621,0.000
1714023334.422,-34.668,-60.059,-56.152,-36.133,0.000
1714023334.426,-39.062,-74.707,-58.594,-37.598,0.000
1714023334.430,-37.109,-68.359,-51.270,-42.969,0.000
1714023334.434,-35.645,-68.359,-54.688,-47.852,0.000
1714023334.438,-36.621,-73.730,-69.336,-43.945,0.000
1714023334.442,-38.086,-71.777,-70.312,-36.621,0.000
1714023334.445,-33.203,-67.383,-60.059,-34.180,0.000
1714023334.449,-31.250,-68.359,-50.781,-34.668,0.000
1714023334.453,-37.109,-72.754,-63.477,-38.574,0.000
1714023334.457,-34.180,-61.035,-62.988,-38.574,0.000
1714023334.461,-29.297,-58.105,-47.363,-34.180,0.000
1714023334.465,-27.832,-64.453,-42.480,-31.250,0.000
1714023334.469,-22.949,-63.965,-52.246,-37.598,0.000
1714023334.473,-18.555,-69.824,-64.453,-31.738,0.000
1714023334.477,-12.207,-73.242,-52.246,-15.625,0.000
1714023334.481,-17.090,-70.801,-51.758,-23.926,0.000
1714023334.485,-27.832,-66.895,-64.941,-41.992,0.000
1714023334.489,-26.855,-63.477,-64.453,-35.156,0.000
1714023334.492,-27.832,-55.664,-53.711,-22.949,0.000
1714023334.496,-27.344,-50.781,-51.270,-20.508,0.000
1714023334.500,-28.320,-61.035,-58.105,-30.762,0.000
1714023334.504,-31.738,-64.941,-60.547,-50.293,0.000
1714023334.508,-32.227,-62.012,-62.012,-45.410,0.000
1714023334.512,-31.738,-64.453,-65.430,-29.297,0.000
1714023334.516,-37.109,-66.406,-65.918,-40.039,0.000
1714023334.520,-41.992,-68.848,-66.895,-51.270,0.000
1714023334.524,-38.086,-73.730,-63.965,-40.039,0.000
1714023334.528,-33.203,-76.172,-57.129,-29.785,0.000
1714023334.531,-26.855,-59.082,-62.500,-34.668,0.000
1714023334.535,-23.438,-45.410,-57.617,-41.016,0.000
1714023334.539,-33.203,-58.105,-53.711,-37.109,0.000
1714023334.543,-33.691,-75.195,-52.734,-29.785,0.000
1714023334.547,-23.926,-66.895,-46.875,-33.691,0.000
1714023334.551,-25.879,-59.570,-56.152,-45.410,0.000
1714023334.555,-28.320,-66.406,-60.547,-41.992,0.000
1714023334.559,-17.090,-73.730,-61.035,-21.973,0.000
1714023334.563,-9.277,-64.453,-56.152,-20.508,0.000
1714023334.567,-10.254,-59.082,-53.223,-22.949,0.000
1714023334.571,-7.812,-60.547,-59.082,-18.555,0.000
1714023334.574,-10.742,-66.406,-61.035,-20.996,0.000
1714023334.578,-15.625,-78.125,-59.082,-34.668,0.000
1714023334.582,-20.508,-81.543,-59.570,-53.223,0.000
1714023334.586,-25.879,-78.125,-65.918,-54.688,0.000
1714023334.590,-23.438,-67.383,-66.895,-46.387,0.000
1714023334.594,-22.461,-68.359,-61.523,-47.363,0.000
1714023334.598,-29.297,-77.637,-67.871,-52.246,0.000
1714023334.602,-27.832,-77.637,-71.777,-55.664,0.000
1714023334.606,-26.367,-79.102,-65.430,-49.316,0.000
1714023334.610,-30.762,-75.684,-59.082,-33.203,0.000
1714023334.614,-29.785,-64.941,-54.199,-28.320,0.000
1714023334.617,-29.297,-65.918,-59.082,-36.133,0.000
1714023334.621,-33.691,-74.707,-73.730,-31.250,0.000
1714023334.625,-29.297,-74.219,-76.660,-24.414,0.000
1714023334.629,-29.297,-71.777,-77.148,-28.320,0.000
1714023334.633,-27.344,-74.707,-83.008,-25.879,0.000
1714023334.637,-27.832,-78.613,-65.430,-24.414,0.000
1714023334.641,-31.738,-75.684,-48.340,-27.344,0.000
1714023334.645,-27.832,-70.801,-55.176,-27.832,0.000
1714023334.649,-26.855,-65.918,-53.711,-35.156,0.000
1714023334.653,-32.227,-77.148,-61.523,-44.434,0.000
1714023334.656,-32.715,-81.055,-73.730,-35.156,0.000
1714023334.660,-21.973,-77.637,-66.895,-19.531,0.000
1714023334.664,-19.043,-83.984,-56.641,-19.531,0.000
1714023334.668,-24.902,-69.336,-51.270,-28.320,0.000
1714023334.672,-30.273,-62.988,-61.035,-34.668,0.000
1714023334.676,-22.949,-72.754,-66.406,-21.484,0.000
1714023334.680,-21.973,-65.918,-62.988,-21.973,0.000
1714023334.684,-33.203,-61.523,-60.059,-45.410,0.000
1714023334.688,-31.738,-63.965,-63.965,-44.434,0.000
1714023334.692,-33.691,-74.707,-75.684,-38.086,0.000
1714023334.696,-37.109,-72.266,-65.918,-41.016,0.000
1714023334.699,-30.273,-64.453,-50.781,-41.992,0.000
1714023334.703,-29.297,-64.453,-54.199,-42.480,0.000
1714023334.707,-37.598,-65.430,-65.918,-38.086,0.000
1714023334.711,-32.715,-66.895,-68.848,-26.855,0.000
1714023334.715,-25.391,-73.242,-60.547,-23.926,0.000
1714023334.719,-29.785,-71.777,-64.941,-29.785,0.000
1714023334.723,-31.250,-68.848,-72.754,-28.320,0.000
1714023334.727,-28.320,-70.801,-64.453,-19.043,0.000
1714023334.731,-15.137,-65.430,-55.176,-13.672,0.000
1714023334.735,-12.695,-58.105,-51.758,-30.762,0.000
1714023334.738,-25.391,-58.594,-66.406,-44.922,0.000
1714023334.742,-25.879,-53.223,-65.430,-33.203,0.000
1714023334.746,-21.973,-51.270,-58.594,-30.273,0.000
1714023334.750,-21.484,-62.012,-69.824,-41.016,0.000
1714023334.754,-32.227,-67.871,-77.637,-46.875,0.000
1714023334.758,-32.227,-65.918,-73.242,-40.039,0.000
1714023334.762,-23.438,-62.988,-56.641,-30.762,0.000
1714023334.766,-33.203,-72.266,-57.129,-41.992,0.000
1714023334.770,-39.551,-77.148,-67.871,-49.316,0.000
1714023334.774,-32.715,-67.871,-63.477,-41.016,0.000
1714023334.778,-29.785,-67.871,-57.129,-38.086,0.000
1714023334.781,-35.156,-72.754,-56.152,-45.898,0.000
1714023334.785,-34.668,-73.730,-57.129,-46.875,0.000
1714023334.789,-32.715,-67.871,-59.082,-34.668,0.000
1714023334.793,-34.668,-63.965,-63.965,-33.203,0.000
1714023334.797,-38.086,-68.848,-70.801,-44.922,0.000
1714023334.801,-39.062,-76.660,-68.848,-53.711,0.000
1714023334.805,-36.133,-72.754,-65.430,-52.246,0.000
1714023334.809,-32.715,-65.918,-67.383,-40.039,0.000
1714023334.813,-20.508,-62.988,-65.918,-28.809,0.000
1714023334.817,-17.578,-57.617,-56.152,-29.785,0.000
1714023334.821,-19.043,-56.152,-51.270,-30.762,0.000
1714023334.824,-18.066,-68.848,-56.641,-29.297,0.000
1714023334.828,-17.578,-70.312,-60.547,-25.391,0.000
1714023334.832,-14.648,-62.500,-62.500,-29.297,0.000
1714023334.836,-22.949,-60.547,-62.988,-41.992,0.000
1714023334.840,-27.344,-66.406,-67.383,-39.551,0.000
1714023334.844,-24.902,-74.219,-74.219,-39.551,0.000
1714023334.848,-28.320,-75.195,-73.242,-48.828,0.000
1714023334.852,-29.297,-77.637,-66.895,-44.922,0.000
1714023334.856,-23.926,-67.383,-55.664,-40.039,0.000
1714023334.860,-27.832,-60.059,-48.828,-31.738,0.000
1714023334.864,-33.203,-72.266,-62.012,-32.715,0.000
1714023334.867,-34.180,-76.172,-67.871,-45.410,0.000
1714023334.871,-39.551,-74.707,-74.707,-44.922,0.000
1714023334.875,-41.016,-70.312,-79.102,-36.621,0.000
1714023334.879,-43.457,-58.594,-68.848,-44.922,0.000
1714023334.883,-38.574,-62.012,-67.871,-44.922,0.000
1714023334.887,-30.273,-73.730,-70.312,-37.598,0.000
1714023334.891,-35.645,-72.754,-69.824,-39.062,0.000
1714023334.895,-36.621,-64.941,-65.918,-33.691,0.000
1714023334.899,-32.715,-63.965,-69.336,-34.180,0.000
1714023334.903,-30.762,-70.801,-72.266,-42.480,0.000
1714023334.906,-33.691,-72.754,-74.707,-44.434,0.000
1714023334.910,-28.320,-67.871,-65.430,-35.645,0.000
1714023334.914,-15.625,-62.012,-56.641,-33.203,0.000
1714023334.918,-7.324,-63.477,-61.035,-31.738,0.000
1714023334.922,-16.602,-66.406,-50.781,-34.668,0.000
1714023334.926,-22.949,-66.895,-55.176,-40.039,0.000
1714023334.930,-22.949,-69.824,-68.848,-41.504,0.000
1714023334.934,-23.926,-65.430,-71.777,-44.922,0.000
1714023334.938,-26.855,-62.500,-64.453,-44.434,0.000
1714023334.942,-33.691,-70.801,-54.688,-40.527,0.000
1714023334.946,-27.832,-70.312,-54.199,-41.016,0.000
1714023334.949,-24.902,-59.082,-56.152,-45.410,0.000
1714023334.953,-32.715,-61.523,-66.406,-50.293,0.000
1714023334.957,-25.879,-64.453,-63.477,-39.062,0.000
1714023334.961,-20.020,-65.918,-62.012,-36.621,0.000
1714023334.965,-27.344,-67.871,-64.941,-46.875,0.000
1714023334.969,-29.297,-67.871,-61.523,-46.875,0.000
1714023334.973,-27.344,-67.383,-64.453,-41.504,0.000
1714023334.977,-21.973,-60.547,-61.035,-35.156,0.000
1714023334.981,-17.090,-59.082,-55.176,-34.180,0.000
1714023334.985,-20.020,-68.359,-63.965,-40.039,0.000
1714023334.989,-26.855,-72.754,-80.566,-44.922,0.000
1714023334.992,-34.668,-75.684,-77.637,-36.133,0.000
1714023334.996,-30.762,-75.684,-59.082,-32.227,0.000
1714023335.000,-20.508,-66.895,-59.570,-44.434,0.000
1714023335.004,-19.043,-61.035,-68.359,-42.480,0.000
1714023335.008,-24.414,-68.848,-76.172,-34.180,0.000
1714023335.012,-23.438,-60.059,-62.988,-34.180,0.000
1714023335.016,-12.695,-57.617,-54.199,-31.250,0.000
1714023335.020,-8.789,-74.219,-69.336,-31.738,0.000
1714023335.024,-10.254,-71.289,-61.523,-23.926,0.000
1714023335.028,-21.973,-62.988,-49.805,-24.414,0.000
1714023335.032,-24.414,-62.012,-54.688,-35.645,0.000
1714023335.035,-20.996,-70.312,-53.223,-36.133,0.000
1714023335.039,-18.066,-70.801,-53.223,-22.949,0.000
1714023335.043,-20.020,-68.848,-54.199,-20.996,0.000
1714023335.047,-30.762,-82.520,-61.523,-32.715,0.000
1714023335.051,-31.250,-76.172,-70.801,-42.969,0.000
1714023335.055,-30.273,-60.547,-62.988,-42.480,0.000
1714023335.059,-29.785,-61.523,-53.711,-30.762,0.000
1714023335.063,-27.832,-62.988,-50.293,-29.785,0.000
1714023335.067,-26.367,-70.801,-53.711,-34.668,0.000
1714023335.071,-30.762,-75.195,-66.406,-36.133,0.000
1714023335.075,-32.227,-63.477,-63.477,-35.156,0.000
1714023335.078,-23.926,-61.035,-62.988,-23.438,0.000
1714023335.082,-24.414,-72.266,-75.684,-28.320,0.000
1714023335.086,-24.414,-72.266,-67.871,-31.250,0.000
1714023335.090,-20.508,-71.289,-47.852,-20.508,0.000
1714023335.094,-17.578,-70.801,-43.945,-15.625,0.000
1714023335.098,-19.531,-73.730,-53.223,-19.043,0.000
1714023335.102,-28.809,-82.031,-57.617,-31.250,0.000
1714023335.106,-28.809,-67.383,-59.570,-29.297,0.000
1714023335.110,-18.066,-61.035,-65.918,-21.484,0.000
1714023335.114,-12.695,-66.406,-65.918,-19.531,0.000
1714023335.117,-23.926,-66.895,-47.852,-27.344,0.000
1714023335.121,-32.715,-71.289,-52.734,-33.691,0.000
1714023335.125,-33.203,-75.684,-63.965,-26.367,0.000
1714023335.129,-32.227,-70.801,-59.082,-22.461,0.000
1714023335.133,-34.180,-64.453,-59.570,-33.691,0.000
1714023335.137,-32.227,-67.383,-65.918,-37.109,0.000
1714023335.141,-33.203,-77.148,-72.266,-29.785,0.000
1714023335.145,-34.668,-74.707,-63.965,-31.738,0.000
1714023335.149,-29.297,-75.195,-61.035,-34.668,0.000
1714023335.153,-25.391,-70.801,-56.641,-31.738,0.000
1714023335.157,-27.344,-70.801,-64.941,-31.250,0.000
1714023335.160,-23.926,-78.613,-75.684,-29.297,0.000
1714023335.164,-19.531,-66.406,-63.965,-39.551,0.000
1714023335.168,-17.090,-63.965,-61.523,-39.062,0.000
1714023335.172,-17.090,-67.383,-66.895,-29.297,0.000
1714023335.176,-18.555,-65.918,-59.082,-23.926,0.000
1714023335.180,-20.020,-61.523,-54.199,-24.414,0.000
1714023335.184,-19.043,-59.082,-55.664,-26.855,0.000
1714023335.188,-23.438,-66.406,-63.477,-27.832,0.000
1714023335.192,-29.297,-70.312,-65.918,-27.832,0.000
1714023335.196,-22.949,-63.965,-49.805,-22.949,0.000
1714023335.199,-17.578,-76.660,-53.711,-26.367,0.000
1714023335.203,-17.090,-80.566,-70.312,-22.461,0.000
1714023335.207,-19.531,-63.965,-62.988,-19.043,0.000
1714023335.211,-19.531,-54.688,-56.641,-22.949,0.000
1714023335.215,-17.090,-57.617,-61.035,-28.320,0.000
1714023335.219,-15.625,-61.035,-62.012,-43.457,0.000
1714023335.223,-12.207,-66.895,-57.129,-40.527,0.000
1714023335.227,-3.906,-75.195,-60.547,-30.273,0.000
1714023335.231,-0.488,-68.359,-68.359,-32.715,0.000
1714023335.235,-4.883,-63.477,-70.312,-40.527,0.000
1714023335.239,-14.648,-67.871,-75.684,-41.504,0.000
1714023335.242,-19.043,-60.547,-63.965,-32.227,0.000
1714023335.246,-14.648,-69.824,-60.059,-22.949,0.000
1714023335.250,-22.949,-84.961,-70.312,-30.273,0.000
1714023335.254,-39.062,-67.871,-65.430,-41.016,0.000
1714023335.258,-40.039,-65.430,-69.824,-29.297,0.000
1714023335.262,-33.203,-78.613,-72.754,-18.066,0.000
1714023335.266,-30.273,-79.590,-62.500,-29.785,0.000
1714023335.270,-30.273,-71.777,-55.176,-37.109,0.000
1714023335.274,-31.250,-69.824,-55.664,-36.621,0.000
1714023335.278,-24.902,-66.406,-63.965,-28.320,0.000
1714023335.282,-15.625,-64.453,-58.594,-22.949,0.000
1714023335.285,-23.438,-62.988,-45.898,-32.715,0.000
1714023335.289,-30.273,-58.105,-49.805,-32.715,0.000
1714023335.293,-38.086,-71.777,-60.547,-28.809,0.000
1714023335.297,-47.363,-82.520,-62.012,-42.969,0.000
1714023335.301,-53.223,-74.707,-61.035,-52.246,0.000
1714023335.305,-56.152,-86.914,-51.270,-52.734,0.000
1714023335.309,-62.500,-94.727,-48.340,-56.152,0.000
1714023335.313,-71.289,-72.754,-48.828,-68.359,0.000
1714023335.317,-71.777,-62.988,-35.645,-81.055,0.000
1714023335.321,-79.102,-69.336,-36.621,-92.285,0.000
1714023335.325,-86.914,-69.336,-42.480,-95.215,0.000
1714023335.328,-88.867,-68.359,-41.504,-97.656,0.000
1714023335.332,-87.891,-71.777,-34.668,-106.445,0.000
1714023335.336,-85.449,-75.684,-40.039,-108.887,0.000
1714023335.340,-91.797,-82.031,-45.898,-103.516,0.000
1714023335.344,-102.051,-82.520,-33.203,-109.375,0.000
1714023335.348,-100.098,-79.590,-26.367,-110.840,0.000
1714023335.352,-93.750,-87.891,-37.598,-103.027,0.000
1714023335.356,-92.773,-87.891,-42.969,-95.215,0.000
1714023335.360,-95.215,-67.871,-40.039,-85.938,0.000
1714023335.364,-86.426,-62.012,-40.527,-81.055,0.000
1714023335.367,-75.195,-63.965,-47.852,-83.984,0.000
1714023335.371,-75.684,-58.594,-57.617,-80.078,0.000
1714023335.375,-69.336,-63.965,-57.617,-66.406,0.000
1714023335.379,-59.570,-77.148,-53.223,-66.406,0.000
1714023335.383,-55.176,-76.172,-62.500,-64.453,0.000
1714023335.387,-52.734,-69.336,-58.105,-62.500,0.000
1714023335.391,-48.340,-71.777,-56.152,-56.641,0.000
1714023335.395,-41.504,-71.777,-65.430,-46.875,0.000
1714023335.399,-38.574,-68.359,-61.035,-48.340,0.000
1714023335.403,-36.621,-68.359,-57.617,-53.711,0.000
1714023335.407,-28.320,-66.895,-55.664,-43.457,0.000
1714023335.410,-17.578,-66.895,-59.570,-32.227,0.000
1714023335.414,-17.090,-78.125,-66.895,-44.434,0.000
1714023335.418,-15.625,-76.660,-72.266,-46.387,0.000
1714023335.422,-10.742,-64.453,-76.660,-34.668,0.000
1714023335.426,-9.766,-67.383,-73.730,-30.762,0.000
1714023335.430,-9.277,-81.055,-70.801,-28.809,0.000
1714023335.434,-4.883,-73.242,-64.453,-30.273,0.000
1714023335.438,-4.883,-61.523,-56.152,-33.203,0.000
1714023335.442,-12.207,-65.430,-56.641,-30.273,0.000
1714023335.446,-16.602,-61.523,-57.129,-23.926,0.000
1714023335.449,-14.160,-53.223,-54.199,-21.973,0.000
1714023335.453,-16.602,-59.082,-62.988,-26.367,0.000
1714023335.457,-30.273,-74.219,-71.777,-36.133,0.000
1714023335.461,-35.645,-71.777,-62.988,-43.945,0.000
1714023335.465,-21.973,-63.477,-61.035,-41.992,0.000
1714023335.469,-30.273,-72.754,-67.383,-58.594,0.000
1714023335.473,-59.082,-83.984,-67.383,-78.125,0.000
1714023335.477,-71.777,-73.242,-46.875,-81.543,0.000
1714023335.481,-71.289,-66.895,-41.992,-89.844,0.000
1714023335.485,-81.543,-70.312,-57.129,-114.746,0.000
1714023335.489,-91.309,-71.777,-48.340,-123.047,0.000
1714023335.492,-102.539,-74.707,-38.574,-119.629,0.000
1714023335.496,-114.258,-71.777,-39.062,-133.301,0.000
1714023335.500,-115.723,-74.219,-32.715,-143.066,0.000
1714023335.504,-126.465,-78.613,-24.414,-145.020,0.000
1714023335.508,-133.301,-70.801,-24.414,-138.184,0.000
1714023335.512,-127.930,-73.730,-18.555,-127.930,0.000
1714023335.516,-123.535,-72.754,-20.996,-131.348,0.000
1714023335.520,-116.699,-68.359,-28.320,-122.070,0.000
1714023335.524,-114.258,-71.289,-24.414,-105.957,0.000
1714023335.528,-101.562,-75.684,-32.715,-96.680,0.000
1714023335.531,-91.309,-75.195,-41.016,-96.680,0.000
1714023335.535,-88.867,-68.359,-40.039,-98.633,0.000
1714023335.539,-83.008,-65.430,-43.457,-92.285,0.000
1714023335.543,-72.266,-71.777,-47.852,-77.148,0.000
1714023335.547,-59.570,-78.125,-55.664,-71.289,0.000
1714023335.551,-62.500,-73.730,-61.523,-80.078,0.000
1714023335.555,-55.176,-74.707,-67.383,-69.336,0.000
1714023335.559,-41.992,-84.961,-75.195,-51.270,0.000
1714023335.563,-35.645,-80.078,-81.055,-45.410,0.000
1714023335.567,-28.809,-68.848,-79.102,-45.898,0.000
1714023335.571,-26.855,-63.477,-70.801,-45.898,0.000
1714023335.574,-23.438,-72.754,-78.125,-28.809,0.000
1714023335.578,-9.766,-77.637,-80.566,-15.137,0.000
1714023335.582,-1.465,-73.730,-53.711,-21.973,0.000
1714023335.586,-2.930,-81.543,-47.363,-22.949,0.000
1714023335.590,-4.883,-83.496,-70.312,-20.508,0.000
1714023335.594,0.977,-77.637,-80.078,-9.766,0.000
1714023335.598,5.371,-69.336,-72.754,-0.977,0.000
1714023335.602,0.977,-60.059,-80.566,-9.766,0.000
1714023335.606,7.324,-62.988,-93.262,-5.859,0.000
1714023335.610,9.277,-66.406,-85.449,5.859,0.000
1714023335.614,8.301,-65.430,-67.871,6.348,0.000
1714023335.617,4.395,-70.312,-65.430,1.465,0.000
1714023335.621,-0.488,-75.684,-78.613,4.883,0.000
1714023335.625,10.254,-71.777,-80.566,20.996,0.000
1714023335.629,6.348,-67.383,-76.660,16.602,0.000
1714023335.633,4.883,-66.406,-74.219,7.812,0.000
1714023335.637,9.277,-65.430,-70.312,8.789,0.000
1714023335.641,8.301,-60.547,-73.242,10.742,0.000
1714023335.645,16.602,-60.059,-69.336,9.277,0.000
1714023335.649,21.484,-66.895,-61.523,4.395,0.000
1714023335.653,20.508,-69.824,-75.195,-8.789,0.000
1714023335.657,14.648,-69.336,-89.844,-10.254,0.000
1714023335.660,9.277,-73.730,-91.309,-7.324,0.000
1714023335.664,13.184,-62.500,-89.355,-6.836,0.000
1714023335.668,9.277,-59.570,-92.773,-6.836,0.000
1714023335.672,3.418,-63.965,-80.566,-12.207,0.000
1714023335.676,8.301,-66.406,-74.219,-5.371,0.000
1714023335.680,9.277,-54.688,-81.055,-4.395,0.000
1714023335.684,9.277,-44.922,-74.219,-13.184,0.000
1714023335.688,9.766,-52.246,-68.848,-16.602,0.000
1714023335.692,9.766,-58.105,-77.148,-5.371,0.000
1714023335.696,10.254,-64.453,-78.125,3.418,0.000
1714023335.699,14.648,-65.430,-70.312,-2.441,0.000
1714023335.703,8.789,-69.824,-72.754,-1.465,0.000
1714023335.707,-5.371,-73.242,-83.008,0.488,0.000
1714023335.711,-4.883,-70.312,-78.613,7.324,0.000
1714023335.715,0.000,-76.660,-67.383,4.395,0.000
1714023335.719,-0.488,-80.566,-60.547,-11.719,0.000
1714023335.723,0.000,-72.754,-62.988,-8.301,0.000
1714023335.727,4.395,-67.871,-81.055,-3.418,0.000
1714023335.731,5.859,-62.500,-81.055,-10.254,0.000
1714023335.735,-0.488,-59.082,-78.613,-23.438,0.000
1714023335.739,0.977,-57.129,-81.055,-16.602,0.000
1714023335.742,12.695,-56.641,-70.312,0.000,0.000
1714023335.746,11.719,-57.617,-62.988,-9.766,0.000
1714023335.750,6.836,-55.176,-66.895,-20.020,0.000
1714023335.754,7.812,-54.688,-71.289,-13.184,0.000
1714023335.758,4.395,-61.523,-70.312,-3.906,0.000
1714023335.762,0.000,-77.637,-67.871,-7.324,0.000
1714023335.766,7.324,-82.031,-73.730,-13.184,0.000
1714023335.770,4.395,-72.754,-75.195,-15.625,0.000
1714023335.774,-10.254,-65.430,-74.707,-19.043,0.000
1714023335.778,-10.254,-54.688,-67.383,-13.184,0.000
1714023335.782,-7.812,-50.781,-61.035,-15.625,0.000
1714023335.785,-7.812,-57.129,-65.918,-20.020,0.000
1714023335.789,-8.301,-62.012,-66.406,-11.719,0.000
1714023335.793,-8.789,-57.617,-63.965,-7.812,0.000
1714023335.797,-9.766,-58.105,-70.312,-24.902,0.000
1714023335.801,-18.555,-67.383,-75.195,-40.527,0.000
1714023335.805,-26.367,-69.824,-77.148,-40.039,0.000
1714023335.809,-21.484,-59.570,-69.824,-38.574,0.000
1714023335.813,-19.531,-61.523,-72.266,-37.598,0.000
1714023335.817,-19.043,-71.777,-81.543,-38.086,0.000
1714023335.821,-19.531,-74.219,-69.336,-34.180,0.000
1714023335.824,-24.902,-71.777,-56.641,-30.273,0.000
1714023335.828,-18.555,-65.430,-61.523,-28.320,0.000
1714023335.832,-9.766,-66.406,-74.707,-30.762,0.000
1714023335.836,-15.137,-68.848,-77.637,-43.457,0.000
1714023335.840,-22.461,-63.965,-71.289,-45.898,0.000
1714023335.844,-19.531,-69.824,-75.684,-41.016,0.000
1714023335.848,-11.719,-73.242,-83.496,-34.668,0.000
1714023335.852,-16.113,-69.336,-79.590,-42.969,0.000
1714023335.856,-21.973,-72.266,-69.336,-49.316,0.000
1714023335.860,-20.996,-73.242,-60.059,-44.434,0.000
1714023335.864,-25.879,-75.684,-64.453,-43.457,0.000
1714023335.867,-31.738,-79.590,-76.172,-44.434,0.000
1714023335.871,-28.320,-72.266,-77.148,-39.551,0.000
1714023335.875,-24.902,-75.684,-75.195,-26.855,0.000
1714023335.879,-39.062,-81.055,-75.195,-31.250,0.000
1714023335.883,-48.828,-72.754,-65.918,-48.828,0.000
1714023335.887,-49.316,-73.730,-63.965,-52.246,0.000
1714023335.891,-50.781,-82.031,-67.383,-51.758,0.000
1714023335.895,-50.293,-79.102,-64.453,-48.340,0.000
1714023335.899,-44.922,-73.730,-65.430,-50.293,0.000
1714023335.903,-35.645,-71.777,-62.012,-48.828,0.000
1714023335.906,-27.832,-68.848,-62.500,-33.203,0.000
1714023335.910,-27.832,-75.684,-69.336,-26.855,0.000
1714023335.914,-25.391,-84.473,-64.453,-34.180,0.000
1714023335.918,-20.996,-75.195,-63.477,-38.574,0.000
1714023335.922,-20.020,-63.965,-64.453,-35.156,0.000
1714023335.926,-20.996,-60.059,-55.176,-30.273,0.000
1714023335.930,-21.484,-60.059,-52.734,-28.320,0.000
1714023335.934,-19.043,-59.570,-64.941,-33.203,0.000
1714023335.938,-19.531,-62.500,-75.195,-33.691,0.000
1714023335.942,-24.414,-70.312,-66.895,-23.438,0.000
1714023335.946,-23.438,-66.895,-58.105,-18.066,0.000
1714023335.949,-21.484,-64.453,-61.523,-26.855,0.000
1714023335.953,-26.367,-67.383,-66.406,-31.738,0.000
1714023335.957,-27.344,-67.383,-55.664,-30.762,0.000
1714023335.961,-25.879,-67.871,-46.387,-33.691,0.000
1714023335.965,-25.391,-67.871,-51.758,-41.016,0.000
1714023335.969,-25.391,-66.406,-57.617,-45.898,0.000
1714023335.973,-23.926,-67.871,-57.617,-40.527,0.000
1714023335.977,-29.297,-67.871,-56.152,-39.062,0.000
1714023335.981,-38.086,-66.406,-68.359,-55.176,0.000
1714023335.985,-40.527,-68.848,-79.590,-62.500,0.000
1714023335.989,-44.922,-74.219,-72.754,-62.500,0.000
1714023335.992,-47.363,-73.242,-57.617,-58.105,0.000
1714023335.996,-39.551,-74.219,-61.523,-41.504,0.000
1714023336.000,-29.297,-76.172,-79.102,-39.551,0.000
1714023336.004,-32.227,-64.453,-74.707,-59.570,0.000
1714023336.008,-38.574,-61.035,-56.641,-59.082,0.000
1714023336.012,-26.367,-62.988,-53.711,-42.969,0.000
1714023336.016,-18.555,-66.406,-49.316,-51.270,0.000
1714023336.020,-29.297,-79.590,-52.734,-64.453,0.000
1714023336.024,-30.762,-78.125,-66.406,-54.688,0.000
1714023336.028,-25.879,-68.359,-64.453,-47.363,0.000
1714023336.031,-23.926,-76.172,-62.500,-47.363,0.000
1714023336.035,-25.391,-76.660,-63.965,-44.434,0.000
1714023336.039,-31.250,-72.754,-63.965,-41.992,0.000
1714023336.043,-24.414,-76.660,-72.266,-28.809,0.000
1714023336.047,-22.461,-72.266,-68.848,-30.273,0.000
1714023336.051,-20.996,-69.824,-62.988,-37.109,0.000
1714023336.055,-10.254,-67.383,-62.500,-30.762,0.000
1714023336.059,-16.113,-71.777,-59.082,-27.832,0.000
1714023336.063,-18.066,-70.801,-58.594,-26.855,0.000
1714023336.067,-5.859,-61.035,-66.895,-23.438,0.000
1714023336.071,-12.207,-69.824,-71.777,-29.297,0.000
1714023336.074,-26.367,-69.336,-71.289,-32.227,0.000
1714023336.078,-22.949,-58.105,-69.336,-25.391,0.000
1714023336.082,-18.555,-57.617,-68.359,-30.762,0.000
1714023336.086,-22.461,-62.988,-67.383,-35.645,0.000
1714023336.090,-32.227,-69.824,-65.430,-30.762,0.000
1714023336.094,-32.715,-64.941,-50.293,-23.926,0.000
1714023336.098,-28.809,-65.918,-49.805,-24.902,0.000
1714023336.102,-30.273,-72.754,-61.523,-32.715,0.000
1714023336.106,-27.832,-61.035,-59.082,-28.809,0.000
1714023336.110,-26.855,-64.941,-59.082,-20.020,0.000
1714023336.114,-24.902,-74.707,-68.359,-22.949,0.000
1714023336.117,-28.809,-74.219,-69.336,-35.645,0.000
1714023336.121,-30.762,-73.242,-62.500,-32.227,0.000
1714023336.125,-21.973,-75.195,-63.477,-21.973,0.000
1714023336.129,-18.066,-75.195,-64.941,-19.043,0.000
1714023336.133,-16.113,-74.707,-68.848,-14.648,0.000
1714023336.137,-22.461,-70.312,-58.105,-18.066,0.000
1714023336.141,-32.715,-68.359,-53.223,-20.508,0.000
1714023336.145,-35.156,-69.336,-66.895,-24.902,0.000
1714023336.149,-27.344,-68.848,-60.059,-32.715,0.000
1714023336.153,-24.414,-72.266,-55.664,-36.133,0.000
1714023336.156,-25.391,-72.266,-64.453,-34.180,0.000
1714023336.160,-15.625,-63.477,-65.918,-25.879,0.000
1714023336.164,-10.254,-55.664,-65.430,-34.180,0.000
1714023336.168,-10.742,-54.199,-65.430,-39.551,0.000
1714023336.172,-4.883,-58.105,-66.406,-32.715,0.000
1714023336.176,-3.906,-65.430,-67.871,-23.926,0.000
1714023336.180,-12.207,-67.383,-70.801,-17.578,0.000
1714023336.184,-19.531,-66.406,-60.059,-31.250,0.000
1714023336.188,-22.461,-64.453,-56.152,-29.785,0.000
1714023336.192,-20.020,-66.895,-62.012,-9.766,0.000
1714023336.196,-20.020,-75.195,-62.500,-16.602,0.000
1714023336.199,-20.996,-67.871,-63.965,-31.250,0.000
1714023336.203,-25.391,-68.359,-71.289,-35.645,0.000
1714023336.207,-24.414,-73.242,-83.496,-28.809,0.000
1714023336.211,-27.832,-66.406,-83.984,-24.902,0.000
1714023336.215,-35.156,-63.477,-67.383,-26.855,0.000
1714023336.219,-29.785,-64.941,-62.012,-27.344,0.000
1714023336.223,-21.484,-76.172,-66.406,-20.996,0.000
1714023336.227,-24.902,-73.730,-58.594,-11.719,0.000
1714023336.231,-28.320,-75.684,-61.035,-19.043,0.000
1714023336.235,-24.414,-78.125,-71.289,-20.508,0.000
1714023336.238,-27.832,-69.336,-77.148,-11.230,0.000
1714023336.242,-32.715,-69.336,-73.242,-12.695,0.000
1714023336.246,-29.785,-72.754,-63.477,-15.625,0.000
1714023336.250,-31.738,-71.289,-62.988,-20.020,0.000
1714023336.254,-29.785,-61.035,-63.965,-24.414,0.000
1714023336.258,-29.297,-61.035,-67.383,-24.414,0.000
1714023336.262,-29.297,-66.406,-66.895,-22.461,0.000
1714023336.266,-24.902,-68.359,-64.941,-23.926,0.000
1714023336.270,-27.832,-71.289,-65.430,-34.180,0.000
1714023336.274,-30.762,-75.684,-62.500,-41.504,0.000
1714023336.278,-35.645,-72.754,-67.383,-41.992,0.000
1714023336.281,-34.668,-73.242,-71.289,-38.086,0.000
1714023336.285,-30.762,-84.473,-62.988,-35.156,0.000
1714023336.289,-29.297,-81.543,-63.477,-34.668,0.000
1714023336.293,-28.809,-77.148,-63.965,-32.227,0.000
1714023336.297,-29.297,-75.195,-62.500,-31.250,0.000
1714023336.301,-32.227,-68.359,-59.570,-36.621,0.000
1714023336.305,-34.668,-66.895,-59.570,-37.109,0.000
1714023336.309,-27.344,-67.383,-66.895,-24.414,0.000
1714023336.313,-7.812,-60.059,-64.941,-8.301,0.000
1714023336.317,-5.371,-54.199,-54.688,-16.113,0.000
1714023336.321,-14.648,-59.570,-48.828,-24.902,0.000
1714023336.324,-18.066,-70.312,-58.594,-18.555,0.000
1714023336.328,-12.695,-78.613,-72.754,-10.742,0.000
1714023336.332,-7.324,-65.918,-61.035,-16.602,0.000
1714023336.336,-9.766,-55.664,-50.781,-27.832,0.000
1714023336.340,-15.137,-67.383,-55.664,-26.367,0.000
1714023336.344,-13.184,-69.824,-55.176,-18.066,0.000
1714023336.348,-0.977,-50.293,-40.527,-15.137,0.000
1714023336.352,-1.953,-44.922,-37.598,-14.648,0.000
1714023336.356,-13.184,-56.641,-49.316,-16.602,0.000
1714023336.360,-13.672,-63.965,-50.781,-20.508,0.000
1714023336.364,-13.672,-64.453,-45.898,-21.973,0.000
1714023336.367,-13.672,-59.570,-46.387,-24.414,0.000
1714023336.371,-18.555,-65.918,-55.176,-21.973,0.000
1714023336.375,-24.902,-77.148,-60.059,-17.578,0.000
1714023336.379,-20.020,-70.801,-50.781,-20.020,0.000
1714023336.383,-15.625,-66.895,-54.688,-21.484,0.000
1714023336.387,-14.648,-69.824,-64.941,-20.020,0.000
1714023336.391,-18.066,-75.684,-62.988,-28.320,0.000
1714023336.395,-20.996,-73.730,-58.594,-30.273,0.000
1714023336.399,-17.090,-72.266,-58.105,-26.367,0.000
1714023336.403,-23.438,-74.219,-55.664,-36.133,0.000
1714023336.406,-31.738,-65.918,-56.641,-36.133,0.000
1714023336.410,-24.414,-63.477,-64.453,-26.367,0.000
1714023336.414,-18.555,-67.871,-62.988,-32.715,0.000
1714023336.418,-18.555,-72.754,-64.941,-40.527,0.000
1714023336.422,-24.902,-74.219,-67.383,-40.039,0.000
1714023336.426,-27.832,-76.172,-73.730,-42.480,0.000
1714023336.430,-30.273,-71.777,-79.102,-44.434,0.000
1714023336.434,-33.691,-62.988,-71.289,-52.246,0.000
1714023336.438,-36.621,-71.289,-57.617,-59.082,0.000
1714023336.442,-32.715,-71.777,-63.965,-50.293,0.000
1714023336.446,-29.297,-60.547,-67.871,-41.992,0.000
1714023336.449,-37.109,-59.082,-62.988,-51.758,0.000
1714023336.453,-38.574,-70.801,-71.777,-60.059,0.000
1714023336.457,-38.086,-72.754,-80.566,-52.734,0.000
1714023336.461,-34.180,-69.336,-81.055,-46.387,0.000
1714023336.465,-29.785,-73.730,-78.613,-45.898,0.000
1714023336.469,-31.250,-72.266,-55.664,-55.176,0.000
1714023336.473,-32.715,-70.801,-52.734,-53.223,0.000
1714023336.477,-35.645,-69.824,-68.359,-45.898,0.000
1714023336.481,-29.297,-61.523,-63.965,-45.410,0.000
1714023336.485,-26.367,-65.430,-56.641,-46.387,0.000
1714023336.489,-28.320,-77.148,-56.152,-38.574,0.000
1714023336.492,-31.250,-75.195,-63.965,-28.320,0.000
1714023336.496,-33.691,-67.383,-64.941,-34.180,0.000
1714023336.500,-30.762,-63.965,-65.430,-42.969,0.000
1714023336.504,-13.672,-68.848,-69.824,-22.949,0.000
1714023336.508,-19.043,-75.195,-74.219,-20.996,0.000
1714023336.512,-51.758,-75.195,-63.477,-50.293,0.000
1714023336.516,-52.734,-75.195,-58.105,-53.711,0.000
1714023336.520,-41.992,-75.195,-60.059,-46.387,0.000
1714023336.524,-54.688,-81.543,-46.387,-48.340,0.000
1714023336.528,-62.500,-85.449,-40.039,-50.781,0.000
1714023336.531,-57.617,-83.984,-39.062,-49.805,0.000
1714023336.535,-53.711,-73.242,-38.086,-47.363,0.000
1714023336.539,-56.152,-74.219,-48.340,-49.316,0.000
1714023336.543,-59.082,-87.891,-56.152,-48.828,0.000
1714023336.547,-55.176,-78.125,-56.641,-50.781,0.000
1714023336.551,-53.223,-71.777,-58.594,-58.105,0.000
1714023336.555,-54.199,-76.172,-57.617,-50.781,0.000
1714023336.559,-53.223,-72.754,-54.688,-41.504,0.000
1714023336.563,-52.734,-67.871,-50.293,-42.480,0.000
1714023336.567,-55.664,-73.242,-54.688,-53.223,0.000
1714023336.571,-54.688,-75.195,-60.547,-54.199,0.000
1714023336.574,-53.711,-66.895,-56.641,-49.805,0.000
1714023336.578,-53.223,-68.359,-56.152,-48.828,0.000
1714023336.582,-48.340,-73.242,-58.105,-47.363,0.000
1714023336.586,-47.852,-71.777,-58.105,-52.734,0.000
1714023336.590,-52.734,-73.242,-59.570,-53.711,0.000
1714023336.594,-51.270,-70.801,-48.828,-42.969,0.000
1714023336.598,-43.457,-70.312,-42.969,-42.480,0.000
1714023336.602,-53.711,-75.195,-47.852,-68.359,0.000
1714023336.606,-65.918,-68.359,-54.199,-76.660,0.000
1714023336.610,-71.289,-71.289,-55.664,-71.777,0.000
1714023336.613,-80.078,-80.078,-54.688,-80.566,0.000
1714023336.617,-79.590,-73.730,-46.387,-92.773,0.000
1714023336.621,-85.938,-72.266,-41.016,-100.586,0.000
1714023336.625,-105.469,-75.195,-39.551,-107.422,0.000
1714023336.629,-123.047,-76.172,-36.133,-119.629,0.000
1714023336.633,-126.953,-73.242,-31.250,-124.512,0.000
1714023336.637,-127.930,-75.195,-23.926,-124.023,0.000
1714023336.641,-133.301,-79.102,-24.902,-129.395,0.000
1714023336.645,-142.090,-83.008,-29.297,-129.395,0.000
1714023336.649,-146.973,-80.566,-13.672,-137.207,0.000
1714023336.653,-141.113,-71.289,-6.836,-139.160,0.000
1714023336.656,-134.277,-70.312,-9.766,-128.418,0.000
1714023336.660,-136.230,-73.242,-12.207,-123.535,0.000
1714023336.664,-129.883,-78.613,-25.391,-118.652,0.000
1714023336.668,-120.605,-77.637,-22.461,-120.605,0.000
1714023336.672,-115.723,-76.660,-18.066,-114.746,0.000
1714023336.676,-113.770,-74.707,-20.996,-103.027,0.000
1714023336.680,-103.516,-73.730,-15.137,-100.098,0.000
1714023336.684,-90.820,-83.008,-21.484,-97.168,0.000
1714023336.688,-83.984,-84.961,-40.527,-88.867,0.000
1714023336.692,-77.637,-75.684,-49.805,-75.684,0.000
1714023336.696,-72.266,-69.336,-46.875,-74.219,0.000
1714023336.699,-66.406,-67.871,-54.688,-79.102,0.000
1714023336.703,-53.711,-69.824,-75.684,-64.941,0.000
1714023336.707,-46.387,-78.613,-62.500,-51.270,0.000
1714023336.711,-41.504,-79.590,-55.176,-41.992,0.000
1714023336.715,-33.691,-76.660,-65.430,-39.551,0.000
1714023336.719,-21.484,-69.336,-60.059,-36.133,0.000
1714023336.723,-6.836,-66.895,-59.082,-22.461,0.000
1714023336.727,-7.812,-76.172,-66.406,-9.766,0.000
1714023336.731,-15.137,-75.684,-78.613,-19.043,0.000
1714023336.735,-14.160,-70.801,-85.938,-29.297,0.000
1714023336.738,-10.742,-71.777,-77.637,-16.113,0.000
1714023336.742,-4.395,-78.125,-69.336,-11.719,0.000
1714023336.746,-3.418,-87.402,-79.590,-9.766,0.000
1714023336.750,-4.883,-83.008,-86.426,-2.441,0.000
1714023336.754,-3.418,-67.383,-82.520,-5.371,0.000
1714023336.758,1.465,-70.312,-74.707,2.930,0.000
1714023336.762,1.953,-73.242,-76.660,2.441,0.000
1714023336.766,1.953,-69.336,-76.172,-4.395,0.000
1714023336.770,-3.418,-73.242,-73.242,-8.301,0.000
1714023336.774,-0.488,-76.172,-86.914,-1.953,0.000
1714023336.778,4.395,-72.754,-83.496,1.953,0.000
1714023336.781,-1.953,-64.941,-71.289,-6.836,0.000
1714023336.785,-2.441,-64.453,-73.730,-13.184,0.000
1714023336.789,9.277,-66.895,-70.312,0.488,0.000
1714023336.793,11.719,-68.359,-71.777,11.719,0.000
1714023336.797,7.324,-70.801,-77.637,2.441,0.000
1714023336.801,11.230,-71.289,-79.102,-8.301,0.000
1714023336.805,2.441,-77.637,-80.566,-12.695,0.000
1714023336.809,-4.883,-69.336,-80.566,-12.207,0.000
1714023336.813,3.906,-56.152,-74.219,-4.883,0.000
1714023336.817,-0.488,-62.988,-72.754,-5.859,0.000
1714023336.821,-4.883,-64.453,-76.660,-11.230,0.000
1714023336.824,-6.836,-67.871,-71.289,-0.488,0.000
1714023336.828,-10.254,-72.754,-72.266,-0.488,0.000
1714023336.832,-6.836,-73.242,-74.707,-5.859,0.000
1714023336.836,-7.812,-74.707,-79.590,-8.789,0.000
1714023336.840,-11.230,-82.031,-80.078,-3.418,0.000
1714023336.844,-6.836,-72.754,-63.477,1.465,0.000
1714023336.848,-2.930,-65.430,-67.871,-8.301,0.000
1714023336.852,-2.441,-64.453,-77.637,-10.742,0.000
1714023336.856,-3.906,-60.059,-71.777,-2.930,0.000
1714023336.860,-10.254,-64.453,-61.523,-2.441,0.000
1714023336.863,-8.301,-68.848,-63.477,-6.348,0.000
1714023336.867,-7.324,-73.242,-83.496,-10.254,0.000
1714023336.871,-13.184,-76.660,-84.961,-7.324,0.000
1714023336.875,-16.113,-70.801,-79.102,-8.301,0.000
1714023336.879,-10.742,-68.359,-78.613,-11.719,0.000
1714023336.883,-4.395,-75.684,-78.613,-6.836,0.000
1714023336.887,-12.207,-75.195,-73.242,-13.672,0.000
1714023336.891,-16.113,-71.289,-74.707,-14.160,0.000
1714023336.895,-12.207,-67.383,-74.707,-1.953,0.000
1714023336.899,-16.602,-73.242,-74.219,-10.742,0.000
1714023336.903,-20.020,-73.730,-83.496,-27.832,0.000
1714023336.906,-11.230,-63.477,-73.242,-19.531,0.000
1714023336.910,-8.789,-66.406,-71.777,-9.766,0.000
1714023336.914,-19.531,-70.801,-79.590,-23.438,0.000
1714023336.918,-22.949,-73.730,-78.613,-36.133,0.000
1714023336.922,-20.508,-75.684,-74.219,-37.598,0.000
1714023336.926,-18.066,-72.754,-65.918,-31.738,0.000
1714023336.930,-17.090,-80.566,-73.730,-29.297,0.000
1714023336.934,-16.113,-72.266,-74.707,-38.086,0.000
1714023336.938,-16.113,-58.105,-72.754,-40.039,0.000
1714023336.942,-20.020,-62.988,-77.637,-36.621,0.000
1714023336.946,-17.090,-68.359,-72.266,-36.133,0.000
1714023336.949,-14.160,-63.965,-68.359,-41.504,0.000
1714023336.953,-15.137,-60.059,-69.336,-48.828,0.000
1714023336.957,-14.648,-61.523,-68.848,-40.527,0.000
1714023336.961,-14.648,-60.059,-62.012,-31.738,0.000
1714023336.965,-14.648,-62.012,-61.523,-35.645,0.000
1714023336.969,-18.555,-68.359,-75.195,-49.805,0.000
1714023336.973,-22.461,-71.289,-81.055,-48.828,0.000
1714023336.977,-22.461,-62.500,-70.312,-37.109,0.000
1714023336.981,-25.391,-58.594,-66.895,-47.852,0.000
1714023336.985,-34.180,-70.312,-74.219,-57.617,0.000
1714023336.988,-36.133,-74.219,-81.543,-48.828,0.000
1714023336.992,-34.180,-67.383,-76.172,-44.434,0.000
1714023336.996,-34.180,-64.941,-63.477,-49.316,0.000
1714023337.000,-31.250,-67.383,-68.359,-56.641,0.000
1714023337.004,-27.832,-70.312,-77.637,-52.246,0.000
1714023337.008,-27.344,-74.219,-76.660,-40.527,0.000
1714023337.012,-26.855,-71.777,-69.824,-37.598,0.000
1714023337.016,-21.484,-67.383,-72.754,-44.922,0.000
1714023337.020,-24.414,-69.824,-71.289,-51.270,0.000
1714023337.024,-29.297,-68.848,-60.547,-46.387,0.000
1714023337.027,-24.414,-62.500,-69.824,-39.062,0.000
1714023337.031,-26.855,-60.059,-76.172,-40.527,0.000
1714023337.035,-31.738,-68.359,-65.430,-46.387,0.000
1714023337.039,-27.832,-64.941,-58.105,-41.016,0.000
1714023337.043,-21.973,-60.059,-65.430,-26.855,0.000
1714023337.047,-18.555,-64.453,-73.242,-24.414,0.000
1714023337.051,-17.578,-58.594,-61.035,-32.715,0.000
1714023337.055,-19.043,-61.523,-59.082,-36.621,0.000
1714023337.059,-20.508,-59.570,-69.336,-25.391,0.000
1714023337.063,-13.672,-55.664,-68.848,-15.625,0.000
1714023337.067,-13.184,-57.129,-66.895,-26.367,0.000
1714023337.070,-28.809,-62.988,-69.824,-39.062,0.000
1714023337.074,-34.668,-63.477,-77.637,-36.133,0.000
1714023337.078,-22.461,-57.129,-76.660,-28.809,0.000
1714023337.082,-19.043,-62.012,-66.406,-38.574,0.000
1714023337.086,-26.855,-79.102,-69.824,-48.340,0.000
1714023337.090,-21.484,-71.289,-73.730,-41.504,0.000
1714023337.094,-12.695,-56.152,-68.848,-37.598,0.000
1714023337.098,-9.277,-61.035,-69.336,-42.969,0.000
1714023337.102,-5.859,-59.570,-73.242,-41.992,0.000
1714023337.106,-3.418,-51.758,-73.242,-28.320,0.000
1714023337.110,-14.160,-58.594,-69.824,-21.484,0.000
1714023337.113,-25.391,-71.777,-63.965,-25.879,0.000
1714023337.117,-29.785,-75.195,-62.500,-32.227,0.000
1714023337.121,-37.598,-76.660,-69.824,-37.598,0.000
1714023337.125,-43.457,-75.684,-66.406,-25.879,0.000
1714023337.129,-39.551,-67.383,-54.688,-25.879,0.000
1714023337.133,-36.621,-68.359,-59.570,-34.668,0.000
1714023337.137,-36.133,-68.848,-67.383,-32.227,0.000
1714023337.141,-34.180,-66.895,-65.430,-25.391,0.000
1714023337.145,-33.203,-70.312,-58.105,-27.832,0.000
1714023337.149,-23.438,-69.336,-46.875,-26.367,0.000
1714023337.153,-23.926,-69.336,-62.500,-30.762,0.000
1714023337.156,-32.715,-70.312,-76.172,-39.062,0.000
1714023337.160,-34.668,-68.848,-61.523,-34.668,0.000
1714023337.164,-36.133,-66.895,-61.523,-39.062,0.000
1714023337.168,-37.598,-69.336,-69.824,-40.039,0.000
1714023337.172,-34.180,-77.148,-64.453,-33.203,0.000
1714023337.176,-34.180,-80.078,-65.918,-38.574,0.000
1714023337.180,-31.250,-70.801,-62.988,-38.086,0.000
1714023337.184,-29.297,-73.242,-60.059,-38.574,0.000
1714023337.188,-29.297,-71.289,-62.500,-40.527,0.000
1714023337.192,-20.996,-58.594,-48.828,-26.367,0.000
1714023337.196,-16.113,-62.988,-53.223,-23.926,0.000
1714023337.199,-22.949,-69.336,-71.777,-41.992,0.000
1714023337.203,-25.391,-67.871,-73.242,-42.969,0.000
1714023337.207,-22.949,-66.406,-70.312,-33.203,0.000
1714023337.211,-22.949,-66.895,-75.195,-28.809,0.000
1714023337.215,-27.832,-65.430,-73.242,-25.391,0.000
1714023337.219,-34.180,-65.918,-50.781,-30.273,0.000
1714023337.223,-33.691,-75.195,-41.016,-29.297,0.000
1714023337.227,-26.855,-71.777,-51.758,-25.879,0.000
1714023337.231,-19.531,-61.523,-54.688,-28.320,0.000
1714023337.235,-23.926,-57.129,-62.988,-31.250,0.000
1714023337.238,-29.785,-70.312,-67.383,-37.598,0.000
1714023337.242,-26.855,-82.031,-65.430,-37.598,0.000
1714023337.246,-24.902,-72.754,-64.941,-33.691,0.000
1714023337.250,-26.367,-64.941,-70.312,-38.574,0.000
1714023337.254,-29.297,-63.477,-67.871,-46.387,0.000
1714023337.258,-34.668,-67.383,-63.965,-45.898,0.000
1714023337.262,-30.273,-68.359,-57.617,-39.062,0.000
1714023337.266,-29.785,-68.359,-61.035,-37.598,0.000
1714023337.270,-34.180,-66.895,-72.754,-34.668,0.000
1714023337.274,-26.855,-60.059,-69.824,-20.508,0.000
1714023337.278,-31.738,-62.012,-60.059,-24.902,0.000
1714023337.281,-29.785,-72.754,-51.758,-38.574,0.000
1714023337.285,-23.926,-71.777,-53.711,-38.574,0.000
1714023337.289,-28.809,-62.988,-48.828,-27.832,0.000
1714023337.293,-24.902,-60.547,-51.270,-24.902,0.000
1714023337.297,-25.879,-58.594,-66.406,-38.574,0.000
1714023337.301,-29.785,-62.988,-67.871,-42.969,0.000
1714023337.305,-28.809,-66.406,-57.129,-34.180,0.000
1714023337.309,-32.227,-58.594,-49.316,-30.762,0.000
1714023337.313,-31.250,-58.594,-58.105,-31.738,0.000
1714023337.317,-22.461,-59.082,-58.594,-32.227,0.000
1714023337.320,-21.484,-66.406,-43.457,-24.902,0.000
1714023337.324,-20.020,-65.430,-41.016,-12.695,0.000
1714023337.328,-15.625,-56.152,-49.805,-20.020,0.000
1714023337.332,-28.809,-57.129,-60.547,-40.039,0.000
1714023337.336,-36.621,-57.129,-59.082,-49.316,0.000
1714023337.340,-33.691,-59.570,-54.688,-46.387,0.000
1714023337.344,-35.156,-65.918,-59.082,-34.668,0.000
1714023337.348,-27.344,-71.777,-66.895,-27.832,0.000
1714023337.352,-27.344,-66.895,-58.594,-37.109,0.000
1714023337.356,-33.203,-64.453,-48.340,-39.551,0.000
1714023337.360,-29.297,-67.383,-44.434,-28.809,0.000
1714023337.363,-22.461,-59.570,-50.293,-20.508,0.000
1714023337.367,-28.320,-58.594,-62.988,-33.691,0.000
1714023337.371,-27.832,-62.988,-65.430,-37.598,0.000
1714023337.375,-29.785,-74.219,-66.406,-31.250,0.000
1714023337.379,-29.297,-73.242,-63.477,-27.832,0.000
1714023337.383,-20.020,-62.500,-59.570,-26.367,0.000
1714023337.387,-26.367,-71.289,-58.594,-33.691,0.000
1714023337.391,-33.203,-71.777,-54.688,-25.391,0.000
1714023337.395,-32.227,-59.082,-44.922,-15.625,0.000
1714023337.399,-31.250,-62.012,-46.387,-24.902,0.000
1714023337.402,-28.320,-68.848,-59.570,-32.227,0.000
1714023337.406,-31.738,-71.777,-59.570,-29.297,0.000
1714023337.410,-33.691,-74.219,-55.664,-25.391,0.000
1714023337.414,-31.250,-74.219,-59.082,-24.414,0.000
1714023337.418,-33.691,-72.266,-65.918,-31.250,0.000
1714023337.422,-30.762,-60.059,-65.918,-29.297,0.000
1714023337.426,-36.621,-57.617,-58.594,-29.297,0.000
1714023337.430,-38.086,-63.477,-56.641,-36.133,0.000
1714023337.434,-34.180,-62.500,-62.012,-39.551,0.000
1714023337.438,-28.809,-65.430,-73.730,-30.273,0.000
1714023337.442,-29.785,-64.941,-73.242,-29.785,0.000
1714023337.445,-34.180,-62.500,-60.547,-37.109,0.000
1714023337.449,-32.715,-79.102,-56.641,-35.645,0.000
1714023337.453,-32.715,-86.426,-63.477,-30.762,0.000
1714023337.457,-28.809,-70.801,-59.082,-24.902,0.000
1714023337.461,-29.785,-75.684,-65.918,-27.832,0.000
1714023337.465,-30.273,-69.336,-73.730,-33.203,0.000
1714023337.469,-25.391,-51.758,-62.988,-34.668,0.000
1714023337.473,-26.855,-50.293,-57.129,-34.668,0.000
1714023337.477,-28.320,-59.570,-70.312,-33.203,0.000
1714023337.481,-29.785,-71.777,-77.637,-41.016,0.000
1714023337.485,-36.133,-81.543,-74.219,-47.852,0.000
1714023337.488,-34.180,-84.961,-65.918,-38.574,0.000
1714023337.492,-35.645,-76.172,-53.711,-41.992,0.000
1714023337.496,-33.203,-67.871,-56.641,-44.922,0.000
1714023337.500,-21.484,-55.664,-56.641,-36.621,0.000
1714023337.504,-26.367,-54.199,-47.852,-42.969,0.000
1714023337.508,-33.203,-70.801,-59.570,-43.457,0.000
1714023337.512,-28.320,-66.895,-67.383,-40.039,0.000
1714023337.516,-33.203,-59.082,-64.941,-46.387,0.000
1714023337.520,-37.109,-62.500,-63.477,-45.410,0.000
1714023337.524,-31.738,-70.801,-60.059,-31.250,0.000
1714023337.528,-34.180,-78.613,-77.637,-31.250,0.000
1714023337.531,-43.457,-75.684,-83.984,-54.688,0.000
1714023337.535,-41.992,-68.848,-56.641,-61.035,0.000
1714023337.539,-34.668,-71.289,-54.199,-48.340,0.000
1714023337.543,-35.156,-76.172,-69.336,-37.598,0.000
1714023337.547,-34.180,-71.777,-67.871,-48.828,0.000
1714023337.551,-33.691,-63.477,-68.359,-48.340,0.000
1714023337.555,-22.949,-68.359,-68.848,-36.133,0.000
1714023337.559,-14.648,-67.871,-62.012,-22.949,0.000
1714023337.563,-33.691,-65.918,-57.617,-35.645,0.000
1714023337.567,-34.668,-64.453,-66.406,-45.410,0.000
1714023337.570,-33.203,-66.406,-68.848,-42.969,0.000
1714023337.574,-38.574,-73.242,-63.965,-41.504,0.000
1714023337.578,-25.879,-76.172,-62.012,-31.250,0.000
1714023337.582,-23.438,-72.266,-70.312,-30.273,0.000
1714023337.586,-33.203,-64.941,-77.637,-39.062,0.000
1714023337.590,-28.320,-65.918,-78.613,-36.621,0.000
1714023337.594,-25.879,-58.594,-71.289,-36.133,0.000
1714023337.598,-18.066,-59.570,-59.082,-33.691,0.000
1714023337.602,-20.020,-69.824,-61.523,-35.645,0.000
1714023337.606,-32.227,-67.871,-62.012,-41.016,0.000
1714023337.610,-27.344,-63.965,-56.641,-23.438,0.000
1714023337.613,-26.367,-73.730,-55.176,-22.949,0.000
1714023337.617,-34.180,-77.637,-58.105,-41.504,0.000
1714023337.621,-33.691,-62.012,-64.453,-39.551,0.000
1714023337.625,-23.926,-63.965,-61.035,-25.391,0.000
1714023337.629,-22.461,-73.730,-65.430,-33.691,0.000
1714023337.633,-29.297,-74.219,-73.730,-45.898,0.000
1714023337.637,-33.203,-70.801,-62.012,-38.574,0.000
1714023337.641,-24.902,-58.105,-51.758,-27.832,0.000
1714023337.645,-26.855,-54.688,-58.594,-21.484,0.000
1714023337.649,-39.062,-67.383,-62.012,-37.109,0.000
1714023337.653,-36.133,-71.289,-59.082,-52.246,0.000
1714023337.656,-30.273,-65.430,-55.176,-39.551,0.000
1714023337.660,-25.879,-62.988,-55.176,-29.785,0.000
1714023337.664,-27.832,-67.383,-61.523,-34.668,0.000
1714023337.668,-30.762,-70.312,-67.871,-41.504,0.000
1714023337.672,-39.551,-74.219,-74.219,-43.457,0.000
1714023337.676,-31.250,-81.055,-68.848,-22.949,0.000
1714023337.680,-9.766,-80.566,-56.641,-5.371,0.000
1714023337.684,-25.879,-62.988,-55.664,-37.109,0.000
1714023337.688,-41.504,-55.176,-67.871,-55.176,0.000
1714023337.692,-28.809,-60.547,-69.336,-32.715,0.000
1714023337.695,-23.438,-60.059,-60.547,-22.949,0.000
1714023337.699,-21.484,-55.664,-55.664,-29.297,0.000
1714023337.703,-17.090,-59.082,-59.082,-35.645,0.000
1714023337.707,-28.320,-63.965,-70.801,-41.016,0.000
1714023337.711,-32.715,-62.988,-70.312,-42.969,0.000
1714023337.715,-15.625,-62.012,-58.105,-33.203,0.000
1714023337.719,-11.230,-70.801,-64.453,-26.367,0.000
1714023337.723,-15.625,-73.242,-76.660,-21.484,0.000
1714023337.727,-20.020,-68.848,-67.383,-17.090,0.000
1714023337.731,-20.020,-64.941,-53.223,-18.066,0.000
1714023337.735,-14.648,-64.941,-60.547,-23.926,0.000
1714023337.738,-12.695,-65.430,-69.824,-32.227,0.000
1714023337.742,-11.230,-64.941,-60.547,-17.090,0.000
1714023337.746,-13.672,-71.289,-60.547,-13.672,0.000
1714023337.750,-21.484,-71.289,-63.965,-27.344,0.000
1714023337.754,-23.926,-73.730,-56.152,-23.438,0.000
1714023337.758,-23.438,-73.730,-67.871,-20.020,0.000
1714023337.762,-19.531,-67.383,-81.055,-20.020,0.000
1714023337.766,-19.043,-70.312,-79.590,-31.738,0.000
1714023337.770,-17.578,-66.406,-74.219,-30.273,0.000
1714023337.774,-16.602,-56.641,-62.988,-23.438,0.000
1714023337.777,-18.066,-53.711,-62.012,-28.809,0.000
1714023337.781,-11.230,-57.617,-61.523,-32.715,0.000
1714023337.785,-19.043,-62.012,-61.035,-44.434,0.000
1714023337.789,-31.250,-73.242,-68.359,-45.410,0.000
1714023337.793,-25.879,-75.195,-71.289,-35.156,0.000
1714023337.797,-23.926,-56.152,-75.195,-34.180,0.000
1714023337.801,-34.668,-56.641,-72.266,-42.480,0.000
1714023337.805,-40.527,-72.266,-67.871,-47.363,0.000
1714023337.809,-37.109,-71.289,-76.660,-39.062,0.000
1714023337.813,-25.879,-66.406,-81.543,-29.785,0.000
1714023337.817,-16.602,-59.570,-62.988,-30.762,0.000
1714023337.820,-24.414,-64.453,-54.199,-37.109,0.000
1714023337.824,-29.785,-72.266,-72.266,-39.062,0.000
1714023337.828,-25.879,-72.266,-79.590,-33.203,0.000
1714023337.832,-35.645,-74.219,-77.148,-39.062,0.000
1714023337.836,-39.551,-77.637,-75.684,-42.480,0.000
1714023337.840,-33.203,-74.219,-77.637,-33.691,0.000
1714023337.844,-29.297,-62.988,-75.195,-25.391,0.000
1714023337.848,-31.250,-66.406,-43.457,-26.367,0.000
1714023337.852,-38.086,-65.918,-37.598,-40.039,0.000
1714023337.856,-34.180,-61.523,-48.340,-36.133,0.000
1714023337.860,-27.344,-63.965,-55.664,-27.832,0.000
1714023337.863,-26.367,-68.848,-59.570,-26.367,0.000
1714023337.867,-26.855,-67.871,-58.594,-30.762,0.000
1714023337.871,-29.785,-69.336,-70.801,-31.738,0.000
1714023337.875,-31.738,-80.078,-77.148,-25.879,0.000
1714023337.879,-29.785,-78.125,-67.871,-29.297,0.000
1714023337.883,-27.344,-67.871,-62.988,-34.180,0.000
1714023337.887,-27.344,-61.035,-48.340,-34.180,0.000
1714023337.891,-32.715,-53.223,-45.898,-31.250,0.000
1714023337.895,-35.645,-59.570,-47.852,-31.738,0.000
1714023337.899,-36.621,-69.336,-56.152,-41.016,0.000
1714023337.903,-38.086,-67.871,-63.477,-49.316,0.000
1714023337.906,-41.992,-67.871,-63.477,-51.758,0.000
1714023337.910,-48.828,-69.824,-61.523,-47.852,0.000
1714023337.914,-50.781,-71.777,-53.223,-51.270,0.000
1714023337.918,-53.223,-73.242,-51.758,-62.500,0.000
1714023337.922,-58.594,-69.336,-45.898,-73.730,0.000
1714023337.926,-75.195,-79.102,-42.969,-87.402,0.000
1714023337.930,-87.891,-74.707,-38.086,-109.863,0.000
1714023337.934,-87.891,-68.848,-42.480,-129.395,0.000
1714023337.938,-97.168,-69.824,-46.387,-135.742,0.000
1714023337.942,-113.281,-59.570,-37.598,-138.672,0.000
1714023337.945,-116.211,-63.477,-31.250,-140.137,0.000
1714023337.949,-114.258,-65.918,-27.344,-139.160,0.000
1714023337.953,-117.676,-62.012,-29.297,-145.508,0.000
1714023337.957,-119.629,-65.430,-30.762,-144.531,0.000
1714023337.961,-112.793,-58.105,-23.926,-130.859,0.000
1714023337.965,-106.934,-47.852,-25.879,-120.117,0.000
1714023337.969,-112.793,-41.992,-26.855,-124.023,0.000
1714023337.973,-107.422,-45.898,-34.180,-118.652,0.000
1714023337.977,-97.168,-51.270,-35.645,-104.004,0.000
1714023337.981,-95.215,-57.129,-28.809,-106.934,0.000
1714023337.985,-90.332,-71.289,-41.992,-110.352,0.000
1714023337.988,-83.496,-79.590,-56.641,-95.215,0.000
1714023337.992,-79.102,-75.195,-55.176,-89.355,0.000
1714023337.996,-69.336,-70.312,-55.664,-86.426,0.000
1714023338.000,-58.105,-69.336,-51.758,-88.379,0.000
1714023338.004,-56.152,-64.941,-42.480,-86.426,0.000
1714023338.008,-41.992,-59.082,-45.410,-54.688,0.000
1714023338.012,-34.668,-63.477,-35.645,-47.363,0.000
1714023338.016,-39.062,-56.641,-24.414,-61.035,0.000
1714023338.020,-32.715,-48.340,-32.715,-49.316,0.000
1714023338.024,-47.363,-61.035,-55.664,-54.199,0.000
1714023338.027,-62.012,-73.730,-54.688,-65.430,0.000
1714023338.031,-64.453,-74.707,-47.363,-77.148,0.000
1714023338.035,-72.266,-74.707,-48.828,-85.938,0.000
1714023338.039,-83.984,-70.801,-38.574,-96.680,0.000
1714023338.043,-104.492,-71.777,-33.691,-114.746,0.000
1714023338.047,-111.816,-71.289,-30.273,-123.535,0.000
1714023338.051,-114.258,-68.359,-30.762,-133.789,0.000
1714023338.055,-119.141,-65.430,-30.273,-131.348,0.000
1714023338.059,-128.906,-61.035,-20.996,-143.555,0.000
1714023338.063,-131.348,-59.570,-20.508,-147.949,0.000
1714023338.067,-135.254,-58.594,-19.043,-145.020,0.000
1714023338.070,-138.672,-62.500,-21.973,-152.344,0.000
1714023338.074,-122.559,-50.293,-21.973,-133.789,0.000
1714023338.078,-112.793,-50.781,-13.184,-122.070,0.000
1714023338.082,-106.934,-53.711,-19.043,-127.441,0.000
1714023338.086,-95.703,-43.457,-16.602,-119.629,0.000
1714023338.090,-90.332,-55.176,-20.996,-111.816,0.000
1714023338.094,-81.055,-60.059,-33.203,-100.098,0.000
1714023338.098,-66.406,-54.199,-38.086,-81.055,0.000
1714023338.102,-55.176,-47.852,-34.668,-67.383,0.000
1714023338.106,-42.969,-52.734,-39.551,-51.758,0.000
1714023338.110,-33.203,-64.453,-47.363,-41.992,0.000
1714023338.113,-20.996,-60.059,-41.992,-33.691,0.000
1714023338.117,-16.602,-61.035,-50.293,-24.902,0.000
1714023338.121,-15.625,-71.777,-53.711,-22.461,0.000
1714023338.125,-9.766,-75.195,-56.152,-11.230,0.000
1714023338.129,-1.953,-82.520,-62.988,-2.441,0.000
1714023338.133,1.465,-91.309,-69.336,-8.789,0.000
1714023338.137,6.348,-88.867,-73.730,-5.859,0.000
1714023338.141,18.066,-85.938,-87.891,17.090,0.000
1714023338.145,24.902,-88.867,-88.867,32.715,0.000
1714023338.149,25.879,-76.660,-80.078,21.484,0.000
1714023338.152,28.320,-67.871,-87.402,13.672,0.000
1714023338.156,32.227,-79.590,-91.797,16.602,0.000
1714023338.160,30.762,-73.242,-82.031,22.461,0.000
1714023338.164,28.809,-70.312,-82.031,22.949,0.000
1714023338.168,32.715,-73.730,-97.656,18.066,0.000
1714023338.172,37.598,-71.289,-101.562,24.414,0.000
1714023338.176,35.156,-73.730,-93.262,30.762,0.000
1714023338.180,39.551,-67.871,-98.633,29.297,0.000
1714023338.184,42.969,-70.801,-105.957,27.344,0.000
1714023338.188,39.551,-79.102,-103.027,33.203,0.000
1714023338.192,33.691,-74.219,-88.867,32.715,0.000
1714023338.195,38.574,-70.312,-73.730,34.180,0.000
1714023338.199,35.156,-66.406,-76.172,32.715,0.000
1714023338.203,31.250,-68.359,-92.773,31.250,0.000
1714023338.207,32.227,-81.543,-89.355,33.203,0.000
1714023338.211,38.086,-70.801,-84.961,38.086,0.000
1714023338.215,41.016,-60.059,-99.609,27.832,0.000
1714023338.219,34.668,-76.660,-103.516,13.672,0.000
1714023338.223,25.879,-79.590,-102.539,11.719,0.000
1714023338.227,24.902,-62.012,-96.680,14.648,0.000
1714023338.231,38.086,-45.898,-82.520,25.879,0.000
1714023338.235,31.738,-50.781,-78.125,19.531,0.000
1714023338.238,26.367,-56.641,-80.566,10.254,0.000
1714023338.242,29.297,-55.176,-85.938,16.113,0.000
1714023338.246,20.508,-65.430,-86.914,20.020,0.000
1714023338.250,16.113,-66.895,-85.449,14.648,0.000
1714023338.254,14.160,-64.941,-80.566,3.906,0.000
1714023338.258,6.836,-68.848,-79.590,5.371,0.000
1714023338.262,3.418,-64.941,-83.984,12.695,0.000
1714023338.266,7.324,-56.152,-68.359,12.207,0.000
1714023338.270,11.230,-52.734,-60.547,10.254,0.000
1714023338.274,12.695,-57.129,-73.730,16.113,0.000
1714023338.277,13.672,-60.547,-76.660,22.949,0.000
1714023338.281,14.160,-58.594,-69.824,15.625,0.000
1714023338.285,8.301,-63.477,-73.730,0.977,0.000
1714023338.289,0.000,-58.105,-75.684,0.977,0.000
1714023338.293,1.953,-53.223,-70.312,18.066,0.000
1714023338.297,7.324,-54.688,-66.895,15.137,0.000
1714023338.301,10.742,-60.547,-69.824,5.859,0.000
1714023338.305,13.672,-61.523,-74.707,11.719,0.000
1714023338.309,0.488,-65.430,-73.242,10.254,0.000
1714023338.313,-11.230,-62.988,-65.918,0.977,0.000
1714023338.317,-2.441,-59.570,-60.059,1.953,0.000
1714023338.320,-1.465,-63.965,-67.383,0.488,0.000
1714023338.324,-7.324,-62.988,-72.754,-2.441,0.000
1714023338.328,1.465,-57.617,-68.359,6.348,0.000
1714023338.332,8.301,-53.223,-65.918,-4.883,0.000
1714023338.336,6.836,-61.523,-73.730,-14.648,0.000
1714023338.340,2.930,-72.754,-77.637,-0.488,0.000
1714023338.344,-8.301,-72.754,-72.266,-3.906,0.000
1714023338.348,-9.277,-62.500,-68.848,-6.348,0.000
1714023338.352,5.371,-55.664,-68.848,-6.836,0.000
1714023338.356,0.488,-53.711,-68.848,-13.672,0.000
1714023338.360,-14.160,-61.523,-67.383,-10.254,0.000
1714023338.363,-8.301,-89.355,-73.730,-9.277,0.000
1714023338.367,-6.836,-85.938,-80.078,-18.555,0.000
1714023338.371,-13.184,-64.941,-72.754,-27.832,0.000
1714023338.375,-17.090,-62.500,-66.406,-23.926,0.000
1714023338.379,-18.066,-65.918,-62.988,-21.484,0.000
1714023338.383,-10.254,-71.289,-66.895,-20.996,0.000
1714023338.387,0.977,-64.941,-60.547,-14.648,0.000
1714023338.391,0.000,-65.918,-55.664,-14.648,0.000
1714023338.395,-8.789,-73.242,-60.547,-18.555,0.000
1714023338.399,-9.766,-72.266,-63.965,-25.391,0.000
1714023338.402,-10.742,-68.848,-65.918,-26.855,0.000
1714023338.406,-20.020,-78.125,-67.383,-24.902,0.000
1714023338.410,-23.438,-83.008,-71.777,-28.320,0.000
1714023338.414,-21.973,-74.707,-75.684,-33.691,0.000
1714023338.418,-26.855,-67.871,-71.289,-38.574,0.000
1714023338.422,-24.902,-71.777,-56.152,-36.621,0.000
1714023338.426,-27.832,-74.219,-56.641,-27.832,0.000
1714023338.430,-23.926,-73.242,-65.430,-20.020,0.000
1714023338.434,-21.973,-72.754,-58.594,-31.250,0.000
1714023338.438,-23.438,-71.777,-50.293,-35.645,0.000
1714023338.442,-18.066,-75.684,-60.547,-24.902,0.000
1714023338.445,-13.672,-67.871,-64.941,-21.973,0.000
1714023338.449,-10.254,-59.570,-58.105,-26.367,0.000
1714023338.453,-14.648,-63.477,-55.664,-25.391,0.000
1714023338.457,-19.531,-67.383,-58.105,-15.625,0.000
1714023338.461,-21.484,-73.730,-61.523,-20.508,0.000
1714023338.465,-26.855,-70.801,-65.430,-37.109,0.000
1714023338.469,-22.949,-63.965,-61.035,-39.062,0.000
1714023338.473,-15.625,-67.871,-63.965,-30.273,0.000
1714023338.477,-17.090,-66.895,-62.012,-26.855,0.000
1714023338.481,-17.090,-63.965,-49.805,-31.250,0.000
1714023338.484,-20.508,-71.777,-51.758,-42.480,0.000
1714023338.488,-22.461,-75.195,-61.035,-43.457,0.000
1714023338.492,-16.602,-69.336,-52.734,-30.273,0.000
1714023338.496,-12.695,-72.266,-46.387,-27.344,0.000
1714023338.500,-13.672,-76.660,-61.523,-40.039,0.000
1714023338.504,-19.531,-78.125,-85.938,-44.922,0.000
1714023338.508,-21.973,-75.684,-85.449,-36.133,0.000
1714023338.512,-19.531,-64.453,-68.848,-28.320,0.000
1714023338.516,-16.113,-62.500,-62.500,-28.809,0.000
1714023338.520,-19.531,-71.777,-67.383,-27.832,0.000
1714023338.524,-25.391,-67.383,-56.641,-17.090,0.000
1714023338.527,-24.902,-64.453,-50.293,-20.020,0.000
1714023338.531,-24.902,-68.359,-60.059,-41.016,0.000
1714023338.535,-26.367,-69.824,-61.523,-44.434,0.000
1714023338.539,-24.414,-72.266,-56.152,-34.668,0.000
1714023338.543,-23.438,-71.289,-68.359,-33.203,0.000
1714023338.547,-23.926,-64.941,-75.684,-30.762,0.000
1714023338.551,-20.996,-67.871,-69.336,-30.762,0.000
1714023338.555,-23.926,-66.895,-65.430,-29.785,0.000
1714023338.559,-22.461,-59.570,-65.918,-30.273,0.000
1714023338.563,-17.090,-66.895,-67.871,-35.156,0.000
1714023338.567,-16.602,-66.895,-64.453,-36.133,0.000
1714023338.570,-20.508,-57.617,-60.059,-40.039,0.000
1714023338.574,-28.320,-66.406,-59.570,-39.551,0.000
1714023338.578,-28.320,-75.684,-62.012,-39.551,0.000
1714023338.582,-23.926,-66.406,-58.105,-43.457,0.000
1714023338.586,-23.438,-57.617,-53.711,-53.223,0.000
1714023338.590,-21.484,-58.105,-52.734,-42.969,0.000
1714023338.594,-25.391,-64.941,-56.152,-39.062,0.000
1714023338.598,-28.809,-69.336,-67.383,-46.875,0.000
1714023338.602,-25.391,-71.777,-77.148,-42.969,0.000
1714023338.606,-29.297,-68.848,-67.871,-42.480,0.000
1714023338.610,-31.250,-62.500,-62.012,-39.551,0.000
1714023338.613,-29.297,-69.824,-64.453,-41.992,0.000
1714023338.617,-33.203,-68.359,-60.547,-53.711,0.000
1714023338.621,-34.668,-64.941,-64.941,-62.500,0.000
1714023338.625,-31.250,-71.777,-74.707,-52.734,0.000
1714023338.629,-26.367,-69.824,-72.266,-49.316,0.000
1714023338.633,-26.367,-67.871,-68.359,-54.688,0.000
1714023338.637,-23.926,-66.406,-66.895,-51.758,0.000
1714023338.641,-30.273,-64.941,-71.777,-55.664,0.000
1714023338.645,-32.715,-73.730,-75.195,-51.270,0.000
1714023338.649,-19.531,-68.848,-70.801,-41.016,0.000
1714023338.652,-20.996,-69.824,-65.918,-44.922,0.000
1714023338.656,-25.391,-72.754,-66.406,-37.109,0.000
1714023338.660,-20.508,-69.824,-68.848,-27.832,0.000
1714023338.664,-13.672,-73.730,-62.988,-29.785,0.000
1714023338.668,-15.625,-73.730,-64.453,-21.973,0.000
1714023338.672,-18.555,-64.941,-62.988,-25.879,0.000
1714023338.676,-21.484,-58.594,-58.105,-38.086,0.000
1714023338.680,-20.996,-60.059,-52.734,-30.762,0.000
1714023338.684,-18.066,-59.570,-53.223,-29.785,0.000
1714023338.688,-21.973,-61.523,-59.082,-37.109,0.000
1714023338.692,-25.391,-69.824,-63.477,-37.109,0.000
1714023338.695,-26.855,-72.754,-67.871,-36.133,0.000
1714023338.699,-28.809,-69.336,-62.988,-36.621,0.000
1714023338.703,-31.738,-70.801,-61.523,-37.598,0.000
1714023338.707,-35.645,-74.219,-64.941,-41.992,0.000
1714023338.711,-33.691,-71.777,-63.477,-39.062,0.000
1714023338.715,-27.832,-75.684,-66.895,-38.574,0.000
1714023338.719,-29.297,-67.383,-60.547,-55.176,0.000
1714023338.723,-29.785,-59.082,-51.270,-50.781,0.000
1714023338.727,-23.926,-63.477,-55.664,-39.551,0.000
1714023338.731,-22.949,-68.848,-60.547,-52.246,0.000
1714023338.735,-33.203,-74.219,-63.477,-62.012,0.000
1714023338.738,-35.156,-72.754,-74.219,-51.758,0.000
1714023338.742,-28.320,-66.406,-74.219,-33.203,0.000
1714023338.746,-24.414,-68.848,-67.871,-33.203,0.000
1714023338.750,-19.043,-82.520,-74.219,-39.551,0.000
1714023338.754,-16.113,-77.148,-67.383,-40.039,0.000
1714023338.758,-10.254,-63.965,-50.293,-37.109,0.000
1714023338.762,-5.859,-59.082,-49.805,-44.434,0.000
1714023338.766,6.348,-53.711,-47.363,-44.922,0.000
1714023338.770,2.441,-56.641,-57.129,-43.945,0.000
1714023338.774,-14.160,-62.012,-60.547,-49.316,0.000
1714023338.777,-5.859,-48.828,-56.152,-41.016,0.000
1714023338.781,-10.254,-54.199,-67.871,-45.410,0.000
1714023338.785,-26.367,-73.242,-73.242,-57.617,0.000
1714023338.789,-27.344,-77.148,-67.871,-47.363,0.000
1714023338.793,-28.320,-78.125,-64.941,-39.062,0.000
1714023338.797,-27.832,-73.242,-55.664,-37.598,0.000
1714023338.801,-33.203,-68.848,-62.988,-44.434,0.000
1714023338.805,-37.598,-62.988,-69.336,-41.016,0.000
1714023338.809,-31.738,-60.059,-61.523,-37.109,0.000
1714023338.813,-27.832,-65.918,-62.012,-42.480,0.000
1714023338.817,-30.762,-68.848,-60.059,-51.270,0.000
1714023338.820,-31.250,-68.359,-59.082,-42.969,0.000
1714023338.824,-28.320,-68.848,-62.012,-40.527,0.000
1714023338.828,-23.926,-75.684,-55.664,-36.621,0.000
1714023338.832,-21.973,-75.684,-51.270,-32.227,0.000
1714023338.836,-26.367,-63.965,-55.176,-41.992,0.000
1714023338.840,-31.738,-68.359,-59.570,-43.457,0.000
1714023338.844,-31.250,-75.684,-61.523,-36.133,0.000
1714023338.848,-28.320,-71.777,-75.195,-36.133,0.000
1714023338.852,-29.785,-70.312,-83.984,-44.434,0.000
1714023338.856,-36.133,-70.312,-68.848,-46.387,0.000
1714023338.859,-39.062,-66.406,-63.477,-41.992,0.000
1714023338.863,-36.621,-62.500,-65.918,-36.621,0.000
1714023338.867,-33.691,-68.848,-65.430,-41.992,0.000
1714023338.871,-37.598,-83.984,-66.895,-48.340,0.000
1714023338.875,-35.645,-79.102,-66.406,-37.598,0.000
1714023338.879,-36.133,-67.383,-67.383,-35.645,0.000
1714023338.883,-28.809,-63.965,-65.918,-42.480,0.000
1714023338.887,-27.832,-68.848,-62.988,-43.945,0.000
1714023338.891,-38.574,-71.777,-71.777,-45.410,0.000
1714023338.895,-35.645,-73.242,-77.148,-36.621,0.000
1714023338.899,-28.320,-77.148,-70.312,-42.969,0.000
1714023338.902,-30.273,-74.707,-65.918,-48.828,0.000
1714023338.906,-30.762,-71.777,-68.359,-42.969,0.000
1714023338.910,-28.809,-65.430,-64.453,-40.527,0.000
1714023338.914,-32.227,-67.383,-65.918,-41.992,0.000
1714023338.918,-31.250,-72.266,-72.266,-43.945,0.000
1714023338.922,-31.738,-79.590,-67.871,-40.527,0.000
1714023338.926,-31.738,-77.637,-65.918,-43.945,0.000
1714023338.930,-27.832,-73.242,-65.918,-41.992,0.000
1714023338.934,-22.461,-72.266,-63.965,-37.109,0.000
1714023338.938,-20.020,-66.406,-57.617,-30.273,0.000
1714023338.942,-21.484,-58.105,-56.152,-29.785,0.000
1714023338.945,-22.949,-62.500,-59.570,-29.297,0.000
1714023338.949,-20.996,-65.918,-54.199,-31.738,0.000
1714023338.953,-28.809,-73.242,-69.336,-37.598,0.000
1714023338.957,-31.738,-69.336,-71.289,-32.715,0.000
1714023338.961,-26.367,-55.176,-55.664,-27.832,0.000
1714023338.965,-29.297,-58.594,-56.641,-34.668,0.000
1714023338.969,-33.691,-64.941,-61.035,-45.898,0.000
1714023338.973,-32.715,-69.824,-64.941,-40.527,0.000
1714023338.977,-25.879,-61.523,-67.383,-22.949,0.000
1714023338.981,-19.531,-58.594,-68.359,-20.996,0.000
1714023338.984,-21.973,-63.965,-60.547,-38.086,0.000
1714023338.988,-23.926,-62.988,-51.758,-38.086,0.000
1714023338.992,-31.250,-62.988,-56.641,-32.715,0.000
1714023338.996,-38.086,-54.688,-69.824,-40.527,0.000
1714023339.000,-33.691,-52.246,-69.824,-43.945,0.000
1714023339.004,-38.574,-60.547,-65.430,-48.340,0.000
1714023339.008,-41.992,-67.383,-71.777,-45.898,0.000
1714023339.012,-36.133,-70.801,-72.266,-38.086,0.000
1714023339.016,-31.738,-72.754,-65.918,-38.574,0.000
1714023339.020,-30.762,-74.707,-63.477,-41.504,0.000
1714023339.024,-32.715,-71.289,-66.406,-41.992,0.000
1714023339.027,-25.879,-65.430,-62.012,-34.180,0.000
1714023339.031,-21.973,-75.195,-63.965,-35.156,0.000
1714023339.035,-29.785,-76.660,-70.312,-41.504,0.000
1714023339.039,-40.039,-68.359,-69.336,-37.109,0.000
1714023339.043,-45.410,-78.125,-69.824,-37.109,0.000
1714023339.047,-36.133,-84.473,-61.523,-34.180,0.000
1714023339.051,-29.785,-70.801,-70.801,-34.668,0.000
1714023339.055,-35.156,-61.035,-70.312,-40.039,0.000
1714023339.059,-33.203,-64.941,-55.176,-32.227,0.000
1714023339.063,-33.203,-67.383,-50.293,-29.785,0.000
1714023339.067,-32.715,-66.895,-46.875,-37.109,0.000
1714023339.070,-30.273,-60.547,-54.199,-40.039,0.000
1714023339.074,-31.250,-56.641,-55.664,-34.668,0.000
1714023339.078,-32.227,-65.430,-53.711,-36.133,0.000
1714023339.082,-29.297,-75.684,-65.430,-35.645,0.000
1714023339.086,-29.297,-83.984,-78.613,-36.621,0.000
1714023339.090,-34.180,-82.520,-81.055,-33.691,0.000
1714023339.094,-31.738,-76.172,-65.918,-24.902,0.000
1714023339.098,-26.855,-66.895,-62.012,-30.762,0.000
1714023339.102,-28.320,-61.035,-63.477,-45.898,0.000
1714023339.106,-33.203,-63.965,-61.523,-50.781,0.000
1714023339.109,-32.715,-64.941,-60.547,-50.781,0.000
1714023339.113,-24.902,-73.242,-55.664,-48.828,0.000
1714023339.117,-23.926,-78.125,-50.781,-43.945,0.000
1714023339.121,-24.414,-63.965,-59.082,-38.574,0.000
1714023339.125,-24.902,-61.523,-80.566,-38.086,0.000
1714023339.129,-25.391,-70.801,-86.914,-39.551,0.000
1714023339.133,-22.461,-73.242,-74.707,-37.109,0.000
1714023339.137,-29.297,-69.336,-60.547,-41.016,0.000
1714023339.141,-35.156,-62.500,-54.688,-42.480,0.000
1714023339.145,-31.250,-67.871,-54.688,-33.691,0.000
1714023339.149,-29.785,-69.336,-61.523,-38.086,0.000
1714023339.152,-24.902,-63.965,-60.547,-37.109,0.000
1714023339.156,-27.832,-64.941,-57.129,-36.621,0.000
1714023339.160,-31.738,-66.895,-60.547,-41.992,0.000
1714023339.164,-26.367,-65.918,-58.594,-38.574,0.000
1714023339.168,-27.344,-72.754,-63.477,-40.039,0.000
1714023339.172,-37.598,-71.777,-72.266,-48.340,0.000
1714023339.176,-36.133,-61.523,-68.359,-39.551,0.000
1714023339.180,-28.320,-66.406,-60.547,-34.180,0.000
1714023339.184,-34.668,-67.383,-52.734,-44.922,0.000
1714023339.188,-36.621,-63.965,-51.270,-45.410,0.000
1714023339.192,-28.809,-64.453,-58.594,-37.109,0.000
1714023339.195,-28.320,-66.406,-55.664,-35.156,0.000
1714023339.199,-32.715,-65.430,-44.434,-38.574,0.000
1714023339.203,-36.621,-74.707,-50.293,-42.480,0.000
1714023339.207,-38.086,-79.102,-60.059,-34.180,0.000
1714023339.211,-37.109,-68.848,-66.895,-37.109,0.000
1714023339.215,-34.180,-61.523,-62.500,-47.363,0.000
1714023339.219,-38.574,-67.383,-60.059,-51.270,0.000
1714023339.223,-41.992,-68.359,-68.359,-51.758,0.000
1714023339.227,-35.645,-60.059,-66.406,-42.480,0.000
1714023339.231,-25.879,-56.152,-58.105,-37.598,0.000
1714023339.235,-23.926,-58.594,-62.500,-42.969,0.000
1714023339.238,-29.297,-70.312,-73.242,-34.180,0.000
1714023339.242,-30.762,-65.918,-54.199,-22.949,0.000
1714023339.246,-38.086,-66.406,-45.410,-37.109,0.000
1714023339.250,-41.504,-70.801,-59.570,-55.664,0.000
1714023339.254,-34.668,-61.523,-57.617,-46.387,0.000
1714023339.258,-41.504,-62.500,-55.664,-46.875,0.000
1714023339.262,-39.551,-59.570,-58.105,-55.664,0.000
1714023339.266,-28.809,-57.617,-58.105,-51.758,0.000
1714023339.270,-33.203,-65.430,-65.918,-54.688,0.000
1714023339.274,-36.133,-63.965,-63.965,-60.059,0.000
1714023339.277,-24.414,-62.988,-54.199,-51.758,0.000
1714023339.281,-21.973,-66.406,-54.688,-46.387,0.000
1714023339.285,-32.715,-67.383,-54.199,-51.270,0.000
1714023339.289,-41.504,-70.312,-57.617,-58.105,0.000
1714023339.293,-42.969,-67.871,-67.871,-57.129,0.000
1714023339.297,-39.551,-64.941,-62.500,-53.223,0.000
1714023339.301,-36.621,-63.477,-45.410,-58.594,0.000
1714023339.305,-36.133,-66.895,-47.363,-58.594,0.000
1714023339.309,-34.668,-67.383,-48.340,-43.457,0.000
1714023339.313,-41.504,-61.035,-47.363,-41.504,0.000
1714023339.317,-45.898,-71.289,-57.129,-54.199,0.000
1714023339.320,-40.527,-77.148,-62.500,-53.711,0.000
1714023339.324,-35.645,-66.406,-67.871,-39.062,0.000
1714023339.328,-35.645,-67.871,-61.035,-27.344,0.000
1714023339.332,-34.668,-66.895,-52.246,-39.062,0.000
1714023339.336,-34.668,-60.547,-56.152,-53.223,0.000
1714023339.340,-44.434,-65.918,-63.965,-49.316,0.000
1714023339.344,-44.434,-73.730,-62.988,-41.016,0.000
1714023339.348,-36.133,-78.125,-65.430,-39.551,0.000
1714023339.352,-45.898,-71.777,-75.195,-51.758,0.000
1714023339.356,-50.293,-63.477,-82.031,-53.711,0.000
1714023339.360,-38.574,-67.871,-74.219,-43.457,0.000
1714023339.363,-35.645,-72.266,-66.895,-43.457,0.000
1714023339.367,-33.203,-66.406,-60.059,-42.480,0.000
1714023339.371,-30.273,-76.172,-58.594,-33.203,0.000
1714023339.375,-33.203,-85.449,-70.312,-18.066,0.000
1714023339.379,-34.180,-69.824,-76.660,-29.297,0.000
1714023339.383,-33.203,-62.988,-75.684,-42.969,0.000
1714023339.387,-27.344,-62.012,-65.918,-34.668,0.000
1714023339.391,-31.738,-71.777,-68.359,-38.086,0.000
1714023339.395,-27.832,-75.195,-73.242,-36.621,0.000
1714023339.399,-23.438,-70.312,-71.289,-38.574,0.000
1714023339.402,-24.414,-75.195,-71.777,-37.109,0.000
1714023339.406,-21.973,-74.707,-61.523,-27.344,0.000
1714023339.410,-22.949,-63.477,-48.828,-22.949,0.000
1714023339.414,-20.996,-59.570,-60.059,-25.879,0.000
1714023339.418,-25.879,-67.871,-87.402,-30.762,0.000
1714023339.422,-34.180,-75.684,-83.008,-31.250,0.000
1714023339.426,-31.250,-67.871,-61.035,-31.738,0.000
1714023339.430,-24.902,-57.129,-58.594,-28.320,0.000
1714023339.434,-27.344,-57.617,-61.523,-24.902,0.000
1714023339.438,-26.855,-59.570,-65.918,-28.809,0.000
1714023339.442,-24.414,-58.105,-57.617,-31.738,0.000
1714023339.445,-21.484,-58.594,-47.852,-30.762,0.000
1714023339.449,-17.578,-57.129,-52.246,-30.273,0.000
1714023339.453,-16.602,-50.781,-60.059,-22.461,0.000
1714023339.457,-36.133,-64.453,-61.035,-32.227,0.000
1714023339.461,-38.574,-68.359,-45.898,-31.250,0.000
1714023339.465,-23.926,-65.430,-47.852,-27.832,0.000
1714023339.469,-38.574,-64.453,-47.363,-49.805,0.000
1714023339.473,-47.363,-50.293,-39.062,-49.805,0.000
1714023339.477,-43.457,-59.082,-55.664,-39.551,0.000
1714023339.481,-57.129,-72.266,-62.012,-60.059,0.000
1714023339.485,-61.035,-66.406,-53.223,-73.730,0.000
1714023339.488,-58.105,-64.453,-52.246,-70.801,0.000
1714023339.492,-72.266,-70.312,-47.852,-75.195,0.000
1714023339.496,-94.727,-73.242,-37.598,-93.262,0.000
1714023339.500,-103.027,-74.707,-33.203,-105.957,0.000
1714023339.504,-106.934,-77.148,-36.133,-105.469,0.000
1714023339.508,-104.980,-80.566,-36.621,-91.309,0.000
1714023339.512,-110.840,-76.660,-21.484,-103.516,0.000
1714023339.516,-117.676,-74.707,-7.812,-124.023,0.000
1714023339.520,-119.141,-79.102,-11.719,-120.605,0.000
1714023339.524,-128.418,-78.125,-9.766,-122.559,0.000
1714023339.527,-133.301,-83.008,-2.930,-124.512,0.000
1714023339.531,-122.559,-76.660,-4.883,-117.676,0.000
1714023339.535,-105.469,-71.777,-13.184,-105.957,0.000
1714023339.539,-107.910,-84.961,-8.301,-101.074,0.000
1714023339.543,-110.352,-84.473,-20.020,-98.633,0.000
1714023339.547,-90.332,-75.684,-27.832,-84.473,0.000
1714023339.551,-82.520,-75.195,-27.832,-81.055,0.000
1714023339.555,-76.660,-76.660,-30.762,-73.242,0.000
1714023339.559,-79.102,-77.637,-18.066,-71.777,0.000
1714023339.563,-80.078,-80.078,-20.996,-67.871,0.000
1714023339.567,-60.547,-90.332,-36.621,-53.711,0.000
1714023339.570,-49.805,-83.496,-45.410,-47.852,0.000
1714023339.574,-54.199,-75.195,-46.387,-53.711,0.000
1714023339.578,-50.781,-79.590,-49.805,-52.246,0.000
1714023339.582,-30.762,-74.707,-45.410,-37.109,0.000
1714023339.586,-33.691,-71.289,-46.875,-44.922,0.000
1714023339.590,-38.574,-75.195,-57.129,-44.434,0.000
1714023339.594,-33.691,-76.172,-64.941,-33.691,0.000
1714023339.598,-20.996,-76.660,-78.125,-29.785,0.000
1714023339.602,-14.648,-73.242,-78.613,-31.738,0.000
1714023339.606,-21.973,-64.941,-74.219,-33.691,0.000
1714023339.609,-19.043,-64.941,-70.312,-22.461,0.000
1714023339.613,-8.789,-64.941,-64.941,-15.137,0.000
1714023339.617,-5.371,-63.965,-62.500,-18.555,0.000
1714023339.621,-11.230,-65.430,-71.289,-25.879,0.000
1714023339.625,-16.113,-66.895,-70.801,-25.391,0.000
1714023339.629,-14.648,-65.430,-68.848,-20.996,0.000
1714023339.633,-17.578,-74.707,-74.707,-30.762,0.000
1714023339.637,-23.438,-72.266,-73.730,-34.180,0.000
1714023339.641,-20.020,-62.012,-77.148,-23.926,0.000
1714023339.645,-18.066,-70.312,-80.078,-15.625,0.000
1714023339.649,-30.762,-68.359,-71.289,-35.156,0.000
1714023339.652,-42.480,-64.941,-70.801,-53.223,0.000
1714023339.656,-44.922,-70.312,-70.801,-50.293,0.000
1714023339.660,-42.480,-62.500,-55.664,-41.992,0.000
1714023339.664,-38.086,-59.082,-53.223,-51.270,0.000
1714023339.668,-47.363,-67.383,-55.664,-75.684,0.000
1714023339.672,-62.500,-69.824,-55.176,-85.938,0.000
1714023339.676,-64.453,-73.730,-60.059,-87.891,0.000
1714023339.680,-59.082,-78.613,-57.129,-91.797,0.000
1714023339.684,-55.176,-71.289,-42.480,-95.215,0.000
1714023339.688,-62.988,-79.102,-43.945,-104.004,0.000
1714023339.692,-67.383,-73.242,-36.133,-95.215,0.000
1714023339.695,-62.012,-49.805,-28.809,-84.961,0.000
1714023339.699,-67.383,-49.805,-31.738,-91.309,0.000
