timestamps,TP9,AF7,AF8,TP10,Right AUX
1714024952.222,-20.508,-22.949,-21.973,-33.691,0.000
1714024952.226,-19.531,-22.461,-23.926,-28.320,0.000
1714024952.230,-21.484,-20.996,-22.461,-24.414,0.000
1714024952.234,-25.391,-20.020,-26.367,-30.762,0.000
1714024952.238,-22.461,-21.973,-23.438,-22.461,0.000
1714024952.242,-24.902,-29.297,-20.996,-19.043,0.000
1714024952.246,-23.438,-30.762,-22.461,-21.973,0.000
1714024952.250,-19.043,-32.715,-32.227,-23.926,0.000
1714024952.254,-26.367,-27.832,-33.691,-25.879,0.000
1714024952.257,-27.344,-18.555,-22.461,-13.672,0.000
1714024952.261,-20.996,-22.949,-16.113,-15.625,0.000
1714024952.265,-27.344,-29.297,-22.949,-29.785,0.000
1714024952.269,-35.156,-28.809,-31.738,-38.086,0.000
1714024952.273,-37.109,-29.297,-29.785,-39.551,0.000
1714024952.277,-41.504,-34.668,-26.855,-40.039,0.000
1714024952.280,-48.340,-36.133,-26.855,-41.016,0.000
1714024952.284,-46.387,-33.203,-30.273,-41.016,0.000
1714024952.288,-38.574,-30.762,-24.902,-32.227,0.000
1714024952.292,-37.109,-34.668,-22.461,-31.250,0.000
1714024952.296,-38.574,-38.086,-28.809,-35.645,0.000
1714024952.300,-43.945,-32.227,-27.832,-40.527,0.000
1714024952.304,-41.992,-33.203,-27.832,-37.598,0.000
1714024952.308,-41.992,-37.598,-28.809,-30.762,0.000
1714024952.312,-40.527,-34.668,-27.344,-32.715,0.000
1714024952.315,-35.645,-30.273,-22.461,-39.062,0.000
1714024952.319,-35.156,-30.762,-19.531,-40.039,0.000
1714024952.323,-36.621,-33.203,-29.785,-37.598,0.000
1714024952.327,-36.133,-34.180,-38.086,-38.574,0.000
1714024952.331,-29.785,-24.414,-30.273,-34.668,0.000
1714024952.335,-21.484,-18.555,-20.996,-29.297,0.000
1714024952.338,-17.578,-20.508,-26.367,-18.066,0.000
1714024952.342,-16.113,-17.578,-29.297,-9.277,0.000
1714024952.346,-6.348,-16.602,-29.785,-15.137,0.000
1714024952.350,-8.301,-25.879,-24.902,-17.578,0.000
1714024952.354,-29.785,-32.715,-20.020,-26.367,0.000
1714024952.358,-34.668,-27.832,-23.926,-36.133,0.000
1714024952.361,-23.926,-28.320,-21.484,-32.227,0.000
1714024952.365,-22.949,-33.203,-13.672,-29.785,0.000
1714024952.369,-25.879,-32.715,-12.695,-30.762,0.000
1714024952.373,-28.320,-32.227,-16.113,-23.438,0.000
1714024952.377,-29.785,-32.715,-18.066,-22.461,0.000
1714024952.380,-29.297,-30.273,-26.855,-23.926,0.000
1714024952.384,-31.738,-26.367,-26.367,-19.531,0.000
1714024952.388,-44.922,-27.344,-15.137,-27.344,0.000
1714024952.392,-48.828,-27.832,-19.043,-31.738,0.000
1714024952.396,-47.852,-25.879,-25.879,-36.621,0.000
1714024952.400,-47.852,-16.602,-21.484,-38.574,0.000
1714024952.404,-50.293,-22.949,-24.902,-41.992,0.000
1714024952.409,-62.012,-34.668,-29.297,-59.570,0.000
1714024952.413,-62.988,-33.203,-32.715,-74.707,0.000
1714024952.417,-73.242,-37.109,-24.902,-79.102,0.000
1714024952.421,-86.914,-37.598,-18.066,-83.984,0.000
1714024952.425,-94.727,-39.551,-14.648,-97.168,0.000
1714024952.429,-108.887,-43.457,-10.254,-109.863,0.000
1714024952.433,-120.117,-43.945,-12.695,-112.305,0.000
1714024952.437,-122.559,-41.016,-9.277,-120.605,0.000
1714024952.440,-128.906,-41.016,-4.883,-129.883,0.000
1714024952.444,-131.836,-40.039,-0.488,-127.441,0.000
1714024952.448,-125.000,-31.250,11.719,-128.906,0.000
1714024952.452,-124.023,-29.297,18.066,-139.648,0.000
1714024952.457,-120.605,-31.250,17.090,-141.113,0.000
1714024952.461,-115.723,-37.109,24.414,-123.047,0.000
1714024952.465,-114.746,-39.551,24.414,-113.770,0.000
1714024952.468,-111.328,-36.621,13.184,-112.305,0.000
1714024952.472,-110.840,-40.527,5.371,-95.215,0.000
1714024952.476,-103.027,-38.086,8.789,-79.590,0.000
1714024952.480,-90.332,-30.762,7.812,-80.566,0.000
1714024952.484,-83.984,-33.691,0.000,-83.496,0.000
1714024952.488,-77.148,-38.086,-8.301,-75.684,0.000
1714024952.492,-67.871,-39.062,-12.695,-52.246,0.000
1714024952.496,-59.082,-38.086,-9.766,-48.340,0.000
1714024952.500,-51.270,-33.691,-15.625,-52.734,0.000
1714024952.506,-49.316,-37.109,-26.855,-48.828,0.000
1714024952.510,-41.016,-38.086,-25.391,-36.621,0.000
1714024952.514,-33.203,-30.762,-27.832,-32.715,0.000
1714024952.518,-24.902,-35.645,-36.133,-39.551,0.000
1714024952.522,-23.438,-36.133,-36.133,-35.645,0.000
1714024952.526,-20.508,-30.762,-35.645,-25.391,0.000
1714024952.530,-18.066,-35.645,-32.227,-19.043,0.000
1714024952.534,-17.578,-33.691,-32.715,-15.625,0.000
1714024952.538,-12.207,-30.762,-38.086,-13.672,0.000
1714024952.542,-17.578,-37.598,-40.039,-17.578,0.000
1714024952.545,-19.043,-42.480,-44.434,-19.531,0.000
1714024952.549,-15.625,-37.598,-44.922,-15.625,0.000
1714024952.553,-15.137,-34.668,-44.922,-13.672,0.000
1714024952.557,-17.090,-36.621,-42.969,-12.695,0.000
1714024952.561,-21.484,-36.621,-43.457,-11.719,0.000
1714024952.565,-12.695,-34.180,-41.992,-6.836,0.000
1714024952.568,-7.812,-31.250,-32.227,-16.113,0.000
1714024952.572,-6.836,-25.391,-26.367,-15.137,0.000
1714024952.576,-4.883,-20.508,-29.297,-9.766,0.000
1714024952.580,-4.883,-12.207,-33.203,-9.766,0.000
1714024952.584,-9.766,-10.742,-27.832,-24.902,0.000
1714024952.588,-27.832,-23.438,-28.320,-38.574,0.000
1714024952.592,-40.527,-28.320,-24.414,-40.527,0.000
1714024952.596,-43.457,-19.043,-20.020,-48.340,0.000
1714024952.599,-54.688,-18.555,-20.996,-61.523,0.000
1714024952.603,-67.383,-18.066,-15.137,-75.684,0.000
1714024952.607,-83.984,-25.391,-15.137,-86.426,0.000
1714024952.611,-94.727,-24.902,-13.184,-87.402,0.000
1714024952.615,-100.098,-19.531,-1.953,-90.820,0.000
1714024952.619,-104.004,-23.926,0.000,-97.168,0.000
1714024952.623,-101.074,-24.902,2.441,-96.680,0.000
1714024952.627,-101.074,-20.996,3.906,-93.262,0.000
1714024952.630,-99.609,-18.555,5.371,-100.098,0.000
1714024952.634,-100.098,-20.020,8.301,-104.492,0.000
1714024952.638,-92.285,-22.461,2.930,-98.633,0.000
1714024952.642,-82.031,-23.438,2.441,-95.703,0.000
1714024952.645,-83.984,-27.832,2.930,-92.773,0.000
1714024952.649,-82.031,-33.203,-0.977,-89.844,0.000
1714024952.653,-67.383,-32.715,-7.324,-78.125,0.000
1714024952.657,-53.711,-28.320,-7.812,-61.035,0.000
1714024952.661,-53.223,-27.344,-6.836,-53.223,0.000
1714024952.665,-44.434,-31.738,-12.207,-55.664,0.000
1714024952.669,-39.551,-36.133,-24.902,-50.293,0.000
1714024952.673,-38.574,-35.645,-28.320,-31.738,0.000
1714024952.677,-28.320,-39.062,-20.996,-28.320,0.000
1714024952.680,-23.438,-39.062,-20.508,-25.391,0.000
1714024952.684,-20.020,-31.250,-26.367,-19.043,0.000
1714024952.688,-13.184,-32.227,-33.203,-11.230,0.000
1714024952.691,-10.742,-33.203,-31.738,-1.465,0.000
1714024952.695,-9.277,-29.785,-33.203,-0.977,0.000
1714024952.699,-6.348,-28.809,-45.410,-7.812,0.000
1714024952.703,-3.906,-33.203,-58.105,-5.371,0.000
1714024952.707,-1.465,-38.086,-60.059,-2.930,0.000
1714024952.711,1.953,-37.598,-57.129,-6.348,0.000
1714024952.715,1.465,-32.715,-54.688,-6.836,0.000
1714024952.719,-2.441,-27.832,-54.199,-7.812,0.000
1714024952.722,0.977,-29.785,-49.316,0.488,0.000
1714024952.726,2.441,-31.738,-50.293,6.348,0.000
1714024952.730,-1.465,-30.762,-51.270,3.418,0.000
1714024952.734,0.000,-28.809,-43.945,0.000,0.000
1714024952.739,1.953,-27.832,-44.434,0.000,0.000
1714024952.743,7.324,-26.855,-46.875,7.324,0.000
1714024952.747,7.812,-24.414,-39.062,15.137,0.000
1714024952.751,2.930,-20.996,-41.504,8.301,0.000
1714024952.755,4.395,-22.461,-44.434,2.930,0.000
1714024952.759,5.371,-27.832,-42.480,9.277,0.000
1714024952.763,3.906,-27.832,-44.922,12.695,0.000
1714024952.767,0.488,-24.902,-45.410,6.836,0.000
1714024952.771,-4.395,-28.809,-43.457,-2.930,0.000
1714024952.774,1.953,-30.273,-42.969,6.836,0.000
1714024952.778,10.742,-28.320,-41.504,11.230,0.000
1714024952.782,7.812,-25.879,-36.133,1.953,0.000
1714024952.787,8.789,-23.438,-31.250,6.348,0.000
1714024952.791,5.371,-23.438,-38.574,13.184,0.000
1714024952.795,0.488,-19.531,-44.434,6.836,0.000
1714024952.799,5.859,-20.020,-46.387,5.859,0.000
1714024952.803,0.488,-30.762,-47.852,6.836,0.000
1714024952.807,-1.953,-31.738,-46.875,6.348,0.000
1714024952.810,3.906,-21.973,-48.340,13.184,0.000
1714024952.814,7.324,-20.508,-39.551,12.695,0.000
1714024952.818,9.277,-25.879,-37.109,13.184,0.000
1714024952.822,7.812,-23.438,-40.527,23.926,0.000
1714024952.826,4.883,-25.879,-35.156,13.184,0.000
1714024952.830,8.789,-29.297,-35.645,11.230,0.000
1714024952.834,7.812,-21.973,-41.504,11.230,0.000
1714024952.838,-1.465,-20.020,-41.992,3.906,0.000
1714024952.842,-0.977,-20.996,-37.598,4.883,0.000
1714024952.846,0.977,-18.555,-35.156,7.324,0.000
1714024952.850,-3.418,-18.555,-36.621,6.836,0.000
1714024952.854,-6.348,-20.996,-37.598,5.371,0.000
1714024952.858,-8.301,-23.926,-36.621,0.488,0.000
1714024952.862,-6.836,-20.020,-32.227,0.977,0.000
1714024952.866,-10.254,-20.508,-31.250,6.348,0.000
1714024952.869,-13.184,-24.414,-26.367,12.695,0.000
1714024952.873,-19.043,-23.438,-24.414,3.906,0.000
1714024952.877,-10.254,-19.531,-34.180,4.395,0.000
1714024952.881,-3.418,-21.973,-33.691,4.883,0.000
1714024952.885,-9.766,-24.902,-35.156,-3.906,0.000
1714024952.889,-11.719,-22.461,-38.086,-0.977,0.000
1714024952.893,-14.648,-25.879,-41.016,3.906,0.000
1714024952.897,-9.277,-25.879,-37.598,1.953,0.000
1714024952.901,-5.371,-20.996,-26.855,-0.977,0.000
1714024952.904,-16.602,-21.973,-27.832,-7.812,0.000
1714024952.908,-21.484,-26.367,-27.344,-12.207,0.000
1714024952.912,-19.531,-31.738,-28.320,-13.184,0.000
1714024952.916,-16.113,-25.391,-28.809,-13.672,0.000
1714024952.920,-17.090,-20.508,-32.715,-18.066,0.000
1714024952.924,-20.020,-20.996,-34.180,-21.973,0.000
1714024952.928,-15.625,-23.438,-28.320,-15.137,0.000
1714024952.931,-10.742,-19.531,-22.461,-10.742,0.000
1714024952.935,-16.113,-19.043,-19.531,-18.555,0.000
1714024952.939,-17.090,-25.391,-19.531,-12.207,0.000
1714024952.943,-12.207,-24.902,-20.996,-4.883,0.000
1714024952.947,-15.625,-23.926,-23.926,-9.277,0.000
1714024952.951,-19.043,-25.391,-31.250,-20.020,0.000
1714024952.955,-20.508,-28.320,-38.086,-23.926,0.000
1714024952.959,-20.020,-28.809,-36.621,-15.625,0.000
1714024952.963,-26.367,-24.902,-32.715,-15.625,0.000
1714024952.967,-28.809,-24.414,-28.809,-20.508,0.000
1714024952.971,-22.949,-23.926,-29.297,-21.973,0.000
1714024952.974,-20.508,-20.020,-28.809,-17.090,0.000
1714024952.978,-19.043,-20.508,-27.344,-24.902,0.000
1714024952.982,-21.484,-21.973,-29.785,-37.109,0.000
1714024952.986,-20.996,-21.484,-36.621,-30.762,0.000
1714024952.989,-21.973,-20.508,-38.086,-21.973,0.000
1714024952.993,-29.297,-20.996,-30.762,-23.926,0.000
1714024952.997,-30.762,-25.879,-24.902,-20.996,0.000
1714024953.001,-25.391,-24.902,-28.320,-16.113,0.000
1714024953.005,-26.367,-18.555,-32.227,-23.438,0.000
1714024953.009,-24.414,-16.113,-30.273,-24.414,0.000
1714024953.013,-26.855,-12.695,-29.297,-27.832,0.000
1714024953.017,-30.762,-10.254,-40.039,-32.715,0.000
1714024953.020,-29.785,-16.602,-40.527,-25.879,0.000
1714024953.024,-25.879,-21.484,-34.180,-23.926,0.000
1714024953.028,-26.367,-18.555,-37.109,-27.832,0.000
1714024953.032,-29.297,-15.137,-36.621,-32.227,0.000
1714024953.036,-27.344,-17.090,-30.762,-39.551,0.000
1714024953.039,-25.391,-21.484,-27.832,-41.016,0.000
1714024953.043,-27.344,-26.855,-27.832,-34.668,0.000
1714024953.047,-30.273,-28.320,-28.320,-29.785,0.000
1714024953.051,-28.809,-27.344,-27.344,-34.180,0.000
1714024953.055,-20.996,-21.484,-25.879,-28.320,0.000
1714024953.059,-19.043,-14.160,-24.414,-22.949,0.000
1714024953.063,-26.855,-17.578,-21.484,-30.273,0.000
1714024953.068,-27.832,-23.926,-26.367,-32.715,0.000
1714024953.072,-26.855,-23.926,-27.832,-27.344,0.000
1714024953.076,-23.926,-20.508,-22.461,-21.973,0.000
1714024953.080,-24.414,-18.555,-24.902,-25.879,0.000
1714024953.084,-22.949,-20.020,-28.809,-25.879,0.000
1714024953.088,-20.020,-22.949,-27.832,-25.879,0.000
1714024953.092,-28.320,-29.297,-34.180,-29.297,0.000
1714024953.096,-29.297,-24.902,-35.156,-27.832,0.000
1714024953.100,-26.367,-20.996,-29.785,-31.738,0.000
1714024953.103,-27.832,-20.996,-27.344,-30.273,0.000
1714024953.107,-22.949,-19.531,-20.996,-16.602,0.000
1714024953.111,-21.973,-19.043,-20.020,-16.602,0.000
1714024953.116,-27.344,-19.043,-23.926,-30.762,0.000
1714024953.120,-27.832,-24.414,-20.508,-34.668,0.000
1714024953.124,-23.926,-22.461,-18.066,-26.855,0.000
1714024953.128,-23.438,-16.602,-22.949,-22.461,0.000
1714024953.132,-24.414,-25.879,-28.809,-36.133,0.000
1714024953.136,-22.949,-27.832,-26.367,-31.738,0.000
1714024953.140,-25.391,-26.367,-29.297,-26.855,0.000
1714024953.143,-31.250,-33.691,-28.809,-28.809,0.000
1714024953.147,-28.320,-31.738,-21.973,-27.832,0.000
1714024953.151,-19.043,-26.367,-23.926,-28.809,0.000
1714024953.155,-20.996,-29.785,-35.156,-30.762,0.000
1714024953.159,-19.043,-30.762,-36.621,-26.855,0.000
1714024953.163,-13.184,-28.809,-30.273,-23.926,0.000
1714024953.167,-12.207,-30.273,-29.785,-32.227,0.000
1714024953.171,-10.254,-32.715,-30.273,-32.715,0.000
1714024953.175,-15.137,-33.203,-31.250,-27.832,0.000
1714024953.179,-15.625,-32.227,-29.297,-21.484,0.000
1714024953.183,-17.090,-32.227,-25.391,-20.020,0.000
1714024953.187,-26.855,-29.785,-22.461,-27.344,0.000
1714024953.191,-34.668,-25.391,-23.438,-24.414,0.000
1714024953.195,-30.273,-23.438,-26.367,-20.020,0.000
1714024953.199,-31.738,-31.738,-30.273,-23.926,0.000
1714024953.202,-35.645,-39.062,-29.297,-36.621,0.000
1714024953.206,-31.738,-31.250,-24.902,-41.504,0.000
1714024953.210,-29.785,-27.832,-24.414,-33.203,0.000
1714024953.214,-26.855,-26.855,-21.484,-23.438,0.000
1714024953.218,-23.926,-23.438,-19.043,-25.391,0.000
1714024953.222,-32.227,-25.879,-22.949,-30.762,0.000
1714024953.226,-34.668,-24.414,-24.902,-25.879,0.000
1714024953.230,-32.227,-28.809,-20.020,-26.855,0.000
1714024953.234,-29.297,-32.227,-21.484,-32.715,0.000
1714024953.238,-29.785,-30.762,-27.832,-34.668,0.000
1714024953.242,-33.691,-30.273,-32.227,-25.879,0.000
1714024953.246,-41.016,-31.250,-26.367,-18.555,0.000
1714024953.250,-44.922,-31.250,-19.043,-26.367,0.000
1714024953.253,-37.109,-30.762,-23.438,-34.180,0.000
1714024953.257,-37.598,-36.133,-29.297,-36.621,0.000
1714024953.261,-36.133,-36.133,-27.344,-27.344,0.000
1714024953.265,-34.180,-32.227,-24.902,-30.273,0.000
1714024953.269,-37.109,-34.668,-30.273,-31.738,0.000
1714024953.273,-31.250,-32.227,-34.668,-21.973,0.000
1714024953.277,-26.855,-28.809,-24.902,-16.602,0.000
1714024953.281,-29.785,-32.715,-24.414,-18.555,0.000
1714024953.285,-40.527,-33.691,-28.320,-29.785,0.000
1714024953.288,-40.527,-32.715,-27.832,-32.227,0.000
1714024953.292,-28.320,-26.855,-26.367,-25.391,0.000
1714024953.296,-25.879,-27.344,-26.367,-31.250,0.000
1714024953.300,-21.484,-27.832,-24.902,-29.785,0.000
1714024953.304,-22.949,-26.855,-20.996,-27.832,0.000
1714024953.307,-33.203,-27.344,-22.949,-31.250,0.000
1714024953.311,-28.320,-24.902,-21.973,-25.879,0.000
1714024953.315,-25.391,-25.391,-18.066,-25.391,0.000
1714024953.319,-36.621,-30.273,-22.949,-36.621,0.000
1714024953.323,-39.062,-35.156,-27.832,-35.645,0.000
1714024953.327,-35.645,-31.250,-26.855,-33.691,0.000
1714024953.331,-33.691,-26.367,-22.461,-32.715,0.000
1714024953.335,-35.156,-24.414,-22.461,-29.785,0.000
1714024953.339,-32.715,-22.949,-24.414,-34.180,0.000
1714024953.343,-29.785,-26.855,-21.973,-34.668,0.000
1714024953.347,-27.832,-27.344,-25.879,-28.809,0.000
1714024953.350,-23.438,-24.414,-27.344,-31.250,0.000
1714024953.354,-28.320,-25.879,-27.344,-38.086,0.000
1714024953.358,-34.668,-25.391,-30.273,-41.504,0.000
1714024953.362,-36.621,-22.949,-26.855,-38.574,0.000
1714024953.366,-36.621,-17.578,-27.344,-32.227,0.000
1714024953.369,-35.156,-17.090,-28.809,-39.062,0.000
1714024953.373,-34.668,-21.973,-24.902,-38.574,0.000
1714024953.377,-32.227,-21.973,-24.902,-24.902,0.000
1714024953.381,-29.297,-19.531,-24.414,-29.785,0.000
1714024953.385,-24.902,-19.531,-24.414,-39.062,0.000
1714024953.389,-19.043,-19.043,-20.020,-28.320,0.000
1714024953.393,-22.461,-23.926,-16.113,-20.020,0.000
1714024953.396,-22.949,-29.785,-20.508,-18.555,0.000
1714024953.400,-19.043,-23.926,-25.391,-20.508,0.000
1714024953.404,-18.066,-21.484,-28.809,-21.484,0.000
1714024953.407,-21.484,-22.461,-27.344,-20.996,0.000
1714024953.411,-25.391,-20.020,-21.973,-24.902,0.000
1714024953.415,-24.902,-24.414,-22.461,-34.180,0.000
1714024953.419,-18.066,-25.391,-26.855,-33.203,0.000
1714024953.423,-16.113,-24.902,-21.973,-20.020,0.000
1714024953.427,-19.531,-25.879,-19.043,-25.879,0.000
1714024953.431,-23.438,-27.344,-25.879,-33.203,0.000
1714024953.435,-20.020,-20.996,-22.461,-29.297,0.000
1714024953.439,-17.578,-18.066,-20.020,-29.785,0.000
1714024953.442,-22.461,-29.297,-28.320,-34.180,0.000
1714024953.446,-26.855,-33.203,-29.785,-35.156,0.000
1714024953.449,-30.762,-31.250,-25.879,-38.574,0.000
1714024953.453,-34.668,-31.250,-28.809,-41.504,0.000
1714024953.457,-39.062,-31.250,-29.297,-37.109,0.000
1714024953.461,-39.062,-31.738,-30.273,-38.086,0.000
1714024953.465,-40.039,-34.668,-32.227,-42.969,0.000
1714024953.469,-33.691,-35.645,-24.414,-40.039,0.000
1714024953.473,-29.785,-33.691,-20.508,-32.715,0.000
1714024953.477,-29.297,-28.809,-26.367,-31.250,0.000
1714024953.481,-31.738,-27.344,-26.855,-40.039,0.000
1714024953.485,-36.621,-29.297,-31.738,-45.898,0.000
1714024953.487,-38.086,-31.738,-33.203,-34.180,0.000
1714024953.491,-34.180,-32.715,-27.344,-26.855,0.000
1714024953.495,-30.273,-30.273,-30.762,-36.621,0.000
1714024953.499,-37.598,-33.691,-34.668,-43.457,0.000
1714024953.503,-36.133,-28.809,-32.227,-37.598,0.000
1714024953.507,-35.156,-27.344,-36.621,-38.086,0.000
1714024953.511,-40.527,-32.715,-31.738,-38.574,0.000
1714024953.515,-40.039,-28.320,-20.020,-37.598,0.000
1714024953.518,-32.227,-19.531,-20.020,-37.109,0.000
1714024953.522,-28.320,-20.508,-26.367,-34.180,0.000
1714024953.526,-33.691,-24.902,-27.832,-30.273,0.000
1714024953.530,-28.320,-23.926,-23.438,-30.273,0.000
1714024953.535,-26.855,-26.855,-27.344,-31.738,0.000
1714024953.539,-34.180,-27.832,-29.785,-29.785,0.000
1714024953.543,-35.156,-24.414,-27.344,-28.320,0.000
1714024953.547,-30.762,-21.484,-27.344,-32.715,0.000
1714024953.551,-29.297,-19.531,-23.926,-32.227,0.000
1714024953.555,-28.320,-22.949,-32.227,-30.273,0.000
1714024953.559,-27.832,-28.320,-33.691,-32.227,0.000
1714024953.562,-26.855,-26.367,-24.902,-27.344,0.000
1714024953.566,-26.855,-25.391,-22.461,-25.391,0.000
1714024953.570,-27.832,-27.832,-20.020,-27.344,0.000
1714024953.574,-29.785,-22.949,-19.531,-27.832,0.000
1714024953.578,-34.668,-21.973,-23.926,-28.809,0.000
1714024953.583,-35.156,-29.785,-28.320,-31.738,0.000
1714024953.587,-35.645,-29.297,-27.344,-31.738,0.000
1714024953.590,-31.738,-22.949,-24.414,-27.344,0.000
1714024953.594,-19.043,-25.391,-26.855,-24.414,0.000
1714024953.598,-15.625,-31.250,-34.180,-33.203,0.000
1714024953.602,-20.996,-28.320,-29.297,-34.668,0.000
1714024953.606,-27.832,-26.367,-20.020,-31.250,0.000
1714024953.610,-31.250,-32.227,-25.391,-37.109,0.000
1714024953.614,-27.832,-28.809,-30.762,-33.203,0.000
1714024953.618,-28.320,-21.484,-29.785,-29.297,0.000
1714024953.622,-26.367,-20.508,-22.461,-32.715,0.000
1714024953.626,-21.484,-23.438,-20.020,-22.461,0.000
1714024953.630,-17.090,-26.855,-18.555,-18.555,0.000
1714024953.634,-17.090,-23.926,-20.996,-27.832,0.000
1714024953.638,-21.973,-22.949,-30.273,-31.250,0.000
1714024953.642,-18.555,-23.926,-33.691,-15.137,0.000
1714024953.645,-16.113,-24.902,-33.691,-10.254,0.000
1714024953.649,-21.973,-24.414,-30.273,-17.090,0.000
1714024953.653,-27.344,-20.508,-29.297,-21.484,0.000
1714024953.657,-29.297,-18.066,-31.250,-23.438,0.000
1714024953.661,-32.227,-16.113,-28.809,-15.137,0.000
1714024953.665,-34.668,-16.113,-28.320,-21.973,0.000
1714024953.669,-38.086,-19.043,-33.203,-27.832,0.000
1714024953.673,-34.668,-25.391,-32.715,-17.090,0.000
1714024953.677,-33.691,-29.785,-26.855,-13.184,0.000
1714024953.680,-37.109,-28.320,-29.785,-21.973,0.000
1714024953.684,-39.062,-29.297,-35.156,-30.762,0.000
1714024953.688,-38.086,-30.762,-38.086,-32.227,0.000
1714024953.692,-36.621,-25.879,-32.227,-36.133,0.000
1714024953.696,-34.180,-24.414,-29.297,-30.273,0.000
1714024953.700,-34.180,-26.367,-32.715,-29.785,0.000
1714024953.704,-34.668,-26.855,-28.320,-36.621,0.000
1714024953.708,-33.691,-25.879,-24.414,-25.879,0.000
1714024953.712,-31.250,-20.996,-21.973,-21.973,0.000
1714024953.716,-27.832,-19.531,-22.949,-26.367,0.000
1714024953.720,-29.785,-21.484,-24.414,-32.227,0.000
1714024953.723,-24.414,-22.461,-16.602,-29.785,0.000
1714024953.727,-21.973,-26.855,-19.531,-26.367,0.000
1714024953.731,-30.762,-32.715,-25.879,-34.180,0.000
1714024953.735,-30.762,-27.832,-21.484,-33.203,0.000
1714024953.739,-25.879,-20.996,-21.484,-24.902,0.000
1714024953.743,-26.855,-25.391,-26.855,-23.438,0.000
1714024953.746,-28.809,-26.855,-25.879,-26.855,0.000
1714024953.750,-30.762,-24.902,-29.785,-33.203,0.000
1714024953.754,-32.227,-24.414,-25.391,-38.574,0.000
1714024953.758,-33.203,-20.508,-21.484,-33.203,0.000
1714024953.762,-36.621,-21.484,-25.879,-28.809,0.000
1714024953.766,-34.668,-24.414,-35.156,-35.645,0.000
1714024953.769,-29.297,-25.391,-34.180,-34.668,0.000
1714024953.773,-36.133,-28.320,-24.902,-30.762,0.000
1714024953.777,-30.273,-21.484,-25.391,-25.391,0.000
1714024953.781,-20.996,-18.066,-26.367,-29.297,0.000
1714024953.785,-32.227,-30.273,-18.066,-30.273,0.000
1714024953.789,-35.156,-32.227,-20.508,-29.785,0.000
1714024953.793,-33.691,-27.344,-28.809,-27.344,0.000
1714024953.797,-34.668,-23.438,-27.832,-22.949,0.000
1714024953.800,-37.109,-22.461,-23.438,-34.668,0.000
1714024953.804,-34.180,-24.902,-26.367,-35.156,0.000
1714024953.808,-28.809,-23.438,-27.832,-32.227,0.000
1714024953.812,-23.926,-18.066,-23.438,-30.762,0.000
1714024953.815,-35.156,-20.508,-19.531,-33.691,0.000
1714024953.819,-45.410,-27.832,-25.391,-35.645,0.000
1714024953.823,-41.016,-30.762,-35.156,-35.156,0.000
1714024953.827,-42.969,-27.832,-32.715,-31.250,0.000
1714024953.831,-38.086,-28.320,-26.367,-35.156,0.000
1714024953.835,-34.180,-33.203,-25.879,-41.992,0.000
1714024953.839,-36.621,-31.250,-23.438,-29.297,0.000
1714024953.843,-37.598,-26.367,-19.531,-22.949,0.000
1714024953.847,-32.227,-30.273,-15.137,-27.344,0.000
1714024953.850,-27.832,-29.785,-20.508,-32.715,0.000
1714024953.854,-29.297,-25.879,-26.367,-36.133,0.000
1714024953.858,-26.855,-23.926,-27.832,-35.645,0.000
1714024953.861,-22.949,-26.855,-28.809,-37.109,0.000
1714024953.865,-17.090,-27.344,-27.344,-44.434,0.000
1714024953.869,-20.508,-24.902,-26.367,-42.480,0.000
1714024953.873,-25.879,-27.832,-24.414,-29.785,0.000
1714024953.877,-24.414,-25.879,-24.414,-26.855,0.000
1714024953.881,-27.832,-23.926,-28.809,-27.344,0.000
1714024953.885,-36.133,-25.391,-27.832,-27.832,0.000
1714024953.888,-38.574,-28.320,-27.832,-29.297,0.000
1714024953.892,-28.320,-28.320,-30.762,-26.855,0.000
1714024953.896,-31.738,-32.227,-36.133,-34.668,0.000
1714024953.900,-41.992,-29.297,-35.645,-33.203,0.000
1714024953.904,-38.574,-27.344,-34.668,-28.320,0.000
1714024953.909,-30.762,-25.391,-28.809,-22.461,0.000
1714024953.913,-27.344,-23.438,-25.391,-26.367,0.000
1714024953.917,-35.645,-25.391,-34.668,-37.598,0.000
1714024953.921,-38.574,-23.438,-35.156,-34.180,0.000
1714024953.925,-27.344,-22.949,-27.344,-21.973,0.000
1714024953.929,-26.367,-26.367,-34.668,-18.555,0.000
1714024953.933,-26.855,-23.438,-36.133,-22.949,0.000
1714024953.937,-27.344,-21.484,-29.297,-27.832,0.000
1714024953.941,-35.156,-23.926,-30.762,-33.203,0.000
1714024953.944,-33.203,-22.461,-36.133,-26.367,0.000
1714024953.948,-32.715,-21.484,-32.715,-27.832,0.000
1714024953.952,-39.062,-20.508,-31.250,-32.715,0.000
1714024953.957,-38.574,-22.461,-29.785,-31.738,0.000
1714024953.961,-31.250,-23.926,-26.855,-31.250,0.000
1714024953.965,-25.879,-20.508,-29.297,-29.297,0.000
1714024953.969,-17.090,-18.066,-27.832,-31.738,0.000
1714024953.972,-20.508,-22.949,-27.344,-37.598,0.000
1714024953.976,-25.879,-24.414,-27.344,-32.715,0.000
1714024953.980,-23.438,-20.996,-25.879,-29.785,0.000
1714024953.984,-27.832,-23.438,-28.320,-33.203,0.000
1714024953.988,-31.250,-26.367,-27.832,-28.809,0.000
1714024953.992,-30.273,-22.461,-25.391,-20.020,0.000
1714024953.996,-25.879,-20.020,-26.855,-22.461,0.000
1714024954.000,-23.926,-21.484,-24.414,-28.809,0.000
1714024954.004,-30.273,-25.391,-18.066,-30.762,0.000
1714024954.008,-30.273,-23.926,-22.949,-30.762,0.000
1714024954.012,-21.484,-23.926,-24.414,-28.809,0.000
1714024954.016,-28.320,-29.297,-30.273,-31.738,0.000
1714024954.020,-38.574,-28.320,-37.598,-35.156,0.000
1714024954.024,-33.691,-28.809,-34.668,-29.297,0.000
1714024954.027,-35.645,-22.949,-28.320,-28.809,0.000
1714024954.031,-34.180,-18.066,-22.949,-31.738,0.000
1714024954.035,-31.738,-26.367,-23.438,-33.203,0.000
1714024954.039,-37.598,-26.367,-20.508,-41.016,0.000
1714024954.043,-32.227,-19.043,-26.855,-43.945,0.000
1714024954.047,-24.902,-19.531,-29.297,-38.574,0.000
1714024954.051,-22.949,-23.438,-27.344,-41.992,0.000
1714024954.055,-26.855,-24.902,-28.809,-51.270,0.000
1714024954.059,-32.227,-24.414,-22.949,-37.598,0.000
1714024954.063,-26.855,-24.414,-19.531,-31.738,0.000
1714024954.067,-26.855,-20.020,-21.484,-38.574,0.000
1714024954.070,-37.598,-18.555,-30.273,-49.316,0.000
1714024954.074,-40.527,-17.578,-23.926,-47.363,0.000
1714024954.078,-42.480,-13.184,-20.996,-41.504,0.000
1714024954.082,-46.875,-14.648,-23.438,-47.852,0.000
1714024954.086,-58.105,-20.996,-18.555,-63.965,0.000
1714024954.090,-65.918,-30.273,-20.020,-77.637,0.000
1714024954.094,-63.965,-31.250,-25.391,-77.148,0.000
1714024954.098,0.000,-22.949,-18.555,-82.520,0.000
1714024954.101,0.000,-24.902,-12.207,-93.750,0.000
1714024954.105,0.000,-27.344,-13.184,-97.168,0.000
1714024954.109,0.000,-28.320,-17.578,-87.891,0.000
1714024954.113,0.000,-25.879,-18.555,-89.355,0.000
1714024954.117,0.000,-25.391,-16.602,-108.398,0.000
1714024954.121,0.000,-29.297,-20.508,-113.281,0.000
1714024954.125,0.000,-27.344,-14.648,-107.422,0.000
1714024954.129,0.000,-24.902,-4.883,-102.051,0.000
1714024954.133,0.000,-26.855,-9.766,-105.957,0.000
1714024954.137,0.000,-34.180,-17.090,-104.492,0.000
1714024954.140,0.000,-40.039,-18.066,-92.285,0.000
1714024954.144,-71.289,-37.598,-15.625,-83.008,0.000
1714024954.148,-64.453,-30.273,-14.160,-79.590,0.000
1714024954.152,-63.477,-28.809,-17.578,-79.102,0.000
1714024954.156,-59.570,-30.762,-13.184,-73.730,0.000
1714024954.159,-53.711,-28.809,-13.184,-67.383,0.000
1714024954.163,-55.664,-29.297,-20.508,-68.359,0.000
1714024954.167,-60.059,-32.227,-28.320,-68.359,0.000
1714024954.171,-54.199,-36.133,-31.738,-50.293,0.000
1714024954.175,-54.199,-30.762,-27.832,-41.504,0.000
1714024954.179,-50.293,-25.879,-25.391,-44.922,0.000
1714024954.183,-44.434,-28.320,-30.273,-45.898,0.000
1714024954.187,-40.527,-28.320,-19.043,-39.551,0.000
1714024954.190,-34.180,-25.391,-6.348,-33.691,0.000
1714024954.194,-37.109,-20.508,-18.555,-34.668,0.000
1714024954.198,-37.109,-24.902,-20.020,-38.086,0.000
1714024954.202,-28.320,-20.020,-16.113,-38.086,0.000
1714024954.206,-34.180,-21.484,-25.391,-36.621,0.000
1714024954.209,-46.387,-37.598,-27.344,-48.340,0.000
1714024954.213,-52.734,-36.133,-20.508,-56.152,0.000
1714024954.217,-54.199,-27.344,-19.531,-59.082,0.000
1714024954.221,-60.547,-21.484,-20.020,-69.336,0.000
1714024954.225,-66.406,-22.461,-16.113,-71.289,0.000
1714024954.229,-72.266,-28.320,-13.672,-73.242,0.000
1714024954.233,-93.750,-25.391,-7.324,-93.750,0.000
1714024954.238,-100.098,-22.949,-4.883,-100.098,0.000
1714024954.242,-96.680,-26.367,-0.977,-104.980,0.000
1714024954.246,-108.887,-29.297,1.953,-114.258,0.000
1714024954.250,-116.211,-28.320,7.812,-115.234,0.000
1714024954.254,-109.375,-26.367,14.648,-110.352,0.000
1714024954.258,-103.027,-24.414,5.859,-106.934,0.000
1714024954.262,-96.680,-24.414,0.977,-103.027,0.000
1714024954.266,-94.727,-25.391,7.324,-103.516,0.000
1714024954.270,-98.145,-27.344,4.883,-99.609,0.000
1714024954.273,-90.820,-33.203,-6.348,-86.426,0.000
1714024954.277,-79.590,-37.598,-10.254,-78.613,0.000
1714024954.281,-80.078,-41.016,-9.277,-77.637,0.000
1714024954.286,-73.242,-43.457,-18.555,-69.824,0.000
1714024954.290,-54.688,-40.039,-14.648,-55.664,0.000
1714024954.294,-49.316,-44.434,-5.859,-51.758,0.000
1714024954.298,-41.504,-44.922,-11.230,-48.340,0.000
1714024954.302,-28.320,-41.504,-25.879,-34.668,0.000
1714024954.306,-23.926,-43.457,-32.715,-26.855,0.000
1714024954.310,-24.414,-42.969,-30.273,-25.391,0.000
1714024954.314,-16.113,-37.598,-33.203,-20.508,0.000
1714024954.317,-8.301,-35.156,-36.133,-16.602,0.000
1714024954.321,-8.789,-40.527,-36.621,-3.906,0.000
1714024954.325,-7.324,-35.645,-32.227,-0.977,0.000
1714024954.329,2.441,-28.320,-30.273,-1.465,0.000
1714024954.334,7.324,-25.879,-35.645,-0.977,0.000
1714024954.337,0.000,-24.414,-37.598,-10.742,0.000
1714024954.341,2.441,-23.926,-41.992,-9.277,0.000
1714024954.345,5.859,-24.414,-45.410,1.953,0.000
1714024954.349,0.977,-27.832,-41.504,2.930,0.000
1714024954.353,8.301,-29.297,-37.109,2.930,0.000
1714024954.357,11.719,-33.691,-40.527,10.254,0.000
1714024954.361,7.324,-31.738,-42.969,23.926,0.000
1714024954.365,16.113,-26.855,-35.645,30.762,0.000
1714024954.369,17.090,-23.438,-26.367,33.691,0.000
1714024954.373,20.020,-18.555,-28.320,35.645,0.000
1714024954.377,24.414,-20.996,-40.039,25.879,0.000
1714024954.381,18.555,-21.484,-48.340,17.090,0.000
1714024954.385,16.602,-19.531,-48.828,17.090,0.000
1714024954.388,14.648,-22.949,-44.434,12.207,0.000
1714024954.392,14.160,-29.297,-43.457,14.648,0.000
1714024954.396,18.555,-26.855,-38.574,24.414,0.000
1714024954.400,14.648,-23.438,-34.180,17.578,0.000
1714024954.404,1.465,-23.926,-43.457,3.906,0.000
1714024954.408,0.488,-19.531,-49.316,11.719,0.000
1714024954.412,4.883,-15.137,-48.340,23.926,0.000
1714024954.416,6.836,-15.137,-39.062,19.043,0.000
1714024954.420,9.766,-17.090,-33.203,10.254,0.000
1714024954.424,5.371,-20.508,-38.574,9.766,0.000
1714024954.427,7.324,-20.996,-35.156,16.113,0.000
1714024954.431,9.766,-20.020,-28.809,11.230,0.000
1714024954.435,0.000,-21.484,-37.109,-4.883,0.000
1714024954.439,-7.812,-26.367,-46.875,-10.254,0.000
1714024954.443,-0.488,-30.762,-42.969,-3.418,0.000
1714024954.447,-0.488,-26.367,-34.668,2.930,0.000
1714024954.451,-4.395,-22.461,-39.551,-2.441,0.000
1714024954.455,-3.906,-23.438,-41.016,-3.418,0.000
1714024954.458,-3.418,-21.973,-37.598,2.441,0.000
1714024954.462,-1.465,-20.508,-32.227,-3.418,0.000
1714024954.466,-3.906,-19.531,-31.738,-3.418,0.000
1714024954.470,-5.371,-18.555,-40.039,-2.930,0.000
1714024954.476,-9.277,-23.926,-40.527,-9.766,0.000
1714024954.480,-8.789,-22.949,-36.133,-3.906,0.000
1714024954.484,-6.348,-20.996,-34.668,-2.441,0.000
1714024954.488,-7.812,-19.043,-33.691,-11.230,0.000
1714024954.492,-13.184,-23.926,-37.598,-14.648,0.000
1714024954.496,-12.695,-29.785,-40.039,-7.812,0.000
1714024954.500,-7.324,-22.949,-36.133,-3.906,0.000
1714024954.503,-2.930,-20.996,-35.645,-4.395,0.000
1714024954.507,-7.324,-19.531,-33.203,-6.348,0.000
1714024954.511,-13.184,-19.043,-33.691,-13.184,0.000
1714024954.515,-12.207,-20.508,-34.180,-9.766,0.000
1714024954.519,-13.184,-20.508,-34.180,-10.254,0.000
1714024954.522,-16.113,-19.043,-38.086,-17.090,0.000
1714024954.526,-21.484,-19.043,-39.551,-17.578,0.000
1714024954.530,-25.391,-25.391,-36.133,-24.902,0.000
1714024954.534,-21.484,-25.391,-34.180,-30.273,0.000
1714024954.537,-21.484,-23.438,-40.039,-27.832,0.000
1714024954.541,-21.973,-26.367,-38.574,-23.438,0.000
1714024954.545,-14.648,-27.344,-30.762,-14.648,0.000
1714024954.549,-11.719,-25.879,-28.809,-15.137,0.000
1714024954.553,-14.160,-23.438,-26.855,-23.438,0.000
1714024954.557,-17.578,-27.832,-34.668,-21.484,0.000
1714024954.561,-13.672,-28.320,-45.898,-14.648,0.000
1714024954.565,-12.207,-25.879,-37.598,-17.578,0.000
1714024954.567,-10.742,-20.996,-24.902,-20.508,0.000
1714024954.571,-12.695,-19.043,-32.227,-23.926,0.000
1714024954.575,-20.508,-20.996,-34.180,-26.367,0.000
1714024954.579,-18.555,-20.020,-29.297,-29.297,0.000
1714024954.583,-15.137,-20.508,-26.367,-33.691,0.000
1714024954.587,-19.043,-20.020,-30.273,-32.715,0.000
1714024954.591,-18.555,-17.578,-37.598,-25.879,0.000
1714024954.595,-6.836,-21.484,-35.156,-21.484,0.000
1714024954.599,-6.348,-22.461,-29.785,-30.273,0.000
1714024954.603,-13.184,-23.926,-29.297,-45.410,0.000
1714024954.606,-11.230,-24.902,-34.180,-36.621,0.000
1714024954.610,-7.812,-21.484,-28.809,-21.973,0.000
1714024954.613,-8.789,-24.414,-28.320,-34.180,0.000
1714024954.617,-17.090,-28.809,-33.691,-41.992,0.000
1714024954.621,-18.066,-23.926,-33.203,-36.133,0.000
1714024954.625,-17.578,-20.020,-31.738,-23.438,0.000
1714024954.629,-19.043,-21.973,-31.250,-23.438,0.000
1714024954.633,-19.531,-21.484,-25.391,-30.762,0.000
1714024954.636,-22.949,-21.484,-25.391,-27.832,0.000
1714024954.640,-24.902,-25.879,-28.809,-26.367,0.000
1714024954.644,-30.273,-29.785,-34.180,-33.691,0.000
1714024954.648,-34.180,-28.320,-33.203,-35.645,0.000
1714024954.652,-31.250,-28.320,-29.785,-30.762,0.000
1714024954.656,-25.879,-22.949,-25.879,-27.832,0.000
1714024954.661,-24.902,-18.555,-20.508,-22.461,0.000
1714024954.665,-22.949,-23.926,-26.367,-18.555,0.000
1714024954.669,-23.438,-22.461,-33.203,-29.785,0.000
1714024954.673,-27.832,-21.973,-34.668,-33.203,0.000
1714024954.676,-23.926,-22.949,-35.645,-26.855,0.000
1714024954.680,-18.066,-19.531,-33.691,-25.391,0.000
1714024954.684,-18.555,-23.438,-30.762,-31.738,0.000
1714024954.688,-19.043,-25.879,-30.762,-37.598,0.000
1714024954.692,-16.602,-26.367,-33.691,-27.344,0.000
1714024954.696,-19.043,-30.273,-34.668,-12.695,0.000
1714024954.700,-22.949,-30.762,-28.320,-17.090,0.000
1714024954.704,-20.508,-37.598,-25.879,-30.762,0.000
1714024954.708,-22.949,-40.527,-28.809,-28.809,0.000
1714024954.712,-24.414,-37.598,-30.273,-24.414,0.000
1714024954.716,-22.461,-32.715,-30.762,-28.320,0.000
1714024954.720,-20.508,-30.273,-32.715,-27.344,0.000
1714024954.724,-20.508,-32.715,-37.598,-29.785,0.000
1714024954.728,-20.508,-29.785,-32.227,-30.762,0.000
1714024954.732,-20.996,-32.227,-30.762,-28.320,0.000
1714024954.736,-27.344,-35.645,-37.598,-35.645,0.000
1714024954.740,-27.344,-38.086,-31.250,-34.180,0.000
1714024954.743,-22.461,-34.180,-22.949,-18.066,0.000
1714024954.747,-26.855,-31.250,-22.461,-28.320,0.000
1714024954.751,-25.879,-29.785,-24.414,-34.180,0.000
1714024954.755,-22.949,-25.391,-27.344,-23.926,0.000
1714024954.759,-28.320,-23.926,-24.902,-27.344,0.000
1714024954.763,-25.879,-25.391,-22.949,-29.297,0.000
1714024954.767,-24.414,-27.832,-31.738,-31.738,0.000
1714024954.771,-35.156,-34.668,-41.992,-37.109,0.000
1714024954.775,-36.621,-32.227,-36.133,-36.621,0.000
1714024954.779,-31.738,-23.926,-27.832,-35.156,0.000
1714024954.783,-33.203,-27.832,-29.297,-34.180,0.000
1714024954.787,-35.156,-29.297,-34.668,-37.109,0.000
1714024954.791,-27.832,-26.367,-32.715,-34.668,0.000
1714024954.794,-22.461,-26.367,-26.855,-29.785,0.000
1714024954.798,-30.273,-31.738,-28.809,-37.109,0.000
1714024954.802,-34.668,-34.180,-35.156,-48.340,0.000
1714024954.806,-30.273,-29.297,-38.574,-40.527,0.000
1714024954.810,-29.785,-28.809,-36.621,-32.227,0.000
1714024954.814,-31.250,-32.715,-35.645,-31.738,0.000
1714024954.818,-33.203,-32.715,-39.551,-32.715,0.000
1714024954.822,-30.273,-28.320,-35.645,-30.762,0.000
1714024954.825,-28.320,-27.832,-32.715,-25.391,0.000
1714024954.829,-26.855,-30.273,-34.668,-22.949,0.000
1714024954.833,-26.367,-25.879,-36.133,-17.578,0.000
1714024954.837,-21.484,-15.625,-29.785,-21.973,0.000
1714024954.841,-18.066,-14.648,-26.855,-27.344,0.000
1714024954.845,-21.484,-20.020,-28.320,-22.461,0.000
1714024954.848,-23.926,-21.484,-24.902,-27.832,0.000
1714024954.852,-30.762,-22.949,-24.414,-40.039,0.000
1714024954.856,-26.367,-20.508,-24.414,-37.598,0.000
1714024954.860,-24.902,-21.973,-25.391,-29.297,0.000
1714024954.864,-30.762,-24.902,-32.715,-34.180,0.000
1714024954.868,-34.180,-28.809,-31.250,-40.527,0.000
1714024954.872,-29.785,-28.320,-24.902,-37.598,0.000
1714024954.876,-20.996,-22.461,-19.043,-23.926,0.000
1714024954.880,-22.461,-23.438,-24.414,-22.461,0.000
1714024954.883,-27.344,-23.438,-28.320,-29.297,0.000
1714024954.887,-25.391,-20.508,-21.484,-30.762,0.000
1714024954.891,-26.855,-25.391,-23.926,-31.250,0.000
1714024954.895,-29.297,-27.344,-24.902,-22.949,0.000
1714024954.898,-31.250,-23.926,-20.020,-23.926,0.000
1714024954.902,-31.738,-28.809,-24.414,-34.668,0.000
1714024954.906,-29.785,-28.809,-29.297,-25.391,0.000
1714024954.910,-27.832,-24.414,-28.809,-16.113,0.000
1714024954.914,-23.926,-24.902,-27.344,-20.996,0.000
1714024954.918,-19.043,-21.973,-22.949,-19.531,0.000
1714024954.922,-24.414,-21.484,-18.066,-11.230,0.000
1714024954.926,-28.809,-23.438,-22.461,-16.113,0.000
1714024954.930,-22.949,-21.484,-25.391,-18.066,0.000
1714024954.934,-23.926,-22.461,-23.926,-18.066,0.000
1714024954.937,-27.344,-22.949,-24.902,-22.461,0.000
1714024954.940,-25.879,-16.602,-18.555,-22.949,0.000
1714024954.944,-22.461,-10.254,-14.160,-19.043,0.000
1714024954.948,-15.625,-9.277,-8.301,-23.438,0.000
1714024954.952,-15.625,-12.695,-11.719,-31.250,0.000
1714024954.956,-22.461,-22.461,-23.438,-25.879,0.000
1714024954.960,-27.832,-25.879,-25.391,-24.414,0.000
1714024954.964,-26.367,-28.809,-32.227,-28.809,0.000
1714024954.968,-28.320,-30.762,-29.297,-30.762,0.000
1714024954.972,-30.762,-28.809,-21.484,-38.086,0.000
1714024954.976,-27.832,-26.367,-15.625,-31.250,0.000
1714024954.980,-25.879,-22.949,-18.066,-22.461,0.000
1714024954.983,-34.180,-24.414,-30.762,-34.180,0.000
1714024954.986,-38.574,-23.438,-29.297,-27.832,0.000
1714024954.990,-28.809,-18.066,-18.555,-17.090,0.000
1714024954.994,-28.320,-20.020,-21.484,-29.297,0.000
1714024954.998,-30.762,-21.973,-30.273,-41.992,0.000
1714024955.002,-36.133,-20.020,-25.879,-39.062,0.000
1714024955.006,-46.875,-20.996,-19.531,-36.133,0.000
1714024955.010,-47.852,-18.066,-9.766,-43.457,0.000
1714024955.014,-45.898,-20.020,-10.254,-51.270,0.000
1714024955.017,-49.316,-25.391,-12.695,-51.270,0.000
1714024955.021,-57.129,-27.832,-15.625,-48.828,0.000
1714024955.025,-62.500,-29.785,-12.695,-50.781,0.000
1714024955.029,-66.895,-31.738,0.488,-66.406,0.000
1714024955.034,-84.961,-36.621,3.418,-88.379,0.000
1714024955.038,-101.074,-40.039,-1.953,-100.098,0.000
1714024955.042,-108.887,-34.180,-1.465,-102.539,0.000
1714024955.046,-113.281,-30.762,4.395,-110.840,0.000
1714024955.050,-113.770,-33.691,5.859,-117.188,0.000
1714024955.054,-117.188,-37.109,-1.953,-112.793,0.000
1714024955.058,-113.770,-34.668,2.441,-107.910,0.000
1714024955.062,-109.375,-28.320,13.672,-110.352,0.000
1714024955.066,-106.934,-28.320,7.812,-112.305,0.000
1714024955.070,-103.027,-31.250,0.977,-104.980,0.000
1714024955.073,-102.539,-31.738,4.395,-110.352,0.000
1714024955.077,-100.586,-31.738,2.930,-118.164,0.000
1714024955.082,-100.098,-28.809,3.906,-108.398,0.000
1714024955.086,-105.957,-28.320,9.277,-106.934,0.000
1714024955.090,-103.027,-29.785,7.812,-99.609,0.000
1714024955.094,-92.285,-32.715,4.395,-86.914,0.000
1714024955.098,-87.891,-38.574,2.930,-84.961,0.000
1714024955.102,-89.355,-38.574,-2.930,-90.332,0.000
1714024955.105,-82.031,-31.738,-4.883,-84.473,0.000
1714024955.109,-73.242,-27.344,-2.441,-83.008,0.000
1714024955.113,-69.824,-27.344,-11.230,-81.543,0.000
1714024955.117,-66.406,-30.762,-15.137,-76.660,0.000
1714024955.121,-66.406,-32.227,-12.207,-82.520,0.000
1714024955.125,-67.383,-31.250,-15.625,-81.543,0.000
1714024955.132,-62.012,-30.762,-21.484,-77.637,0.000
1714024955.136,-64.453,-34.668,-22.949,-85.449,0.000
1714024955.140,-68.848,-33.691,-21.484,-84.961,0.000
1714024955.143,-65.918,-25.879,-19.043,-77.148,0.000
1714024955.147,-66.895,-30.273,-15.625,-77.148,0.000
1714024955.151,-77.637,-38.086,-13.672,-86.426,0.000
1714024955.155,-84.473,-33.691,-7.324,-90.332,0.000
1714024955.159,-77.148,-32.227,-0.488,-78.125,0.000
1714024955.163,-78.125,-33.691,-3.906,-82.031,0.000
1714024955.167,-92.285,-34.180,-7.324,-92.773,0.000
1714024955.171,-100.586,-34.668,-5.371,-93.750,0.000
1714024955.175,-100.098,-37.109,-10.254,-96.680,0.000
1714024955.178,-97.168,-35.645,-11.230,-93.750,0.000
1714024955.182,-100.586,-32.227,-7.324,-97.168,0.000
1714024955.186,-98.145,-31.738,-10.254,-107.422,0.000
1714024955.190,-87.402,-31.250,-12.695,-93.262,0.000
1714024955.194,-73.730,-31.250,-10.254,-71.289,0.000
1714024955.198,-63.965,-32.227,-16.113,-67.383,0.000
1714024955.202,-58.594,-29.297,-20.996,-63.477,0.000
1714024955.205,-52.734,-26.855,-23.438,-55.664,0.000
1714024955.209,-53.711,-29.785,-21.973,-50.781,0.000
1714024955.213,-53.223,-31.738,-22.461,-45.898,0.000
1714024955.217,-41.992,-29.297,-26.367,-45.898,0.000
1714024955.221,-32.227,-24.414,-31.738,-36.133,0.000
1714024955.224,-32.227,-23.926,-40.039,-26.367,0.000
1714024955.228,-26.855,-25.391,-36.621,-30.762,0.000
1714024955.232,-20.508,-23.438,-37.598,-32.715,0.000
1714024955.236,-13.184,-25.879,-40.527,-32.227,0.000
1714024955.240,-8.789,-29.297,-36.133,-27.832,0.000
1714024955.244,-3.418,-31.738,-41.504,-12.695,0.000
1714024955.248,2.930,-31.738,-52.734,-3.906,0.000
1714024955.252,0.000,-33.203,-54.688,-20.996,0.000
1714024955.256,-5.371,-30.762,-51.758,-18.555,0.000
1714024955.259,-2.930,-25.391,-55.176,-1.953,0.000
1714024955.263,0.488,-25.391,-54.688,-1.465,0.000
1714024955.267,2.930,-27.344,-47.363,-5.859,0.000
1714024955.270,2.930,-33.691,-51.270,-11.230,0.000
1714024955.274,3.906,-37.109,-56.641,-4.395,0.000
1714024955.278,5.371,-32.715,-54.688,3.418,0.000
1714024955.282,9.766,-29.297,-53.711,5.371,0.000
1714024955.286,21.484,-25.879,-56.152,9.766,0.000
1714024955.290,24.902,-25.879,-58.594,13.184,0.000
1714024955.294,21.973,-27.832,-60.547,19.043,0.000
1714024955.298,20.020,-27.344,-55.664,32.715,0.000
1714024955.302,19.531,-31.738,-45.898,26.367,0.000
1714024955.306,20.996,-31.738,-51.270,18.066,0.000
1714024955.309,20.020,-26.855,-55.664,19.531,0.000
1714024955.313,15.137,-26.367,-51.758,11.719,0.000
1714024955.316,15.137,-22.949,-47.363,13.184,0.000
1714024955.320,15.625,-19.531,-48.828,14.648,0.000
1714024955.324,13.184,-20.996,-58.105,7.324,0.000
1714024955.328,14.648,-21.484,-54.688,12.207,0.000
1714024955.332,11.719,-23.926,-46.387,7.812,0.000
1714024955.336,4.883,-24.902,-55.664,-1.465,0.000
1714024955.340,2.930,-26.855,-69.336,4.883,0.000
1714024955.344,10.742,-20.020,-58.594,14.648,0.000
1714024955.347,16.113,-16.602,-44.922,13.672,0.000
1714024955.351,21.973,-21.973,-52.734,14.648,0.000
1714024955.355,24.902,-22.461,-52.734,11.719,0.000
1714024955.359,35.645,-13.672,-45.410,17.578,0.000
1714024955.362,45.410,-15.137,-47.363,21.973,0.000
1714024955.366,41.504,-20.996,-53.711,14.648,0.000
1714024955.370,39.062,-19.043,-57.617,18.066,0.000
1714024955.374,37.109,-19.531,-52.734,18.066,0.000
1714024955.377,29.785,-19.531,-43.457,21.484,0.000
1714024955.381,23.438,-21.484,-43.945,18.555,0.000
1714024955.385,19.531,-20.996,-45.410,13.672,0.000
1714024955.389,11.719,-20.508,-38.086,23.926,0.000
1714024955.393,6.348,-24.414,-38.086,24.902,0.000
1714024955.397,0.488,-24.902,-45.410,11.719,0.000
1714024955.401,8.789,-19.043,-40.039,11.719,0.000
1714024955.405,10.742,-23.438,-27.832,15.137,0.000
1714024955.410,0.977,-32.227,-33.203,4.883,0.000
1714024955.414,-1.465,-31.250,-45.898,-4.883,0.000
1714024955.418,-4.883,-26.367,-41.016,-15.625,0.000
1714024955.422,-4.395,-28.320,-33.203,-17.578,0.000
1714024955.425,-3.906,-29.297,-34.668,-11.719,0.000
1714024955.429,-6.836,-31.250,-37.109,-10.742,0.000
1714024955.433,-7.324,-30.273,-31.250,-15.137,0.000
1714024955.437,-12.207,-23.926,-23.926,-14.160,0.000
1714024955.441,-12.695,-27.832,-23.438,-11.230,0.000
1714024955.445,-17.090,-31.250,-27.832,-7.812,0.000
1714024955.449,-21.484,-26.367,-29.297,-12.207,0.000
1714024955.453,-14.160,-24.414,-29.297,-18.555,0.000
1714024955.458,-16.113,-22.461,-27.344,-9.277,0.000
1714024955.461,-17.090,-20.508,-26.855,-3.906,0.000
1714024955.465,-18.555,-20.020,-33.691,-21.484,0.000
1714024955.469,-23.438,-22.949,-35.645,-29.785,0.000
1714024955.473,-21.484,-22.461,-29.785,-17.578,0.000
1714024955.477,-18.555,-20.508,-29.297,-12.207,0.000
1714024955.481,-15.137,-18.555,-31.738,-14.160,0.000
1714024955.485,-9.766,-15.625,-28.320,-13.184,0.000
1714024955.489,-11.719,-16.602,-26.367,-12.695,0.000
1714024955.493,-8.789,-20.020,-27.344,-8.301,0.000
1714024955.497,-8.789,-16.602,-30.273,-15.625,0.000
1714024955.501,-13.672,-17.578,-34.180,-19.043,0.000
1714024955.505,-17.090,-23.926,-35.156,-15.625,0.000
1714024955.509,-18.555,-20.996,-31.738,-17.090,0.000
1714024955.513,-13.184,-15.625,-26.855,-15.625,0.000
1714024955.517,-6.836,-14.648,-26.855,-13.184,0.000
1714024955.520,-9.766,-21.484,-33.691,-19.531,0.000
1714024955.524,-20.508,-27.344,-34.668,-20.020,0.000
1714024955.528,-22.949,-26.367,-31.250,-27.832,0.000
1714024955.532,-17.090,-23.438,-34.180,-30.762,0.000
1714024955.536,-20.020,-23.926,-38.574,-23.438,0.000
1714024955.540,-28.320,-26.367,-27.832,-26.855,0.000
1714024955.544,-25.391,-24.414,-13.184,-22.949,0.000
1714024955.548,-15.137,-24.414,-13.672,-18.555,0.000
1714024955.552,-18.555,-27.832,-20.508,-19.531,0.000
1714024955.555,-25.391,-27.832,-21.484,-19.531,0.000
1714024955.559,-20.996,-29.297,-21.973,-15.137,0.000
1714024955.563,-20.996,-32.715,-24.414,-15.137,0.000
1714024955.567,-27.344,-29.785,-27.344,-29.785,0.000
1714024955.571,-26.855,-24.902,-22.461,-25.879,0.000
1714024955.575,-26.367,-21.973,-15.137,-18.555,0.000
1714024955.579,-29.785,-29.785,-22.949,-20.508,0.000
1714024955.583,-30.273,-26.855,-26.367,-20.996,0.000
1714024955.587,-36.133,-20.508,-18.066,-26.367,0.000
1714024955.591,-40.527,-26.367,-20.020,-26.855,0.000
1714024955.595,-28.809,-24.902,-16.113,-20.508,0.000
1714024955.598,-26.367,-25.879,-11.230,-20.996,0.000
1714024955.602,-30.273,-30.273,-17.090,-28.809,0.000
1714024955.606,-28.320,-27.344,-20.508,-21.484,0.000
1714024955.610,-25.879,-28.320,-20.020,-9.766,0.000
1714024955.614,-22.461,-26.367,-19.531,-15.625,0.000
1714024955.618,-25.879,-24.902,-22.949,-32.227,0.000
1714024955.621,-24.902,-21.973,-25.391,-28.809,0.000
1714024955.625,-21.973,-23.438,-22.461,-8.301,0.000
1714024955.629,-24.902,-25.391,-15.137,-13.184,0.000
1714024955.633,-21.973,-17.090,-13.672,-19.531,0.000
1714024955.637,-20.508,-17.090,-25.391,-18.555,0.000
1714024955.641,-21.973,-20.996,-25.879,-20.020,0.000
1714024955.644,-28.320,-21.973,-22.461,-18.066,0.000
1714024955.648,-24.902,-20.020,-23.926,-22.949,0.000
1714024955.652,-23.438,-26.367,-27.344,-15.137,0.000
1714024955.656,-22.461,-23.438,-27.344,-17.090,0.000
1714024955.660,-24.902,-16.113,-25.879,-17.090,0.000
1714024955.664,-27.832,-19.043,-25.391,-14.648,0.000
1714024955.668,-22.949,-18.066,-24.902,-22.949,0.000
1714024955.672,-20.020,-16.602,-26.855,-15.137,0.000
1714024955.675,-27.344,-17.090,-19.043,-17.578,0.000
1714024955.679,-28.809,-22.461,-15.137,-21.973,0.000
1714024955.683,-20.996,-23.926,-18.066,-16.602,0.000
1714024955.687,-24.902,-19.043,-19.531,-19.531,0.000
1714024955.690,-24.414,-20.020,-20.020,-14.160,0.000
1714024955.694,-24.414,-22.461,-17.578,-17.090,0.000
1714024955.698,-30.762,-23.438,-20.508,-36.621,0.000
1714024955.702,-29.297,-19.531,-19.531,-38.086,0.000
1714024955.706,-25.391,-16.602,-17.578,-29.785,0.000
1714024955.710,-21.484,-14.160,-13.672,-23.438,0.000
1714024955.714,-16.113,-14.160,-14.648,-20.508,0.000
1714024955.718,-11.230,-12.695,-18.066,-19.043,0.000
1714024955.722,-15.625,-16.113,-17.578,-31.738,0.000
1714024955.725,-28.809,-24.902,-26.367,-42.480,0.000
1714024955.729,-35.156,-22.949,-35.156,-36.621,0.000
1714024955.733,-34.180,-21.484,-33.691,-40.039,0.000
1714024955.736,-30.273,-21.484,-27.832,-39.551,0.000
1714024955.740,-24.414,-19.043,-27.344,-29.785,0.000
1714024955.744,-21.973,-18.066,-31.250,-27.832,0.000
1714024955.748,-27.344,-19.531,-24.902,-28.809,0.000
1714024955.752,-25.391,-18.555,-24.414,-27.344,0.000
1714024955.756,-18.555,-18.066,-38.086,-24.902,0.000
1714024955.759,-20.020,-19.043,-43.457,-20.996,0.000
1714024955.763,-22.949,-17.578,-36.621,-22.949,0.000
1714024955.767,-25.391,-22.461,-29.297,-30.273,0.000
1714024955.771,-26.367,-21.973,-27.344,-29.785,0.000
1714024955.775,-24.902,-19.043,-24.902,-27.344,0.000
1714024955.779,-29.297,-22.461,-15.625,-36.621,0.000
1714024955.787,-32.227,-28.809,-20.996,-39.062,0.000
1714024955.791,-33.203,-30.273,-33.691,-33.203,0.000
1714024955.795,-35.156,-28.809,-30.762,-35.156,0.000
1714024955.798,-35.645,-31.250,-26.855,-34.668,0.000
1714024955.802,-35.156,-28.809,-24.902,-26.855,0.000
1714024955.806,-40.039,-30.273,-30.762,-22.949,0.000
1714024955.810,-34.668,-30.762,-26.855,-23.438,0.000
1714024955.814,-24.414,-24.414,-19.043,-27.344,0.000
1714024955.818,-27.832,-21.973,-20.508,-32.227,0.000
1714024955.822,-26.367,-26.367,-22.949,-25.391,0.000
1714024955.826,-26.367,-25.879,-25.879,-28.320,0.000
1714024955.830,-30.762,-21.484,-29.785,-28.809,0.000
1714024955.834,-29.297,-21.973,-29.785,-24.414,0.000
1714024955.838,-27.832,-20.020,-22.949,-21.484,0.000
1714024955.842,-27.344,-20.996,-25.391,-19.043,0.000
1714024955.846,-30.273,-20.508,-30.762,-19.043,0.000
1714024955.850,-26.855,-20.020,-23.926,-14.160,0.000
1714024955.853,-31.738,-22.949,-24.902,-26.367,0.000
1714024955.857,-33.691,-25.879,-35.645,-37.598,0.000
1714024955.861,-29.297,-26.855,-35.645,-25.391,0.000
1714024955.865,-28.320,-22.461,-30.273,-22.949,0.000
1714024955.869,-31.250,-14.648,-31.250,-31.250,0.000
1714024955.873,-38.086,-17.578,-32.227,-29.785,0.000
1714024955.877,-32.227,-19.043,-30.273,-23.438,0.000
1714024955.881,-22.461,-18.555,-32.715,-23.438,0.000
1714024955.885,-22.949,-20.508,-25.879,-29.297,0.000
1714024955.889,-23.926,-16.113,-23.926,-24.902,0.000
1714024955.893,-22.949,-18.066,-30.273,-18.066,0.000
1714024955.896,-21.973,-25.391,-34.668,-18.555,0.000
1714024955.900,-22.461,-23.438,-38.086,-30.273,0.000
1714024955.904,-28.320,-22.949,-36.133,-38.086,0.000
1714024955.908,-34.180,-28.320,-39.551,-33.203,0.000
1714024955.912,-27.832,-26.367,-41.504,-23.438,0.000
1714024955.916,-30.273,-24.902,-38.574,-31.738,0.000
1714024955.920,-35.645,-26.855,-38.086,-45.898,0.000
1714024955.924,-32.715,-26.367,-36.133,-37.109,0.000
1714024955.927,-29.297,-24.414,-31.250,-26.367,0.000
1714024955.931,-30.273,-25.879,-27.344,-27.832,0.000
1714024955.935,-31.738,-29.297,-28.809,-32.715,0.000
1714024955.939,-26.855,-26.367,-32.227,-34.180,0.000
1714024955.943,-25.879,-23.438,-29.297,-30.273,0.000
1714024955.947,-22.949,-23.926,-25.879,-22.949,0.000
1714024955.951,-20.020,-24.902,-24.414,-28.809,0.000
1714024955.955,-21.484,-25.879,-37.598,-38.574,0.000
1714024955.959,-23.438,-25.391,-45.898,-34.180,0.000
1714024955.963,-24.902,-26.367,-35.156,-34.180,0.000
1714024955.966,-20.508,-27.832,-29.297,-34.668,0.000
1714024955.970,-14.648,-27.344,-26.367,-29.785,0.000
1714024955.974,-12.207,-20.020,-22.949,-24.902,0.000
1714024955.978,-10.254,-20.020,-20.996,-20.508,0.000
1714024955.982,-12.695,-26.855,-23.438,-24.414,0.000
1714024955.986,-16.602,-25.879,-30.762,-39.062,0.000
1714024955.989,-17.090,-24.414,-34.668,-41.992,0.000
1714024955.993,-14.160,-26.855,-33.691,-35.156,0.000
1714024955.997,-18.555,-29.785,-33.203,-35.645,0.000
1714024956.001,-25.391,-32.715,-30.762,-27.832,0.000
1714024956.005,-17.090,-26.855,-18.555,-23.926,0.000
1714024956.009,-16.602,-26.855,-13.184,-30.273,0.000
1714024956.013,-20.996,-30.273,-15.625,-28.320,0.000
1714024956.017,-23.926,-29.785,-23.926,-33.691,0.000
1714024956.020,-30.273,-34.180,-29.785,-37.598,0.000
1714024956.024,-31.738,-39.062,-31.738,-36.621,0.000
1714024956.028,-31.250,-37.598,-38.086,-31.738,0.000
1714024956.032,-33.691,-36.133,-41.016,-35.645,0.000
1714024956.036,-29.297,-28.809,-32.227,-37.109,0.000
1714024956.039,-27.344,-25.391,-28.809,-31.250,0.000
1714024956.043,-36.133,-34.180,-27.344,-23.926,0.000
1714024956.047,-37.598,-41.504,-32.715,-27.344,0.000
1714024956.051,-27.832,-34.668,-33.203,-33.203,0.000
1714024956.055,-28.809,-31.250,-32.227,-33.691,0.000
1714024956.059,-31.738,-35.645,-40.039,-35.645,0.000
1714024956.063,-28.320,-35.156,-35.156,-27.832,0.000
1714024956.066,-32.715,-35.645,-25.391,-32.715,0.000
1714024956.070,-32.715,-31.738,-30.273,-32.227,0.000
1714024956.074,-30.273,-27.832,-28.809,-19.043,0.000
1714024956.078,-31.250,-32.227,-21.484,-20.508,0.000
1714024956.082,-28.320,-30.762,-24.414,-25.391,0.000
1714024956.086,-29.785,-27.832,-30.273,-20.020,0.000
1714024956.089,-33.691,-32.227,-32.227,-13.672,0.000
1714024956.093,-34.180,-29.297,-29.785,-21.484,0.000
1714024956.097,-24.902,-26.367,-24.414,-28.809,0.000
1714024956.101,-19.043,-26.855,-23.438,-25.879,0.000
1714024956.105,-15.137,-26.855,-26.855,-19.043,0.000
1714024956.109,-13.184,-28.320,-30.273,-19.043,0.000
1714024956.112,-21.973,-31.250,-36.621,-24.902,0.000
1714024956.115,-21.484,-25.879,-32.227,-17.578,0.000
1714024956.119,-15.625,-19.531,-26.367,-15.137,0.000
1714024956.123,-25.879,-20.020,-22.461,-15.137,0.000
1714024956.127,-32.227,-18.555,-19.043,-11.230,0.000
1714024956.131,-30.273,-18.555,-21.484,-12.207,0.000
1714024956.135,-28.320,-18.066,-20.020,-9.766,0.000
1714024956.139,-23.926,-14.648,-18.555,-11.719,0.000
1714024956.143,-26.367,-16.602,-23.438,-23.926,0.000
1714024956.147,-39.551,-20.996,-29.297,-32.715,0.000
1714024956.151,-45.410,-25.391,-30.273,-41.016,0.000
1714024956.155,-32.227,-22.461,-26.855,-40.527,0.000
1714024956.160,-26.855,-19.531,-26.855,-33.691,0.000
1714024956.164,-31.738,-25.879,-35.645,-38.574,0.000
1714024956.168,-35.645,-28.320,-38.086,-43.457,0.000
1714024956.172,-31.738,-22.949,-27.344,-40.527,0.000
1714024956.175,-24.902,-24.902,-20.020,-28.809,0.000
1714024956.179,-28.320,-32.227,-30.273,-35.156,0.000
1714024956.183,-32.715,-30.273,-34.180,-43.945,0.000
1714024956.187,-30.762,-24.414,-30.762,-40.527,0.000
1714024956.191,-30.762,-29.785,-32.227,-34.668,0.000
1714024956.195,-27.344,-33.691,-35.156,-33.203,0.000
1714024956.199,-24.902,-28.809,-33.691,-32.715,0.000
1714024956.203,-22.461,-30.273,-34.180,-34.180,0.000
1714024956.207,-21.973,-31.250,-32.715,-40.527,0.000
1714024956.211,-23.926,-30.762,-27.832,-40.527,0.000
1714024956.215,-20.020,-32.715,-30.762,-39.551,0.000
1714024956.219,-20.020,-32.715,-33.691,-47.363,0.000
1714024956.223,-19.531,-28.809,-30.762,-41.992,0.000
1714024956.227,-21.484,-24.414,-25.879,-31.250,0.000
1714024956.231,-22.461,-26.855,-29.297,-30.273,0.000
1714024956.235,-24.414,-26.367,-33.691,-37.109,0.000
1714024956.239,-24.414,-25.879,-29.297,-41.016,0.000
1714024956.242,-33.203,-28.809,-23.926,-33.691,0.000
1714024956.246,-38.086,-25.879,-19.043,-32.715,0.000
1714024956.250,-28.320,-25.879,-24.902,-36.133,0.000
1714024956.255,-21.484,-24.414,-32.715,-38.574,0.000
1714024956.259,-15.137,-22.949,-24.414,-24.902,0.000
1714024956.262,-23.926,-24.414,-22.461,-26.367,0.000
1714024956.266,-37.109,-24.414,-24.414,-41.016,0.000
1714024956.270,-41.992,-34.180,-22.461,-34.668,0.000
1714024956.274,-37.109,-37.598,-16.602,-28.809,0.000
1714024956.278,-33.203,-30.273,-20.020,-35.156,0.000
1714024956.282,-33.691,-30.762,-29.785,-36.621,0.000
1714024956.286,-36.621,-39.062,-39.551,-34.180,0.000
1714024956.290,-34.668,-39.062,-39.551,-30.762,0.000
1714024956.294,-31.250,-33.203,-32.227,-31.250,0.000
1714024956.298,-32.715,-28.809,-28.809,-40.527,0.000
1714024956.301,-26.367,-26.855,-31.250,-42.969,0.000
1714024956.305,-28.320,-28.320,-27.832,-33.203,0.000
1714024956.309,-27.832,-27.832,-16.602,-25.391,0.000
1714024956.313,-18.066,-21.973,-14.648,-19.531,0.000
1714024956.317,-15.625,-20.508,-21.484,-21.973,0.000
1714024956.321,-23.438,-27.344,-24.414,-32.715,0.000
1714024956.325,-29.785,-34.180,-24.902,-27.832,0.000
1714024956.329,-25.879,-35.156,-25.879,-21.973,0.000
1714024956.333,-20.020,-32.227,-23.438,-22.461,0.000
1714024956.337,-19.531,-27.832,-19.043,-24.414,0.000
1714024956.340,-21.973,-20.020,-14.160,-24.414,0.000
1714024956.344,-21.973,-20.996,-13.184,-20.508,0.000
1714024956.348,-20.020,-26.855,-17.578,-23.438,0.000
1714024956.352,-20.996,-29.785,-20.508,-32.715,0.000
1714024956.356,-21.973,-28.320,-28.320,-32.227,0.000
1714024956.360,-22.949,-26.367,-36.621,-25.391,0.000
1714024956.364,-23.438,-27.832,-33.691,-23.438,0.000
1714024956.367,-20.508,-25.879,-29.785,-21.484,0.000
1714024956.371,-22.461,-21.973,-32.715,-24.902,0.000
1714024956.375,-22.949,-25.879,-36.133,-18.066,0.000
1714024956.379,-25.879,-28.809,-31.738,-11.719,0.000
1714024956.383,-27.344,-28.809,-25.879,-23.926,0.000
1714024956.387,-23.926,-28.809,-30.762,-29.297,0.000
1714024956.391,-23.926,-25.879,-37.109,-23.926,0.000
1714024956.394,-23.926,-22.461,-35.156,-21.484,0.000
1714024956.398,-25.391,-19.531,-30.273,-23.438,0.000
1714024956.402,-26.855,-21.973,-33.203,-29.297,0.000
1714024956.406,-30.273,-25.879,-29.785,-30.762,0.000
1714024956.410,-30.273,-29.297,-28.809,-30.273,0.000
1714024956.414,-32.227,-34.180,-29.297,-31.738,0.000
1714024956.418,-45.410,-33.691,-34.180,-34.668,0.000
1714024956.422,-42.480,-36.621,-41.992,-29.297,0.000
1714024956.425,-37.109,-36.621,-33.691,-31.738,0.000
1714024956.429,-36.621,-33.203,-25.391,-32.715,0.000
1714024956.433,-29.297,-28.320,-29.785,-35.645,0.000
1714024956.437,-34.668,-27.344,-28.320,-33.691,0.000
1714024956.440,-36.621,-34.668,-21.973,-23.926,0.000
1714024956.444,-33.203,-39.551,-22.461,-27.832,0.000
1714024956.448,-40.527,-41.016,-29.785,-37.109,0.000
1714024956.452,-45.898,-33.691,-28.809,-41.992,0.000
1714024956.456,-40.039,-23.926,-22.461,-37.598,0.000
1714024956.460,-35.645,-26.855,-21.973,-31.250,0.000
1714024956.464,-31.250,-32.227,-28.320,-28.809,0.000
1714024956.468,-32.227,-30.273,-27.832,-30.762,0.000
1714024956.472,-26.855,-28.809,-23.438,-25.391,0.000
1714024956.475,-16.602,-29.785,-22.949,-14.160,0.000
1714024956.479,-25.879,-29.785,-30.273,-37.109,0.000
1714024956.483,-41.992,-30.273,-38.574,-65.918,0.000
1714024956.486,-41.016,-31.250,-35.156,-52.246,0.000
1714024956.490,-29.785,-25.391,-40.527,-36.621,0.000
1714024956.494,-28.809,-20.020,-44.434,-40.039,0.000
1714024956.498,-32.715,-21.973,-39.062,-45.898,0.000
1714024956.502,-29.785,-22.461,-35.645,-42.480,0.000
1714024956.506,-32.715,-27.832,-39.062,-39.062,0.000
1714024956.510,-32.227,-33.203,-45.898,-37.109,0.000
1714024956.513,-21.973,-25.879,-41.504,-38.574,0.000
1714024956.517,-24.414,-24.414,-35.645,-41.992,0.000
1714024956.521,-20.020,-26.367,-38.086,-28.320,0.000
1714024956.525,-18.555,-25.879,-38.086,-23.926,0.000
1714024956.529,-23.438,-28.320,-34.668,-28.809,0.000
1714024956.534,-23.926,-29.785,-34.180,-26.367,0.000
1714024956.538,-29.297,-29.297,-31.738,-26.855,0.000
1714024956.542,-26.855,-28.320,-23.926,-19.043,0.000
1714024956.546,-15.625,-30.273,-20.508,-17.578,0.000
1714024956.550,-14.648,-26.367,-28.809,-23.926,0.000
1714024956.554,-21.973,-27.832,-38.086,-22.949,0.000
1714024956.558,-20.020,-29.297,-33.691,-14.648,0.000
1714024956.562,-9.766,-21.484,-24.414,-12.695,0.000
1714024956.566,-10.254,-24.414,-27.832,-18.555,0.000
1714024956.569,-20.996,-28.809,-32.715,-23.926,0.000
1714024956.573,-23.438,-25.391,-28.809,-23.438,0.000
1714024956.577,-18.066,-21.484,-32.227,-26.855,0.000
1714024956.582,-24.414,-26.855,-41.016,-32.715,0.000
1714024956.586,-28.809,-29.785,-43.457,-32.715,0.000
1714024956.590,-25.879,-26.855,-40.039,-29.785,0.000
1714024956.594,-17.578,-25.391,-35.645,-24.414,0.000
1714024956.598,-17.090,-21.973,-32.227,-25.879,0.000
1714024956.602,-27.344,-21.484,-35.645,-31.738,0.000
1714024956.605,-31.738,-22.461,-30.762,-34.180,0.000
1714024956.609,-30.273,-23.926,-28.809,-38.086,0.000
1714024956.613,-29.785,-27.832,-36.133,-34.180,0.000
1714024956.617,-29.297,-30.273,-37.109,-32.715,0.000
1714024956.621,-27.832,-27.832,-33.203,-41.016,0.000
1714024956.625,-27.832,-30.273,-28.320,-33.203,0.000
1714024956.629,-26.855,-33.203,-26.855,-27.832,0.000
1714024956.633,-29.297,-30.762,-27.832,-33.691,0.000
1714024956.637,-24.902,-28.809,-21.484,-36.133,0.000
1714024956.641,-18.555,-23.926,-17.090,-33.691,0.000
1714024956.645,-14.160,-23.438,-23.926,-29.297,0.000
1714024956.649,-12.207,-20.508,-31.250,-25.391,0.000
1714024956.653,-14.160,-18.555,-26.367,-28.320,0.000
1714024956.657,-16.113,-25.879,-20.996,-29.297,0.000
1714024956.661,-16.113,-28.809,-25.879,-18.066,0.000
1714024956.664,-17.578,-27.832,-27.832,-20.020,0.000
1714024956.668,-22.461,-27.344,-28.320,-35.645,0.000
1714024956.672,-19.531,-26.367,-21.484,-33.691,0.000
1714024956.676,-16.602,-24.414,-16.602,-26.855,0.000
1714024956.680,-24.902,-29.785,-24.414,-29.785,0.000
1714024956.684,-27.344,-35.156,-29.297,-34.180,0.000
1714024956.688,-27.344,-30.273,-30.762,-40.039,0.000
1714024956.692,-21.484,-27.344,-32.227,-31.250,0.000
1714024956.696,-19.531,-25.391,-26.367,-21.484,0.000
1714024956.700,-23.438,-20.508,-12.695,-26.367,0.000
1714024956.703,-28.320,-25.391,-13.672,-34.668,0.000
1714024956.707,-28.320,-29.297,-24.902,-20.996,0.000
1714024956.711,-10.742,-29.785,-22.949,-4.883,0.000
1714024956.715,-21.973,-31.738,-21.973,-15.625,0.000
1714024956.719,-48.828,-28.809,-23.926,-44.922,0.000
1714024956.723,-45.898,-28.320,-16.602,-37.598,0.000
1714024956.727,-44.434,-32.715,-17.090,-21.973,0.000
1714024956.731,-44.922,-32.715,-22.461,-33.691,0.000
1714024956.734,-37.109,-28.320,-18.555,-34.180,0.000
1714024956.738,-40.039,-26.855,-20.996,-31.250,0.000
1714024956.742,-35.645,-26.367,-28.320,-26.855,0.000
1714024956.746,-32.227,-27.832,-28.809,-22.949,0.000
1714024956.750,-37.109,-32.227,-28.809,-22.949,0.000
1714024956.754,-37.109,-35.156,-29.785,-27.832,0.000
1714024956.758,-36.133,-29.785,-27.344,-28.320,0.000
1714024956.762,-31.250,-29.297,-22.949,-21.973,0.000
1714024956.766,-29.297,-31.250,-26.367,-26.855,0.000
1714024956.769,-32.715,-33.691,-34.180,-36.621,0.000
1714024956.773,-26.855,-30.273,-34.668,-32.227,0.000
1714024956.777,-24.902,-29.297,-31.738,-29.297,0.000
1714024956.781,-28.320,-33.203,-28.809,-27.344,0.000
1714024956.785,-29.297,-30.273,-23.438,-29.297,0.000
1714024956.788,-38.086,-33.203,-22.461,-38.086,0.000
1714024956.792,-39.062,-31.250,-25.391,-36.133,0.000
1714024956.796,-33.691,-28.809,-17.090,-21.484,0.000
1714024956.800,-32.715,-23.926,-23.438,-28.809,0.000
1714024956.804,-25.391,-24.414,-29.297,-27.832,0.000
1714024956.808,-21.484,-27.832,-25.391,-20.508,0.000
1714024956.812,-15.137,-21.973,-27.344,-28.320,0.000
1714024956.815,-12.207,-20.020,-27.344,-30.762,0.000
1714024956.819,-13.672,-27.344,-24.902,-39.062,0.000
1714024956.823,-13.184,-27.344,-25.879,-42.969,0.000
1714024956.827,-14.648,-22.461,-26.855,-36.621,0.000
1714024956.831,-20.508,-24.414,-30.762,-36.621,0.000
1714024956.835,-25.879,-28.320,-33.691,-34.180,0.000
1714024956.838,-31.250,-25.879,-32.227,-28.809,0.000
1714024956.842,-35.645,-23.926,-26.367,-28.809,0.000
1714024956.846,-35.645,-29.297,-20.508,-36.133,0.000
1714024956.850,-39.551,-31.738,-19.043,-37.598,0.000
1714024956.854,-39.551,-28.809,-21.973,-31.250,0.000
1714024956.858,-37.598,-29.785,-23.926,-20.508,0.000
1714024956.861,-41.992,-31.738,-27.344,-19.531,0.000
1714024956.865,-34.180,-31.250,-32.227,-25.879,0.000
1714024956.869,-29.297,-30.762,-29.785,-23.926,0.000
1714024956.873,-26.367,-28.809,-23.438,-18.555,0.000
1714024956.876,-24.902,-29.785,-19.043,-18.555,0.000
1714024956.880,-29.297,-37.598,-27.344,-23.926,0.000
1714024956.884,-32.227,-37.598,-38.086,-30.762,0.000
1714024956.888,-28.320,-33.691,-35.156,-33.691,0.000
1714024956.892,-24.902,-26.855,-28.320,-30.273,0.000
1714024956.896,-24.414,-21.973,-31.738,-28.320,0.000
1714024956.900,-21.973,-23.926,-31.738,-28.320,0.000
1714024956.904,-27.832,-22.949,-30.273,-34.668,0.000
1714024956.909,-25.391,-24.902,-31.250,-31.250,0.000
1714024956.913,-16.113,-29.297,-25.879,-25.879,0.000
1714024956.917,-22.461,-27.832,-29.297,-34.180,0.000
1714024956.921,-29.785,-32.227,-33.691,-39.062,0.000
1714024956.925,-25.391,-33.203,-31.250,-33.691,0.000
1714024956.929,-10.254,-26.855,-28.809,-24.902,0.000
1714024956.933,-11.719,-26.367,-30.762,-27.344,0.000
1714024956.937,-23.438,-32.227,-33.203,-31.738,0.000
1714024956.940,-24.414,-36.621,-27.344,-27.344,0.000
1714024956.944,-25.391,-33.691,-28.809,-20.508,0.000
1714024956.948,-27.344,-30.273,-28.320,-26.855,0.000
1714024956.952,-28.320,-34.180,-27.344,-38.574,0.000
1714024956.957,-33.203,-32.715,-35.645,-33.691,0.000
1714024956.961,-31.738,-35.156,-40.527,-32.227,0.000
1714024956.965,-34.668,-40.039,-39.062,-49.316,0.000
1714024956.969,-38.574,-33.691,-32.715,-49.316,0.000
1714024956.973,-40.039,-32.715,-31.250,-41.504,0.000
1714024956.976,-36.133,-37.109,-34.180,-39.551,0.000
1714024956.980,-30.273,-37.109,-31.250,-34.668,0.000
1714024956.984,-28.320,-30.762,-29.785,-33.203,0.000
1714024956.988,-26.367,-29.785,-30.762,-27.832,0.000
1714024956.992,-27.832,-31.250,-25.391,-23.926,0.000
1714024956.996,-31.250,-28.320,-21.484,-29.785,0.000
1714024957.000,-33.691,-31.738,-21.973,-41.016,0.000
1714024957.004,-34.180,-38.086,-25.879,-45.898,0.000
1714024957.008,-30.273,-34.668,-24.902,-38.086,0.000
1714024957.012,-22.949,-29.297,-19.043,-35.645,0.000
1714024957.016,-23.438,-29.785,-19.043,-37.109,0.000
1714024957.020,-26.367,-30.273,-23.926,-39.551,0.000
1714024957.024,-29.785,-30.762,-29.297,-37.598,0.000
1714024957.028,-32.715,-31.250,-29.785,-32.715,0.000
1714024957.032,-30.762,-34.668,-26.855,-35.645,0.000
1714024957.036,-33.203,-33.203,-29.297,-31.738,0.000
1714024957.039,-28.320,-23.438,-21.484,-27.344,0.000
1714024957.043,-28.809,-25.879,-17.090,-32.715,0.000
1714024957.047,-38.574,-36.621,-25.879,-39.062,0.000
1714024957.051,-36.621,-34.668,-26.367,-44.922,0.000
1714024957.055,-35.156,-25.391,-22.461,-41.504,0.000
1714024957.059,-39.062,-21.973,-23.926,-36.133,0.000
1714024957.063,-32.227,-24.414,-26.367,-31.738,0.000
1714024957.067,-27.344,-29.297,-22.461,-28.809,0.000
1714024957.071,-30.273,-30.273,-22.461,-29.297,0.000
1714024957.075,-35.156,-30.273,-22.461,-32.715,0.000
1714024957.078,-33.203,-27.344,-23.926,-31.738,0.000
1714024957.082,-34.180,-26.855,-25.879,-30.762,0.000
1714024957.086,-38.574,-31.738,-21.973,-36.621,0.000
1714024957.090,-33.691,-27.344,-23.926,-36.621,0.000
1714024957.094,-25.391,-25.391,-24.902,-29.297,0.000
1714024957.098,-23.438,-30.762,-23.926,-29.297,0.000
1714024957.102,-29.297,-33.691,-26.855,-40.039,0.000
1714024957.106,-40.039,-34.668,-32.227,-50.293,0.000
1714024957.110,-41.504,-30.762,-31.250,-36.133,0.000
1714024957.113,-35.156,-27.344,-24.414,-22.461,0.000
1714024957.117,-34.668,-26.367,-26.855,-33.203,0.000
1714024957.121,-26.367,-23.438,-28.809,-37.598,0.000
1714024957.125,-26.367,-26.367,-29.297,-29.785,0.000
1714024957.129,-29.785,-22.461,-26.855,-33.691,0.000
1714024957.133,-22.461,-15.625,-27.344,-33.203,0.000
1714024957.137,-24.902,-18.555,-22.461,-26.367,0.000
1714024957.141,-28.320,-22.461,-11.719,-23.926,0.000
1714024957.144,-26.367,-20.020,-16.602,-18.066,0.000
1714024957.148,-27.344,-22.461,-23.926,-27.832,0.000
1714024957.152,-34.668,-29.297,-29.785,-38.574,0.000
1714024957.156,-32.715,-28.809,-26.855,-34.180,0.000
1714024957.160,-24.902,-26.367,-24.414,-27.832,0.000
1714024957.164,-31.738,-24.902,-30.762,-29.297,0.000
1714024957.168,-34.668,-28.809,-31.738,-35.156,0.000
1714024957.171,-39.551,-27.832,-33.691,-35.156,0.000
1714024957.175,-43.945,-22.461,-28.320,-34.668,0.000
1714024957.179,-36.621,-27.832,-26.367,-35.156,0.000
1714024957.183,-37.598,-26.367,-33.691,-38.574,0.000
1714024957.187,-39.551,-23.438,-33.203,-33.691,0.000
1714024957.190,-34.668,-26.855,-23.926,-31.738,0.000
1714024957.194,-29.297,-26.367,-19.531,-33.203,0.000
1714024957.198,-24.902,-28.809,-15.625,-28.320,0.000
1714024957.202,-29.785,-29.785,-13.184,-31.250,0.000
1714024957.206,-33.203,-29.785,-14.648,-31.738,0.000
1714024957.210,-34.668,-29.297,-19.531,-29.785,0.000
1714024957.214,-39.062,-30.273,-33.691,-33.203,0.000
1714024957.218,-41.992,-31.738,-34.668,-40.527,0.000
1714024957.222,-43.457,-32.715,-29.785,-46.875,0.000
1714024957.225,-38.574,-30.273,-24.902,-33.691,0.000
1714024957.229,-29.785,-22.949,-17.090,-24.902,0.000
1714024957.233,-28.809,-20.996,-20.996,-29.297,0.000
1714024957.239,-27.832,-24.414,-24.902,-30.762,0.000
1714024957.243,-33.691,-28.320,-15.625,-36.133,0.000
1714024957.246,-38.086,-25.391,-22.949,-42.969,0.000
1714024957.250,-38.086,-22.949,-29.297,-48.828,0.000
1714024957.254,-51.270,-30.273,-27.832,-61.523,0.000
1714024957.258,-59.082,-26.855,-20.996,-66.406,0.000
1714024957.262,-54.688,-27.832,-11.230,-59.082,0.000
1714024957.266,-58.105,-30.762,-22.461,-67.871,0.000
1714024957.270,-71.289,-34.668,-20.996,-83.008,0.000
1714024957.274,-87.891,-44.434,-16.113,-95.215,0.000
1714024957.278,-95.703,-42.480,-14.648,-97.168,0.000
1714024957.282,-98.633,-42.480,-9.277,-104.004,0.000
1714024957.286,-110.840,-41.992,-12.207,-121.582,0.000
1714024957.290,-126.465,-39.551,-8.789,-121.582,0.000
1714024957.294,-128.418,-41.504,-3.906,-124.023,0.000
1714024957.298,-121.582,-44.434,-1.465,-127.930,0.000
1714024957.302,-121.094,-43.457,2.441,-123.535,0.000
1714024957.306,-128.418,-41.016,6.348,-128.906,0.000
1714024957.310,-122.559,-40.527,16.113,-122.070,0.000
1714024957.314,-121.094,-45.410,24.414,-112.305,0.000
1714024957.318,-127.441,-42.480,20.996,-116.699,0.000
1714024957.322,-119.141,-45.410,11.719,-107.910,0.000
1714024957.326,-122.070,-48.828,19.043,-110.352,0.000
1714024957.329,-117.676,-50.293,21.973,-114.746,0.000
1714024957.334,-104.492,-56.152,13.184,-107.910,0.000
1714024957.338,-103.027,-52.246,15.625,-106.934,0.000
1714024957.342,-88.867,-49.805,14.160,-93.750,0.000
1714024957.345,-81.055,-48.340,6.348,-86.914,0.000
1714024957.349,-84.961,-43.945,5.371,-90.332,0.000
1714024957.353,-74.707,-41.992,4.395,-85.938,0.000
1714024957.357,-68.359,-37.109,6.836,-74.707,0.000
1714024957.361,-73.730,-39.062,6.836,-69.824,0.000
1714024957.365,-66.895,-32.227,7.324,-56.641,0.000
1714024957.369,-63.965,-37.598,4.883,-49.805,0.000
1714024957.373,-78.125,-42.969,13.672,-73.242,0.000
1714024957.377,-74.707,-41.992,18.066,-68.359,0.000
1714024957.381,-80.078,-48.340,6.836,-76.660,0.000
1714024957.385,-89.355,-42.480,3.906,-100.098,0.000
1714024957.388,-101.074,-41.504,3.906,-113.281,0.000
1714024957.392,-117.676,-46.875,3.418,-112.305,0.000
1714024957.396,-112.305,-42.480,-0.977,-99.609,0.000
1714024957.400,-110.840,-40.039,6.348,-104.004,0.000
1714024957.404,-114.746,-40.527,6.836,-111.328,0.000
1714024957.408,-102.539,-37.598,4.883,-97.656,0.000
1714024957.412,-101.074,-41.992,3.418,-82.031,0.000
1714024957.416,-96.191,-42.480,6.348,-83.496,0.000
1714024957.420,-80.078,-36.621,14.648,-90.332,0.000
1714024957.424,-76.172,-38.574,12.207,-82.520,0.000
1714024957.427,-82.031,-41.504,2.441,-83.496,0.000
1714024957.431,-83.008,-40.039,-2.441,-88.867,0.000
1714024957.435,-78.613,-43.457,-8.789,-79.102,0.000
1714024957.439,-73.242,-50.781,-16.113,-67.871,0.000
1714024957.443,-51.270,-48.828,-15.625,-49.316,0.000
1714024957.447,-33.691,-44.434,-17.578,-36.133,0.000
1714024957.451,-25.391,-39.062,-19.531,-30.273,0.000
1714024957.455,-25.879,-41.016,-26.367,-30.762,0.000
1714024957.458,-27.832,-41.504,-34.668,-30.273,0.000
1714024957.462,-18.555,-40.039,-35.156,-23.438,0.000
1714024957.466,-9.277,-38.574,-41.992,-13.672,0.000
1714024957.470,-2.930,-40.039,-49.805,-17.578,0.000
1714024957.474,0.488,-40.527,-49.316,-15.137,0.000
1714024957.477,0.977,-33.691,-43.457,-2.930,0.000
1714024957.481,3.906,-33.203,-42.969,-4.395,0.000
1714024957.485,14.160,-31.738,-50.293,-2.441,0.000
1714024957.489,17.090,-25.879,-57.129,0.488,0.000
1714024957.493,9.766,-27.344,-61.523,4.395,0.000
1714024957.497,16.113,-28.320,-63.965,6.836,0.000
1714024957.501,25.391,-27.344,-65.918,20.996,0.000
1714024957.505,27.832,-27.344,-66.406,29.297,0.000
1714024957.509,28.809,-23.438,-67.383,25.391,0.000
1714024957.513,24.414,-30.273,-68.848,24.902,0.000
1714024957.517,24.414,-34.180,-65.918,22.949,0.000
1714024957.520,20.020,-28.320,-57.617,23.438,0.000
1714024957.524,20.996,-27.344,-59.570,30.273,0.000
1714024957.528,26.367,-27.344,-66.895,29.297,0.000
1714024957.532,25.879,-25.879,-67.383,19.043,0.000
1714024957.535,29.785,-23.926,-63.965,20.508,0.000
1714024957.539,25.391,-19.531,-64.941,23.926,0.000
1714024957.543,20.996,-16.602,-62.500,22.461,0.000
1714024957.547,24.414,-19.043,-63.965,26.367,0.000
1714024957.551,23.438,-16.113,-61.035,15.625,0.000
1714024957.555,18.066,-14.648,-55.176,15.137,0.000
1714024957.559,18.555,-18.066,-53.711,26.367,0.000
1714024957.563,18.555,-23.438,-62.988,24.902,0.000
1714024957.566,15.137,-18.555,-64.941,26.855,0.000
1714024957.570,14.160,-11.230,-61.035,23.438,0.000
1714024957.574,17.090,-15.137,-64.453,18.066,0.000
1714024957.577,15.625,-19.043,-64.941,15.625,0.000
1714024957.581,15.137,-20.020,-61.523,9.766,0.000
1714024957.585,21.973,-18.066,-57.617,9.277,0.000
1714024957.589,21.484,-19.043,-59.082,3.906,0.000
1714024957.593,19.531,-20.020,-52.734,1.465,0.000
1714024957.597,34.180,-16.602,-49.316,6.836,0.000
1714024957.601,34.668,-15.625,-54.199,3.906,0.000
1714024957.605,20.508,-15.625,-51.270,2.930,0.000
1714024957.609,14.648,-15.137,-49.316,9.277,0.000
1714024957.611,13.672,-19.043,-48.340,13.184,0.000
1714024957.615,4.395,-24.414,-48.340,6.348,0.000
1714024957.619,-3.418,-27.832,-50.781,1.953,0.000
1714024957.623,-5.859,-24.902,-42.480,12.695,0.000
1714024957.627,-10.254,-22.949,-38.086,4.883,0.000
1714024957.631,-6.348,-22.949,-44.922,-3.906,0.000
1714024957.635,-0.977,-20.508,-42.969,7.324,0.000
1714024957.639,-0.488,-21.484,-37.109,5.859,0.000
1714024957.643,1.465,-21.484,-38.086,2.930,0.000
1714024957.647,5.371,-20.020,-39.062,1.953,0.000
1714024957.651,2.441,-19.043,-35.156,0.488,0.000
1714024957.654,0.000,-18.555,-40.039,-6.348,0.000
1714024957.660,0.977,-24.902,-43.945,-5.859,0.000
1714024957.664,2.441,-24.414,-37.109,3.418,0.000
1714024957.667,-3.418,-18.066,-38.086,-5.859,0.000
1714024957.671,-5.859,-14.648,-40.527,-10.742,0.000
1714024957.675,0.000,-12.695,-39.062,-8.301,0.000
1714024957.679,-6.836,-20.020,-42.480,-12.207,0.000
1714024957.683,-16.113,-26.367,-42.480,-20.020,0.000
1714024957.687,-17.090,-28.809,-44.434,-24.414,0.000
1714024957.691,-11.719,-20.020,-40.527,-16.602,0.000
1714024957.695,-10.254,-20.996,-36.621,-13.184,0.000
1714024957.699,-15.137,-27.344,-34.180,-19.043,0.000
1714024957.703,-15.137,-23.926,-30.762,-16.602,0.000
1714024957.707,-15.137,-23.926,-34.180,-17.090,0.000
1714024957.711,-17.090,-22.461,-31.250,-13.184,0.000
1714024957.715,-19.043,-27.832,-27.344,-14.648,0.000
1714024957.719,-22.461,-33.203,-32.227,-22.949,0.000
1714024957.723,-20.996,-27.344,-29.785,-15.625,0.000
1714024957.727,-22.949,-25.391,-27.344,-12.207,0.000
1714024957.731,-18.555,-20.508,-25.391,-7.324,0.000
1714024957.735,-9.766,-16.113,-25.391,-8.789,0.000
1714024957.739,-10.254,-15.625,-26.367,-14.160,0.000
1714024957.742,-10.254,-17.578,-22.949,-6.348,0.000
1714024957.746,-13.184,-20.020,-18.555,-11.230,0.000
1714024957.750,-20.508,-21.484,-24.414,-20.996,0.000
1714024957.755,-20.508,-20.508,-25.879,-22.461,0.000
1714024957.759,-17.578,-14.648,-23.926,-25.879,0.000
1714024957.762,-17.578,-14.160,-22.461,-23.926,0.000
1714024957.766,-14.160,-17.090,-23.926,-17.090,0.000
1714024957.770,-13.184,-18.555,-25.879,-23.926,0.000
1714024957.774,-16.602,-20.020,-26.367,-24.414,0.000
1714024957.778,-12.695,-19.043,-22.461,-17.090,0.000
1714024957.782,-14.160,-16.602,-24.414,-24.414,0.000
1714024957.786,-18.555,-19.531,-27.832,-27.344,0.000
1714024957.790,-20.508,-23.438,-20.996,-23.438,0.000
1714024957.794,-19.043,-20.508,-21.973,-28.320,0.000
1714024957.798,-21.973,-17.090,-21.973,-24.902,0.000
1714024957.801,-28.320,-20.508,-26.367,-29.785,0.000
1714024957.805,-26.855,-24.414,-30.273,-30.273,0.000
1714024957.809,-24.902,-25.879,-27.344,-16.602,0.000
1714024957.813,-21.484,-19.043,-26.367,-19.531,0.000
1714024957.817,-20.020,-20.020,-29.297,-27.344,0.000
1714024957.821,-21.484,-20.996,-33.203,-21.484,0.000
1714024957.825,-15.625,-15.137,-31.250,-13.672,0.000
1714024957.829,-16.113,-19.043,-22.461,-14.160,0.000
1714024957.833,-23.438,-20.996,-16.113,-13.672,0.000
1714024957.837,-31.250,-19.531,-20.508,-27.832,0.000
1714024957.840,-34.180,-21.484,-28.320,-34.668,0.000
1714024957.844,-30.273,-24.902,-32.715,-31.738,0.000
1714024957.848,-34.180,-30.273,-33.203,-31.738,0.000
1714024957.852,-31.250,-30.762,-28.320,-26.367,0.000
1714024957.856,-25.391,-33.691,-25.879,-31.738,0.000
1714024957.860,-20.996,-32.227,-26.855,-26.367,0.000
1714024957.864,-11.719,-24.902,-20.996,-12.695,0.000
1714024957.867,-3.418,-24.414,-17.578,-12.695,0.000
1714024957.871,-15.625,-28.809,-24.902,-24.414,0.000
1714024957.875,-21.973,-31.250,-30.762,-22.949,0.000
1714024957.879,-15.137,-23.926,-23.926,-16.602,0.000
1714024957.883,-19.531,-22.949,-17.090,-26.367,0.000
1714024957.887,-20.020,-21.484,-17.578,-28.809,0.000
1714024957.891,-27.344,-20.508,-21.484,-28.320,0.000
1714024957.894,-29.785,-21.973,-23.926,-30.273,0.000
1714024957.898,-23.438,-19.043,-24.414,-30.273,0.000
1714024957.902,-29.785,-22.949,-28.809,-39.062,0.000
1714024957.906,-33.691,-30.273,-34.180,-41.992,0.000
1714024957.910,-27.344,-26.367,-32.227,-30.273,0.000
1714024957.914,-28.809,-26.367,-25.391,-25.391,0.000
1714024957.918,-30.273,-28.809,-23.926,-29.785,0.000
1714024957.921,-23.926,-23.438,-24.902,-24.902,0.000
1714024957.925,-24.414,-19.531,-21.973,-22.461,0.000
1714024957.929,-22.461,-20.996,-23.926,-24.902,0.000
1714024957.933,-20.996,-21.484,-22.949,-23.438,0.000
1714024957.937,-28.320,-19.531,-20.020,-26.855,0.000
1714024957.940,-33.203,-23.926,-21.973,-28.320,0.000
1714024957.944,-32.227,-28.320,-24.902,-24.414,0.000
1714024957.948,-29.785,-28.809,-28.320,-25.391,0.000
1714024957.952,-30.273,-30.273,-24.902,-20.996,0.000
1714024957.956,-37.109,-28.809,-27.832,-22.461,0.000
1714024957.960,-32.227,-30.273,-38.574,-27.832,0.000
1714024957.964,-25.391,-27.832,-42.969,-18.555,0.000
1714024957.967,-25.391,-22.461,-35.156,-17.090,0.000
1714024957.971,-25.391,-22.461,-29.785,-23.438,0.000
1714024957.975,-21.484,-24.902,-30.762,-20.020,0.000
1714024957.979,-21.973,-23.926,-28.809,-22.461,0.000
1714024957.983,-23.438,-24.414,-28.320,-39.062,0.000
1714024957.986,-25.879,-24.414,-28.320,-34.668,0.000
1714024957.990,-27.832,-20.996,-29.785,-20.996,0.000
1714024957.994,-30.273,-27.344,-35.645,-32.227,0.000
1714024957.998,-33.203,-32.715,-30.273,-35.645,0.000
1714024958.002,-34.668,-29.785,-18.066,-37.109,0.000
1714024958.006,-39.062,-25.879,-20.508,-37.598,0.000
1714024958.009,-31.738,-27.344,-18.066,-23.926,0.000
1714024958.013,-26.367,-26.855,-17.090,-31.250,0.000
1714024958.017,-31.738,-24.902,-22.949,-41.016,0.000
1714024958.021,-37.598,-24.902,-26.367,-30.273,0.000
1714024958.025,-28.320,-20.508,-26.367,-19.531,0.000
1714024958.029,-21.484,-16.113,-22.461,-22.461,0.000
1714024958.034,-24.902,-17.090,-20.508,-25.879,0.000
1714024958.038,-23.438,-19.531,-19.531,-21.973,0.000
1714024958.042,-22.461,-16.602,-19.043,-23.438,0.000
1714024958.046,-18.555,-18.555,-21.973,-26.855,0.000
1714024958.050,-16.602,-20.020,-30.762,-26.855,0.000
1714024958.054,-23.926,-16.602,-27.344,-28.809,0.000
1714024958.058,-30.762,-20.020,-21.484,-29.297,0.000
1714024958.062,-26.367,-22.461,-20.508,-26.855,0.000
1714024958.066,-23.926,-20.020,-20.996,-32.227,0.000
1714024958.070,-23.438,-23.438,-19.043,-30.273,0.000
1714024958.073,-21.973,-23.438,-9.766,-22.461,0.000
1714024958.077,-20.020,-24.414,-15.137,-25.391,0.000
1714024958.082,-21.973,-26.367,-24.414,-29.785,0.000
1714024958.086,-29.297,-25.879,-27.344,-36.133,0.000
1714024958.090,-23.926,-26.367,-24.414,-32.715,0.000
1714024958.094,-23.926,-35.156,-19.531,-25.391,0.000
1714024958.098,-19.531,-38.574,-18.555,-14.160,0.000
1714024958.102,-3.906,-35.645,-15.625,5.371,0.000
1714024958.106,-14.648,-28.809,-16.602,-8.789,0.000
1714024958.109,-40.039,-22.461,-22.461,-43.457,0.000
1714024958.113,-41.016,-21.484,-32.227,-44.434,0.000
1714024958.117,-25.391,-21.973,-41.992,-29.297,0.000
1714024958.121,-21.484,-18.555,-44.434,-40.527,0.000
1714024958.125,-19.043,-21.973,-45.898,-44.434,0.000
1714024958.129,-12.695,-26.367,-44.434,-30.762,0.000
1714024958.133,-25.391,-21.484,-37.598,-40.527,0.000
1714024958.137,-26.367,-19.043,-39.551,-49.805,0.000
1714024958.141,-12.695,-14.648,-40.527,-37.598,0.000
1714024958.145,-14.160,-13.672,-42.969,-44.922,0.000
1714024958.149,-20.996,-13.184,-42.969,-55.176,0.000
1714024958.153,-13.672,-16.602,-41.016,-49.805,0.000
1714024958.157,-1.953,-27.344,-46.387,-41.992,0.000
1714024958.161,-3.906,-27.832,-49.805,-30.273,0.000
1714024958.165,-15.625,-20.996,-45.410,-31.738,0.000
1714024958.168,-15.137,-22.461,-39.551,-36.621,0.000
1714024958.172,-16.113,-20.508,-38.086,-32.227,0.000
1714024958.176,-26.367,-18.555,-38.574,-30.273,0.000
1714024958.180,-25.391,-18.066,-34.180,-32.715,0.000
1714024958.184,-22.949,-18.555,-39.551,-34.180,0.000
1714024958.188,-21.973,-22.461,-42.969,-44.922,0.000
1714024958.192,-22.461,-19.043,-36.621,-36.621,0.000
1714024958.196,-18.066,-18.555,-33.203,-22.461,0.000
1714024958.200,-8.301,-15.137,-28.809,-23.438,0.000
1714024958.204,-14.160,-18.066,-28.809,-31.250,0.000
1714024958.207,-22.461,-26.855,-37.109,-30.273,0.000
1714024958.211,-21.484,-23.438,-35.156,-31.738,0.000
1714024958.215,-21.484,-24.414,-28.320,-32.227,0.000
1714024958.219,-20.020,-26.367,-24.414,-29.297,0.000
1714024958.223,-20.508,-27.344,-22.949,-35.156,0.000
1714024958.227,-23.926,-31.250,-27.832,-41.992,0.000
1714024958.231,-14.160,-30.273,-35.156,-36.133,0.000
1714024958.234,-9.766,-30.273,-35.156,-34.180,0.000
1714024958.238,-11.719,-28.809,-35.645,-39.062,0.000
1714024958.242,-6.348,-23.926,-33.691,-30.273,0.000
1714024958.246,-7.324,-26.855,-23.926,-23.438,0.000
1714024958.250,-10.742,-24.414,-25.391,-18.066,0.000
1714024958.254,-18.555,-24.414,-28.320,-19.531,0.000
1714024958.258,-28.320,-29.785,-24.902,-22.461,0.000
1714024958.262,-22.461,-26.855,-26.367,-24.414,0.000
1714024958.266,-18.066,-25.391,-33.203,-27.344,0.000
1714024958.269,-22.949,-25.391,-29.297,-25.879,0.000
1714024958.273,-30.273,-29.297,-24.902,-29.297,0.000
1714024958.277,-27.344,-25.879,-30.273,-26.855,0.000
1714024958.281,-20.996,-22.949,-30.273,-26.367,0.000
1714024958.285,-14.648,-21.484,-25.391,-31.250,0.000
1714024958.289,-15.625,-24.414,-27.832,-31.250,0.000
1714024958.293,-18.555,-24.414,-27.832,-27.832,0.000
1714024958.297,-17.090,-24.902,-28.809,-17.090,0.000
1714024958.300,-22.461,-26.855,-25.391,-22.461,0.000
1714024958.304,-27.832,-25.879,-25.391,-27.832,0.000
1714024958.308,-25.391,-27.344,-29.297,-28.809,0.000
1714024958.312,-21.973,-26.855,-26.855,-35.156,0.000
1714024958.315,-24.414,-23.926,-23.926,-35.156,0.000
1714024958.319,-24.902,-24.414,-24.414,-33.691,0.000
1714024958.323,-22.949,-30.273,-28.320,-26.367,0.000
1714024958.327,-24.902,-26.855,-29.297,-21.973,0.000
1714024958.331,-28.809,-21.484,-31.250,-29.785,0.000
1714024958.335,-34.180,-23.438,-33.691,-34.668,0.000
1714024958.339,-38.574,-27.832,-32.715,-26.855,0.000
1714024958.343,-37.109,-26.367,-27.344,-21.484,0.000
1714024958.347,-29.785,-25.391,-28.809,-24.902,0.000
1714024958.350,-28.809,-28.320,-33.691,-29.297,0.000
1714024958.354,-22.461,-28.320,-29.297,-23.438,0.000
1714024958.358,-18.555,-29.297,-28.320,-23.438,0.000
1714024958.361,-22.461,-29.785,-29.297,-37.109,0.000
1714024958.365,-25.391,-31.250,-29.785,-41.992,0.000
1714024958.369,-31.738,-35.645,-28.320,-41.016,0.000
1714024958.373,-34.180,-37.598,-29.785,-45.410,0.000
1714024958.377,-38.574,-34.668,-33.203,-41.504,0.000
1714024958.381,-30.762,-32.715,-34.180,-39.551,0.000
1714024958.385,-23.926,-30.273,-37.109,-41.016,0.000
1714024958.388,-29.297,-27.344,-33.203,-42.969,0.000
1714024958.392,-21.973,-27.344,-24.414,-43.457,0.000
1714024958.396,-12.695,-24.414,-25.879,-35.645,0.000
1714024958.400,-17.090,-22.949,-35.156,-41.504,0.000
1714024958.404,-24.414,-26.855,-40.527,-48.828,0.000
1714024958.409,-19.043,-28.809,-40.039,-41.016,0.000
1714024958.413,-13.672,-29.297,-35.645,-38.574,0.000
1714024958.417,-18.066,-28.320,-34.180,-37.598,0.000
1714024958.421,-18.066,-29.297,-35.645,-27.832,0.000
1714024958.425,-21.484,-29.297,-35.156,-22.461,0.000
1714024958.429,-24.902,-31.250,-33.203,-24.902,0.000
1714024958.433,-28.809,-31.738,-27.832,-27.832,0.000
1714024958.437,-32.227,-28.320,-28.809,-38.086,0.000
1714024958.441,-26.855,-28.809,-34.180,-32.227,0.000
1714024958.445,-20.508,-27.344,-30.762,-15.137,0.000
1714024958.449,-23.926,-24.414,-24.414,-22.461,0.000
1714024958.452,-27.344,-25.391,-26.367,-36.133,0.000
1714024958.457,-27.832,-26.855,-34.180,-36.133,0.000
1714024958.461,-30.762,-29.297,-35.645,-38.086,0.000
1714024958.465,-29.785,-26.855,-38.086,-37.109,0.000
1714024958.469,-27.344,-24.414,-35.156,-38.086,0.000
1714024958.473,-28.809,-27.832,-35.156,-46.875,0.000
1714024958.477,-30.762,-27.344,-38.574,-42.480,0.000
1714024958.481,-37.109,-26.855,-34.668,-35.645,0.000
1714024958.484,-49.805,-30.273,-33.691,-40.527,0.000
1714024958.488,-52.246,-27.832,-37.109,-43.945,0.000
1714024958.492,-35.645,-27.832,-33.691,-21.973,0.000
1714024958.496,-31.738,-30.762,-30.273,-20.996,0.000
1714024958.500,-36.621,-28.320,-36.133,-43.945,0.000
1714024958.504,-49.316,-30.273,-38.086,-46.387,0.000
1714024958.508,-48.340,-28.320,-31.738,-36.133,0.000
1714024958.512,-41.992,-22.461,-28.809,-32.227,0.000
1714024958.516,-45.898,-23.926,-28.809,-34.180,0.000
1714024958.520,-39.062,-27.344,-31.738,-25.879,0.000
1714024958.524,-39.551,-30.762,-33.691,-36.621,0.000
1714024958.528,-46.387,-34.668,-28.320,-53.223,0.000
1714024958.532,-50.293,-30.273,-27.344,-38.574,0.000
1714024958.536,-38.086,-29.785,-33.203,-24.902,0.000
1714024958.540,-32.227,-30.273,-30.273,-28.320,0.000
1714024958.543,-33.691,-23.926,-29.785,-41.504,0.000
1714024958.547,-26.855,-23.438,-33.203,-41.016,0.000
1714024958.551,-27.344,-31.250,-27.344,-27.832,0.000
1714024958.555,-35.645,-30.762,-28.320,-49.316,0.000
1714024958.559,-34.180,-25.391,-29.785,-46.875,0.000
1714024958.563,-24.902,-29.297,-23.926,-41.992,0.000
1714024958.567,-24.902,-34.180,-23.438,-49.316,0.000
1714024958.571,-31.738,-36.621,-25.879,-33.691,0.000
1714024958.575,-35.645,-41.504,-25.391,-36.133,0.000
1714024958.578,-36.133,-41.992,-23.438,-44.434,0.000
1714024958.582,-38.086,-32.715,-23.926,-34.180,0.000
1714024958.586,-28.320,-22.461,-19.043,-36.621,0.000
1714024958.590,-11.230,-19.531,-18.066,-9.766,0.000
1714024958.594,-17.090,-23.926,-24.414,6.348,0.000
1714024958.598,-24.902,-24.414,-21.973,-13.672,0.000
1714024958.602,-25.879,-21.973,-22.461,-25.391,0.000
1714024958.606,-30.273,-21.973,-26.367,-30.273,0.000
1714024958.610,-23.926,-21.484,-26.855,-33.691,0.000
1714024958.613,-22.461,-23.926,-20.996,-27.832,0.000
1714024958.617,-15.137,-22.949,-14.160,-22.461,0.000
1714024958.621,-4.395,-22.461,-16.113,-19.043,0.000
1714024958.625,-13.672,-24.414,-18.555,-20.996,0.000
1714024958.629,-11.230,-23.438,-20.508,-26.367,0.000
1714024958.633,-11.230,-21.484,-20.508,-29.785,0.000
1714024958.637,-24.414,-23.438,-20.508,-25.391,0.000
1714024958.641,-28.809,-26.855,-18.555,-27.832,0.000
1714024958.644,-28.809,-26.855,-17.090,-41.992,0.000
1714024958.648,-20.996,-24.414,-14.648,-39.551,0.000
1714024958.652,-31.738,-28.320,-16.113,-36.133,0.000
1714024958.656,-48.340,-33.203,-24.414,-51.758,0.000
1714024958.660,-33.691,-29.785,-25.879,-44.434,0.000
1714024958.664,-28.809,-29.297,-19.531,-33.691,0.000
1714024958.667,-25.391,-32.715,-19.531,-35.156,0.000
1714024958.671,-26.367,-32.227,-25.879,-26.855,0.000
1714024958.675,-28.320,-29.297,-21.973,-25.391,0.000
1714024958.679,-30.762,-33.691,-19.043,-16.113,0.000
1714024958.683,-28.320,-30.762,-21.484,-19.531,0.000
1714024958.687,-19.531,-24.414,-23.926,-30.762,0.000
1714024958.690,-17.578,-26.367,-26.367,-21.973,0.000
1714024958.694,-24.902,-25.879,-22.949,-21.484,0.000
1714024958.698,-28.809,-24.902,-20.508,-27.832,0.000
1714024958.702,-27.344,-24.902,-20.996,-30.762,0.000
1714024958.706,-16.602,-27.832,-24.414,-29.297,0.000
1714024958.710,-22.461,-28.809,-25.879,-26.855,0.000
1714024958.714,-36.133,-26.367,-22.949,-33.203,0.000
1714024958.717,-36.133,-33.203,-20.996,-39.062,0.000
1714024958.721,-22.461,-33.691,-20.508,-24.414,0.000
1714024958.725,-21.484,-36.133,-21.973,-15.137,0.000
1714024958.729,-32.227,-34.668,-24.414,-44.922,0.000
1714024958.733,-20.996,-24.414,-28.320,-47.363,0.000
1714024958.736,-20.508,-27.832,-27.832,-40.039,0.000
1714024958.740,-12.695,-23.926,-31.250,-23.438,0.000
1714024958.744,-14.648,-17.090,-31.738,-17.090,0.000
1714024958.748,-33.203,-19.531,-29.297,-27.344,0.000
1714024958.752,-30.273,-15.137,-29.785,-34.668,0.000
1714024958.755,-17.578,-16.602,-26.855,-33.203,0.000
1714024958.759,-22.461,-18.066,-31.738,-15.137,0.000
1714024958.763,-25.391,-15.137,-30.273,-23.926,0.000
1714024958.767,-20.020,-9.766,-26.367,-50.781,0.000
1714024958.771,-24.414,-7.812,-35.645,-51.758,0.000
1714024958.775,-12.695,-5.371,-40.039,-44.434,0.000
1714024958.779,-14.160,-0.488,-37.109,-48.340,0.000
1714024958.787,-32.715,-7.812,-36.621,-36.621,0.000
1714024958.791,-16.113,-12.695,-41.016,-27.832,0.000
1714024958.795,2.441,-8.789,-37.109,-24.902,0.000
1714024958.799,-4.395,-5.371,-39.551,-24.414,0.000
1714024958.803,-11.719,-3.418,-47.363,-39.551,0.000
1714024958.806,-16.113,-13.672,-42.969,-44.922,0.000
1714024958.810,-30.762,-23.438,-36.133,-27.832,0.000
1714024958.814,-40.039,-20.508,-40.039,-59.082,0.000
1714024958.818,-46.875,-18.066,-45.410,-83.984,0.000
1714024958.822,-50.781,-19.531,-41.016,-59.082,0.000
1714024958.826,-22.461,-16.602,-39.062,-52.734,0.000
1714024958.830,-8.301,-17.090,-35.156,-34.668,0.000
1714024958.834,-7.812,-18.066,-35.156,-26.855,0.000
1714024958.838,-17.090,-19.043,-38.086,-39.551,0.000
1714024958.842,-20.020,-17.578,-33.691,-44.922,0.000
1714024958.846,-17.578,-14.648,-31.738,-45.410,0.000
1714024958.850,-27.344,-22.949,-30.762,-31.738,0.000
1714024958.854,-21.973,-26.367,-32.227,-25.879,0.000
1714024958.858,-17.578,-24.902,-34.180,-36.621,0.000
1714024958.861,-16.602,-22.949,-33.691,-42.480,0.000
1714024958.865,-23.926,-22.949,-29.297,-28.320,0.000
1714024958.869,-32.227,-22.461,-29.297,-36.133,0.000
1714024958.873,-28.809,-21.973,-29.785,-40.039,0.000
1714024958.877,-23.438,-28.809,-28.809,-29.297,0.000
1714024958.881,-26.367,-26.855,-31.250,-24.902,0.000
1714024958.885,-30.273,-23.438,-32.227,-29.785,0.000
1714024958.889,-6.348,-22.949,-27.344,-40.039,0.000
1714024958.893,-11.230,-24.902,-25.879,-39.062,0.000
1714024958.897,-36.621,-32.715,-26.855,-27.344,0.000
1714024958.901,-27.344,-31.738,-26.855,-17.090,0.000
1714024958.905,-30.273,-26.855,-24.414,-35.156,0.000
1714024958.909,-27.344,-27.832,-24.902,-46.387,0.000
1714024958.912,-31.738,-30.762,-28.809,-24.414,0.000
1714024958.916,-31.738,-24.902,-25.879,-24.414,0.000
1714024958.920,-17.578,-22.949,-21.973,-39.551,0.000
1714024958.924,-11.719,-19.531,-30.273,-36.133,0.000
1714024958.928,-20.020,-15.137,-30.762,-28.320,0.000
1714024958.932,-27.344,-20.020,-27.344,-35.156,0.000
1714024958.936,-25.391,-18.555,-31.250,-49.805,0.000
1714024958.939,-25.879,-17.578,-31.738,-28.809,0.000
1714024958.943,-34.668,-18.555,-31.250,-28.809,0.000
1714024958.947,-19.531,-16.602,-31.738,-40.039,0.000
1714024958.951,-11.230,-20.020,-29.297,-24.902,0.000
1714024958.955,-15.625,-24.902,-27.832,-36.621,0.000
1714024958.959,-16.602,-20.020,-31.250,-34.180,0.000
1714024958.963,-21.973,-20.508,-33.691,-24.414,0.000
1714024958.967,-15.137,-28.320,-33.691,-24.902,0.000
1714024958.971,-35.645,-26.855,-38.574,-29.785,0.000
1714024958.974,-23.926,-20.508,-37.109,-32.715,0.000
1714024958.978,-12.695,-20.508,-26.367,-19.043,0.000
1714024958.982,-24.414,-16.113,-23.926,-23.926,0.000
1714024958.986,-6.348,-11.719,-29.785,-28.809,0.000
1714024958.990,16.113,-12.207,-33.691,-24.414,0.000
1714024958.993,-13.672,-16.602,-28.320,-27.344,0.000
1714024958.997,-44.434,-20.508,-31.250,-24.902,0.000
1714024959.001,-25.879,-22.461,-41.504,-28.809,0.000
1714024959.005,-13.672,-24.902,-41.992,-35.645,0.000
1714024959.009,-19.531,-23.926,-41.504,-30.762,0.000
1714024959.013,-26.367,-26.367,-37.598,-21.484,0.000
1714024959.017,-11.230,-21.973,-35.156,-22.461,0.000
1714024959.020,-10.254,-17.578,-34.180,-45.410,0.000
1714024959.024,-21.484,-22.461,-33.203,-47.852,0.000
1714024959.028,-23.438,-30.762,-38.086,-20.020,0.000
1714024959.032,-26.855,-31.738,-35.156,-10.254,0.000
1714024959.036,-11.230,-24.414,-35.156,-22.461,0.000
1714024959.040,-14.648,-27.344,-41.016,-43.457,0.000
1714024959.043,-31.250,-24.414,-40.039,-33.203,0.000
1714024959.047,-28.809,-22.461,-34.180,-0.977,0.000
1714024959.051,-20.996,-22.461,-35.645,-18.066,0.000
1714024959.055,-24.902,-20.020,-38.086,-32.227,0.000
1714024959.059,-20.996,-20.996,-37.598,-27.344,0.000
1714024959.063,-18.066,-19.531,-40.039,-34.180,0.000
1714024959.068,-32.227,-24.902,-41.016,-43.945,0.000
1714024959.072,-27.344,-31.250,-35.645,-35.645,0.000
1714024959.076,-26.855,-24.902,-32.715,-17.578,0.000
1714024959.080,-27.344,-27.344,-36.621,-23.926,0.000
1714024959.084,-32.227,-31.738,-38.086,-49.316,0.000
1714024959.088,-42.480,-29.785,-37.109,-56.641,0.000
1714024959.092,-31.250,-26.367,-37.598,-39.551,0.000
1714024959.096,-15.625,-21.973,-30.273,-26.367,0.000
1714024959.100,-22.949,-18.555,-27.832,-31.250,0.000
1714024959.104,-36.133,-17.578,-28.320,-41.504,0.000
1714024959.108,-31.738,-17.578,-26.855,-40.527,0.000
1714024959.111,-31.250,-22.949,-29.785,-28.809,0.000
1714024959.114,-25.391,-25.879,-32.227,-27.344,0.000
1714024959.118,-13.184,-24.902,-41.504,-45.898,0.000
1714024959.122,-30.762,-30.762,-39.551,-36.133,0.000
1714024959.125,-44.922,-34.668,-32.227,-11.230,0.000
1714024959.129,-31.250,-28.809,-30.762,-31.250,0.000
1714024959.133,-25.879,-25.391,-30.273,-50.781,0.000
1714024959.137,-37.598,-25.879,-29.785,-35.645,0.000
1714024959.141,-29.785,-20.508,-31.738,-35.645,0.000
1714024959.145,-22.461,-20.996,-31.250,-41.504,0.000
1714024959.149,-23.438,-26.367,-27.344,-24.414,0.000
1714024959.153,-29.297,-26.367,-28.809,-15.625,0.000
1714024959.157,-41.992,-25.879,-28.809,-28.809,0.000
1714024959.162,-41.504,-25.879,-28.809,-40.039,0.000
1714024959.165,-35.156,-28.320,-27.344,-37.109,0.000
1714024959.169,-28.320,-28.320,-28.320,-35.645,0.000
1714024959.173,-25.391,-25.391,-28.320,-37.109,0.000
1714024959.177,-20.020,-23.926,-29.785,-26.855,0.000
1714024959.181,-18.555,-24.414,-33.203,-25.879,0.000
1714024959.185,-20.996,-23.438,-37.109,-36.621,0.000
1714024959.189,-23.926,-28.320,-38.574,-40.527,0.000
1714024959.193,-23.926,-29.785,-36.621,-39.062,0.000
1714024959.197,-31.250,-30.273,-38.574,-31.738,0.000
1714024959.201,-31.738,-30.273,-36.133,-32.715,0.000
1714024959.205,-29.297,-29.785,-26.855,-33.203,0.000
1714024959.209,-27.832,-29.297,-29.297,-23.438,0.000
1714024959.213,-25.879,-24.902,-32.715,-21.484,0.000
1714024959.217,-28.320,-26.367,-28.809,-31.250,0.000
1714024959.221,-28.320,-32.227,-28.809,-40.039,0.000
1714024959.225,-27.832,-31.738,-30.273,-36.133,0.000
1714024959.228,-20.996,-25.391,-31.250,-34.180,0.000
1714024959.232,-18.066,-24.902,-32.715,-36.621,0.000
1714024959.236,-22.949,-29.785,-25.391,-33.203,0.000
1714024959.240,-22.949,-30.762,-21.973,-35.645,0.000
1714024959.244,-22.461,-28.320,-25.391,-34.180,0.000
1714024959.248,-28.320,-28.320,-22.949,-40.527,0.000
1714024959.252,-31.738,-27.344,-27.832,-46.387,0.000
1714024959.256,-34.668,-30.762,-31.738,-47.363,0.000
1714024959.260,-30.762,-26.367,-34.180,-49.316,0.000
1714024959.264,-28.809,-21.484,-32.227,-43.945,0.000
1714024959.268,-33.203,-23.926,-32.715,-40.527,0.000
1714024959.272,-22.461,-27.344,-36.621,-43.457,0.000
1714024959.275,-21.484,-26.855,-35.156,-45.898,0.000
1714024959.279,-31.250,-25.391,-35.156,-45.410,0.000
1714024959.283,-27.832,-27.832,-33.203,-41.504,0.000
1714024959.287,-21.484,-32.227,-33.203,-41.504,0.000
1714024959.291,-31.250,-25.879,-36.133,-45.898,0.000
1714024959.295,-48.340,-25.879,-29.785,-42.480,0.000
1714024959.299,-41.016,-31.738,-28.320,-41.016,0.000
1714024959.302,-35.645,-31.738,-33.691,-53.711,0.000
1714024959.306,-42.480,-31.738,-36.621,-60.059,0.000
1714024959.310,-45.410,-32.227,-33.691,-52.246,0.000
1714024959.314,-45.898,-34.180,-26.367,-47.852,0.000
1714024959.318,-42.480,-29.785,-22.949,-43.945,0.000
1714024959.322,-46.387,-32.715,-25.879,-52.246,0.000
1714024959.326,-53.711,-39.062,-26.367,-63.965,0.000
1714024959.330,-51.758,-38.574,-23.926,-53.223,0.000
1714024959.334,-45.898,-37.598,-26.367,-44.434,0.000
1714024959.338,-40.039,-27.832,-20.508,-50.293,0.000
1714024959.342,-36.621,-22.461,-15.137,-50.293,0.000
1714024959.345,-35.156,-25.391,-20.996,-43.945,0.000
1714024959.349,-36.133,-21.973,-29.785,-47.852,0.000
1714024959.353,-38.574,-19.043,-36.133,-52.734,0.000
1714024959.357,-32.227,-20.996,-35.156,-52.734,0.000
1714024959.360,-35.645,-18.555,-35.645,-45.898,0.000
1714024959.364,-41.504,-20.508,-32.715,-34.668,0.000
1714024959.368,-33.203,-19.531,-28.809,-39.062,0.000
1714024959.372,-29.785,-13.184,-31.250,-46.387,0.000
1714024959.376,-35.156,-18.555,-33.203,-39.062,0.000
1714024959.380,-31.250,-21.973,-33.203,-29.785,0.000
1714024959.384,-30.273,-21.973,-28.809,-31.738,0.000
1714024959.388,-37.598,-24.414,-26.367,-39.551,0.000
1714024959.392,-42.969,-28.320,-25.391,-41.504,0.000
1714024959.395,-41.992,-28.320,-20.996,-41.504,0.000
1714024959.399,-35.156,-25.391,-20.508,-31.250,0.000
1714024959.403,-23.926,-24.414,-19.043,-31.738,0.000
1714024959.407,-28.320,-22.461,-21.484,-43.945,0.000
1714024959.410,-34.180,-26.367,-18.555,-37.109,0.000
1714024959.414,-25.879,-22.461,-10.742,-25.879,0.000
1714024959.418,-22.461,-20.508,-14.160,-29.297,0.000
1714024959.422,-25.391,-28.320,-20.020,-37.598,0.000
1714024959.426,-28.320,-24.414,-16.602,-39.062,0.000
1714024959.430,-20.996,-18.555,-15.137,-32.715,0.000
1714024959.434,-13.672,-18.555,-16.602,-40.527,0.000
1714024959.438,-25.879,-18.066,-20.508,-43.457,0.000
1714024959.441,-27.832,-21.484,-16.113,-29.297,0.000
1714024959.445,-16.602,-28.320,-10.742,-21.973,0.000
1714024959.448,-13.672,-21.973,-14.648,-22.461,0.000
1714024959.452,-20.020,-16.602,-17.090,-32.227,0.000
1714024959.456,-18.066,-24.902,-20.020,-34.180,0.000
1714024959.460,-20.020,-27.344,-24.902,-32.715,0.000
1714024959.464,-26.367,-23.438,-26.367,-30.273,0.000
1714024959.468,-22.949,-24.414,-24.902,-19.043,0.000
1714024959.472,-23.438,-29.297,-20.020,-20.508,0.000
1714024959.476,-31.250,-30.762,-18.066,-25.391,0.000
1714024959.480,-29.297,-26.855,-22.949,-17.090,0.000
1714024959.484,-29.297,-23.926,-19.043,-22.949,0.000
1714024959.487,-38.086,-23.926,-18.066,-36.621,0.000
1714024959.490,-31.738,-24.902,-23.926,-32.715,0.000
1714024959.494,-25.879,-27.832,-24.414,-29.785,0.000
1714024959.498,-29.297,-30.762,-23.438,-31.738,0.000
1714024959.502,-27.832,-27.344,-22.461,-30.762,0.000
1714024959.506,-35.156,-30.273,-25.879,-26.855,0.000
1714024959.510,-32.227,-33.691,-26.855,-18.555,0.000
1714024959.514,-26.855,-28.320,-21.484,-17.090,0.000
1714024959.518,-25.391,-20.508,-22.461,-19.531,0.000
1714024959.522,-22.461,-22.949,-28.809,-22.949,0.000
1714024959.526,-21.484,-28.809,-31.738,-28.809,0.000
1714024959.530,-20.020,-27.832,-29.297,-22.461,0.000
1714024959.535,-20.508,-22.461,-28.320,-19.043,0.000
1714024959.539,-12.695,-21.484,-29.785,-20.996,0.000
1714024959.542,-13.672,-25.391,-26.855,-21.484,0.000
1714024959.546,-17.578,-27.344,-26.855,-27.832,0.000
1714024959.550,-18.555,-25.879,-28.320,-36.133,0.000
1714024959.554,-19.531,-24.902,-30.273,-41.016,0.000
1714024959.558,-20.996,-21.484,-30.273,-40.527,0.000
1714024959.562,-20.508,-20.508,-26.855,-33.691,0.000
1714024959.566,-19.043,-21.484,-25.391,-36.133,0.000
1714024959.570,-22.949,-22.949,-29.297,-39.062,0.000
1714024959.574,-26.367,-21.973,-28.320,-33.691,0.000
1714024959.578,-27.832,-23.438,-28.320,-29.297,0.000
1714024959.582,-22.461,-22.461,-29.785,-33.203,0.000
1714024959.586,-22.949,-20.020,-29.785,-42.480,0.000
1714024959.590,-26.855,-19.531,-29.785,-34.668,0.000
1714024959.594,-24.414,-19.043,-25.391,-32.715,0.000
1714024959.598,-26.367,-22.461,-27.344,-34.180,0.000
1714024959.602,-29.785,-24.414,-29.297,-34.668,0.000
1714024959.606,-32.715,-29.297,-26.855,-40.527,0.000
1714024959.610,-30.273,-29.785,-27.832,-43.945,0.000
1714024959.614,-27.832,-33.203,-27.344,-40.039,0.000
1714024959.617,-30.273,-28.809,-21.973,-32.227,0.000
1714024959.621,-31.738,-18.555,-17.090,-39.551,0.000
1714024959.625,-34.668,-20.508,-20.996,-39.551,0.000
1714024959.630,-36.133,-29.785,-28.809,-37.109,0.000
1714024959.634,-41.992,-28.320,-29.297,-35.645,0.000
1714024959.637,-35.645,-19.043,-30.762,-34.668,0.000
1714024959.641,-28.320,-15.625,-25.391,-37.109,0.000
1714024959.645,-32.715,-19.531,-25.879,-28.809,0.000
1714024959.649,-31.250,-22.949,-31.738,-30.273,0.000
1714024959.653,-33.203,-20.508,-27.832,-38.574,0.000
1714024959.657,-21.973,-15.625,-23.438,-31.250,0.000
1714024959.661,-23.926,-20.020,-30.273,-27.832,0.000
1714024959.665,-28.320,-25.879,-25.391,-31.738,0.000
1714024959.669,-18.555,-18.066,-14.648,-31.250,0.000
1714024959.673,-18.066,-16.602,-19.531,-27.832,0.000
1714024959.677,-23.438,-18.066,-23.926,-30.762,0.000
1714024959.680,-18.066,-17.090,-17.578,-29.785,0.000
1714024959.684,-18.066,-23.926,-22.461,-38.574,0.000
1714024959.688,-24.414,-28.809,-29.785,-43.945,0.000
1714024959.692,-28.809,-28.320,-30.762,-36.133,0.000
1714024959.696,-26.855,-23.438,-30.273,-39.062,0.000
1714024959.700,-25.391,-22.461,-29.297,-42.969,0.000
1714024959.704,-27.344,-30.273,-30.762,-41.504,0.000
1714024959.708,-23.438,-34.180,-33.691,-30.762,0.000
1714024959.712,-21.484,-32.715,-29.297,-34.668,0.000
1714024959.716,-24.902,-28.320,-28.320,-44.922,0.000
1714024959.719,-17.578,-23.438,-30.762,-41.016,0.000
1714024959.723,-3.418,-25.879,-29.297,-25.391,0.000
1714024959.727,-7.812,-30.762,-23.438,-18.066,0.000
1714024959.731,-22.461,-31.250,-19.043,-24.414,0.000
1714024959.735,-30.762,-32.715,-17.578,-34.668,0.000
1714024959.739,-32.227,-35.645,-11.719,-32.227,0.000
1714024959.743,-23.438,-41.504,-13.184,-16.602,0.000
1714024959.746,-28.809,-49.805,-16.113,-20.020,0.000
1714024959.750,-38.574,-51.270,-19.043,-24.414,0.000
1714024959.754,-38.574,-45.898,-13.184,-24.902,0.000
1714024959.758,-43.457,-47.363,-6.348,-31.738,0.000
1714024959.762,-44.434,-52.246,-4.395,-22.949,0.000
1714024959.766,-43.945,-52.246,1.465,-16.602,0.000
1714024959.769,-47.363,-51.270,3.418,-25.391,0.000
1714024959.773,-49.316,-56.641,-1.953,-27.832,0.000
1714024959.777,-54.199,-55.176,-0.977,-14.160,0.000
1714024959.781,-49.316,-50.293,2.930,-8.789,0.000
1714024959.785,-48.828,-53.223,6.836,-13.672,0.000
1714024959.789,-53.711,-54.688,4.395,-19.531,0.000
1714024959.793,-48.340,-47.852,3.906,-14.648,0.000
1714024959.797,-39.551,-50.781,2.441,-1.953,0.000
1714024959.801,-42.480,-52.246,6.348,-10.254,0.000
1714024959.804,-40.039,-44.434,-1.465,-20.020,0.000
1714024959.808,-43.457,-44.922,-18.555,-25.391,0.000
1714024959.812,-48.828,-48.828,-14.648,-32.227,0.000
1714024959.815,-40.039,-43.945,-6.836,-25.391,0.000
1714024959.819,-43.945,-41.504,-10.742,-22.461,0.000
1714024959.823,-49.316,-44.922,-15.137,-23.926,0.000
1714024959.827,-40.527,-46.875,-17.578,-24.414,0.000
1714024959.831,-40.039,-52.246,-12.695,-28.320,0.000
1714024959.835,-31.738,-51.758,-6.348,-26.367,0.000
1714024959.839,-27.344,-42.969,-11.719,-25.879,0.000
1714024959.843,-31.250,-40.039,-14.160,-19.531,0.000
1714024959.847,-31.738,-41.992,-7.324,-18.555,0.000
1714024959.850,-29.785,-39.551,-9.277,-23.926,0.000
1714024959.854,-30.273,-38.086,-18.066,-28.809,0.000
1714024959.858,-29.785,-38.574,-23.438,-32.227,0.000
1714024959.861,-25.879,-42.969,-24.414,-29.785,0.000
1714024959.865,-25.391,-45.410,-22.949,-31.738,0.000
1714024959.869,-20.996,-39.551,-23.438,-35.156,0.000
1714024959.873,-16.113,-39.551,-29.297,-30.273,0.000
1714024959.877,-16.113,-39.062,-29.297,-27.344,0.000
1714024959.881,-8.789,-29.785,-23.438,-17.090,0.000
1714024959.885,-12.207,-32.715,-23.926,-16.113,0.000
1714024959.888,-23.926,-36.133,-28.809,-20.996,0.000
1714024959.892,-24.902,-26.367,-27.832,-15.625,0.000
1714024959.896,-25.879,-25.879,-21.973,-11.719,0.000
1714024959.900,-30.273,-30.762,-20.508,-23.438,0.000
1714024959.904,-24.902,-25.391,-20.996,-27.344,0.000
1714024959.909,-21.484,-26.367,-23.438,-15.625,0.000
1714024959.913,-25.391,-33.203,-27.344,-17.090,0.000
1714024959.917,-23.926,-29.297,-23.438,-22.461,0.000
1714024959.921,-22.949,-24.414,-20.508,-20.020,0.000
1714024959.925,-25.879,-26.367,-22.461,-18.555,0.000
1714024959.929,-26.855,-26.855,-25.391,-14.160,0.000
1714024959.933,-33.203,-22.949,-22.461,-21.484,0.000
1714024959.937,-36.621,-22.949,-22.949,-34.668,0.000
1714024959.941,-36.133,-33.691,-25.391,-36.133,0.000
1714024959.944,-34.180,-39.062,-29.297,-29.785,0.000
1714024959.948,-30.762,-32.227,-26.855,-30.762,0.000
1714024959.952,-28.320,-32.227,-23.438,-40.039,0.000
1714024959.957,-33.203,-35.156,-27.344,-33.203,0.000
1714024959.961,-33.203,-31.250,-24.414,-25.391,0.000
1714024959.965,-26.367,-31.738,-20.996,-23.926,0.000
1714024959.969,-35.156,-34.180,-23.926,-35.156,0.000
1714024959.973,-41.992,-34.180,-29.297,-42.480,0.000
1714024959.977,-42.480,-33.203,-32.227,-37.598,0.000
1714024959.980,-39.062,-34.668,-26.855,-28.809,0.000
1714024959.984,-37.598,-38.574,-28.809,-36.621,0.000
1714024959.988,-42.480,-38.086,-34.668,-45.410,0.000
1714024959.992,-37.109,-32.227,-33.691,-33.203,0.000
1714024959.996,-27.344,-27.344,-22.461,-34.180,0.000
1714024960.000,-29.785,-28.320,-20.020,-34.668,0.000
1714024960.004,-36.621,-30.762,-24.902,-32.227,0.000
1714024960.008,-34.180,-30.762,-20.020,-41.504,0.000
1714024960.012,-26.367,-28.809,-19.531,-34.180,0.000
1714024960.016,-31.250,-25.879,-13.184,-27.344,0.000
1714024960.020,-31.738,-16.602,-7.812,-36.133,0.000
1714024960.024,-28.320,-26.855,-21.484,-36.621,0.000
1714024960.028,-42.969,-41.016,-22.461,-39.551,0.000
1714024960.032,-53.711,-39.551,-12.207,-43.945,0.000
1714024960.036,-56.641,-37.598,-6.348,-44.434,0.000
1714024960.039,-61.523,-33.203,1.465,-56.641,0.000
1714024960.043,-65.918,-33.203,3.418,-65.430,0.000
1714024960.047,-95.215,-39.551,-0.488,-86.426,0.000
1714024960.051,-118.164,-45.898,-6.348,-103.027,0.000
1714024960.055,-113.281,-50.781,-6.348,-99.121,0.000
1714024960.059,-111.816,-46.387,2.441,-105.957,0.000
1714024960.063,-106.934,-42.480,13.184,-105.469,0.000
1714024960.067,-114.746,-41.016,16.113,-109.375,0.000
1714024960.071,-123.047,-40.039,13.184,-119.141,0.000
1714024960.075,-109.863,-39.551,13.672,-111.328,0.000
1714024960.078,-113.770,-40.527,16.602,-111.816,0.000
1714024960.082,-113.281,-40.039,16.602,-99.121,0.000
1714024960.086,-92.773,-33.691,17.578,-91.797,0.000
1714024960.090,-88.379,-30.762,15.137,-95.703,0.000
1714024960.094,-91.309,-35.156,7.812,-92.285,0.000
1714024960.098,-83.984,-38.086,-0.977,-88.867,0.000
1714024960.102,-84.473,-35.645,-10.254,-85.449,0.000
1714024960.106,-79.590,-31.738,-18.555,-80.078,0.000
1714024960.109,-64.453,-27.832,-19.531,-69.824,0.000
1714024960.113,-58.105,-30.273,-17.578,-63.965,0.000
1714024960.117,-53.711,-30.762,-24.414,-62.988,0.000
1714024960.121,-48.828,-23.438,-31.250,-65.430,0.000
1714024960.125,-48.828,-20.508,-34.180,-51.270,0.000
1714024960.129,-44.922,-18.066,-27.832,-41.016,0.000
1714024960.133,-38.574,-15.625,-24.902,-42.969,0.000
1714024960.137,-36.621,-15.625,-35.645,-43.457,0.000
1714024960.141,-39.062,-18.066,-42.480,-49.805,0.000
1714024960.144,-42.969,-20.508,-47.852,-42.969,0.000
1714024960.148,-41.504,-22.949,-47.363,-36.133,0.000
1714024960.152,-33.203,-25.879,-44.434,-41.992,0.000
1714024960.156,-31.738,-23.926,-41.016,-41.504,0.000
1714024960.160,-26.367,-21.973,-32.715,-30.273,0.000
1714024960.164,-14.648,-18.555,-32.715,-34.668,0.000
1714024960.167,-12.207,-14.648,-37.109,-32.715,0.000
1714024960.171,-20.020,-19.043,-40.039,-26.367,0.000
1714024960.175,-33.203,-20.020,-34.668,-46.387,0.000
1714024960.179,-35.645,-18.555,-34.180,-52.734,0.000
1714024960.183,-40.527,-26.855,-28.320,-52.734,0.000
1714024960.187,-50.781,-29.297,-25.391,-62.988,0.000
1714024960.190,-54.688,-24.902,-32.715,-73.730,0.000
1714024960.194,-64.453,-28.809,-22.949,-80.078,0.000
1714024960.198,-77.637,-34.668,-18.066,-92.285,0.000
1714024960.202,-85.938,-30.273,-13.184,-107.422,0.000
1714024960.206,-93.750,-27.832,-6.836,-106.445,0.000
1714024960.210,-97.656,-26.367,-5.371,-101.074,0.000
1714024960.214,-101.562,-27.832,4.883,-103.027,0.000
1714024960.217,-102.539,-22.461,11.719,-106.934,0.000
1714024960.221,-98.145,-21.484,13.184,-104.492,0.000
1714024960.225,-94.238,-19.043,10.254,-96.191,0.000
1714024960.229,-87.891,-15.137,4.883,-97.168,0.000
1714024960.233,-80.566,-19.043,4.883,-100.586,0.000
1714024960.236,-80.566,-24.414,-3.906,-92.773,0.000
1714024960.240,-82.031,-27.344,-13.184,-89.355,0.000
1714024960.244,-66.895,-26.855,-7.812,-81.543,0.000
1714024960.248,-54.199,-25.391,-6.836,-69.336,0.000
1714024960.251,-51.270,-22.949,-16.602,-66.895,0.000
1714024960.255,-50.293,-23.926,-27.344,-66.895,0.000
1714024960.259,-39.551,-25.879,-32.227,-46.387,0.000
1714024960.263,-35.645,-23.438,-32.715,-43.457,0.000
1714024960.267,-37.598,-18.555,-37.109,-58.105,0.000
1714024960.271,-23.438,-18.555,-34.668,-37.109,0.000
1714024960.275,-18.066,-18.555,-36.621,-27.344,0.000
1714024960.279,-20.508,-15.625,-42.480,-47.852,0.000
1714024960.284,-12.207,-16.602,-42.480,-44.922,0.000
1714024960.288,-8.301,-21.973,-53.223,-32.715,0.000
1714024960.292,-6.348,-20.020,-52.246,-28.320,0.000
1714024960.296,-1.465,-19.043,-46.875,-19.531,0.000
1714024960.300,2.441,-20.020,-49.316,-19.531,0.000
1714024960.304,3.418,-19.531,-48.828,-13.672,0.000
1714024960.308,4.395,-22.949,-48.828,-3.418,0.000
1714024960.312,8.301,-19.043,-51.758,0.977,0.000
1714024960.315,9.766,-18.066,-52.246,-5.859,0.000
1714024960.319,5.859,-23.926,-46.387,-6.348,0.000
1714024960.323,3.418,-22.949,-44.922,-1.465,0.000
1714024960.327,7.324,-20.020,-46.875,5.859,0.000
1714024960.332,6.348,-25.391,-49.805,1.953,0.000
1714024960.336,7.324,-30.273,-57.129,-7.812,0.000
1714024960.340,14.648,-27.832,-56.152,0.000,0.000
1714024960.344,16.602,-19.531,-50.781,6.836,0.000
1714024960.348,12.207,-17.578,-48.828,-3.418,0.000
1714024960.352,9.766,-24.414,-49.316,-2.930,0.000
1714024960.355,10.254,-24.414,-50.781,6.836,0.000
1714024960.359,15.137,-18.555,-43.457,7.812,0.000
1714024960.363,20.996,-11.719,-42.480,13.672,0.000
1714024960.367,20.508,-13.184,-48.340,15.137,0.000
1714024960.371,17.090,-19.531,-44.922,6.348,0.000
1714024960.375,15.625,-19.043,-41.016,4.883,0.000
1714024960.379,16.602,-20.996,-40.039,9.766,0.000
1714024960.383,12.207,-21.484,-43.457,-2.930,0.000
1714024960.387,6.836,-19.531,-45.410,-16.113,0.000
1714024960.391,-1.953,-22.949,-45.410,-12.695,0.000
1714024960.395,-3.418,-25.879,-45.898,-13.184,0.000
1714024960.399,5.371,-20.020,-50.293,-12.207,0.000
1714024960.403,4.883,-15.137,-51.270,-9.766,0.000
1714024960.407,8.301,-12.695,-48.340,-12.207,0.000
1714024960.411,9.766,-13.672,-47.852,-6.836,0.000
1714024960.414,6.348,-16.113,-39.551,1.465,0.000
1714024960.418,8.301,-18.066,-34.668,-9.766,0.000
1714024960.422,4.395,-19.043,-40.527,-14.648,0.000
1714024960.426,-2.441,-17.578,-44.434,-9.766,0.000
1714024960.430,-2.441,-15.625,-35.645,-8.301,0.000
1714024960.434,-8.789,-18.066,-36.621,-23.438,0.000
1714024960.438,-10.254,-21.484,-47.852,-31.250,0.000
1714024960.442,-3.418,-19.531,-43.945,-20.508,0.000
1714024960.446,-7.324,-15.625,-39.551,-25.879,0.000
1714024960.450,-11.230,-18.555,-40.039,-29.785,0.000
1714024960.454,-7.812,-22.949,-40.527,-20.508,0.000
1714024960.457,-5.859,-19.531,-41.016,-15.137,0.000
1714024960.461,-9.766,-21.484,-33.203,-17.578,0.000
1714024960.465,-9.766,-26.855,-27.832,-20.508,0.000
1714024960.469,-10.742,-26.855,-28.320,-22.461,0.000
1714024960.475,-17.578,-27.344,-32.227,-32.227,0.000
1714024960.479,-22.949,-28.809,-30.762,-38.574,0.000
1714024960.483,-14.648,-24.902,-25.879,-29.785,0.000
1714024960.487,-11.230,-17.578,-32.227,-26.855,0.000
1714024960.491,-11.230,-17.578,-33.691,-24.414,0.000
1714024960.495,-13.184,-23.926,-33.691,-28.809,0.000
1714024960.499,-18.555,-23.926,-31.250,-37.109,0.000
1714024960.503,-16.602,-21.484,-28.809,-33.691,0.000
1714024960.507,-12.695,-17.090,-29.785,-27.832,0.000
1714024960.510,-14.648,-24.414,-29.785,-31.738,0.000
1714024960.514,-15.625,-27.832,-30.273,-25.879,0.000
1714024960.518,-16.602,-26.367,-33.203,-31.738,0.000
1714024960.521,-25.391,-32.227,-37.598,-45.410,0.000
1714024960.525,-27.832,-26.855,-35.645,-40.039,0.000
1714024960.529,-17.578,-19.043,-33.203,-31.250,0.000
1714024960.533,-19.043,-23.926,-31.738,-31.250,0.000
1714024960.537,-22.949,-26.367,-28.320,-38.086,0.000
1714024960.541,-18.066,-23.926,-27.344,-32.715,0.000
1714024960.545,-7.812,-21.973,-26.367,-24.414,0.000
1714024960.549,-9.277,-23.926,-22.461,-20.020,0.000
1714024960.552,-13.184,-24.902,-15.625,-20.508,0.000
1714024960.556,-6.348,-20.508,-15.625,-28.320,0.000
1714024960.560,-19.043,-23.438,-27.344,-35.156,0.000
1714024960.564,-24.414,-22.461,-25.879,-26.855,0.000
1714024960.567,-21.973,-19.531,-15.137,-29.297,0.000
1714024960.571,-33.691,-26.367,-17.090,-38.086,0.000
1714024960.575,-35.645,-25.391,-20.020,-31.250,0.000
1714024960.579,-34.180,-22.949,-19.043,-33.203,0.000
1714024960.582,-37.598,-27.344,-21.484,-36.133,0.000
1714024960.586,-43.457,-33.203,-33.203,-32.227,0.000
1714024960.590,-44.434,-32.227,-38.086,-37.109,0.000
1714024960.594,-39.551,-27.344,-30.273,-38.574,0.000
1714024960.598,-35.156,-27.832,-23.438,-31.250,0.000
1714024960.602,-29.785,-31.250,-25.879,-37.109,0.000
1714024960.606,-35.156,-32.715,-23.926,-41.504,0.000
1714024960.610,-35.156,-25.879,-15.625,-33.203,0.000
1714024960.613,-28.809,-27.344,-20.996,-35.156,0.000
1714024960.616,-26.367,-29.785,-25.391,-32.715,0.000
1714024960.620,-19.531,-22.461,-24.414,-25.391,0.000
1714024960.624,-23.926,-26.855,-24.902,-28.809,0.000
1714024960.628,-18.555,-32.227,-16.602,-15.137,0.000
1714024960.632,-19.531,-32.715,-16.113,-11.719,0.000
1714024960.636,-30.762,-32.227,-24.414,-15.137,0.000
1714024960.640,-28.320,-28.320,-25.391,-20.508,0.000
1714024960.644,-23.926,-26.855,-23.926,-24.902,0.000
1714024960.648,-22.949,-24.902,-22.949,-26.855,0.000
1714024960.652,-22.461,-21.973,-27.344,-32.715,0.000
1714024960.655,-28.809,-26.367,-27.832,-38.574,0.000
1714024960.661,-35.645,-31.738,-24.902,-44.922,0.000
1714024960.664,-29.297,-28.809,-27.344,-49.316,0.000
1714024960.668,-29.785,-28.320,-28.320,-54.199,0.000
1714024960.672,-33.691,-24.414,-26.367,-52.734,0.000
1714024960.676,-34.180,-20.508,-30.273,-48.828,0.000
1714024960.680,-32.715,-21.973,-34.668,-47.363,0.000
1714024960.684,-24.902,-20.996,-28.809,-45.410,0.000
1714024960.688,-29.297,-26.855,-19.531,-48.828,0.000
1714024960.692,-31.738,-28.809,-17.090,-45.410,0.000
1714024960.696,-25.391,-28.320,-23.926,-32.227,0.000
1714024960.700,-26.855,-27.832,-24.902,-30.273,0.000
1714024960.703,-33.203,-21.973,-20.996,-42.480,0.000
1714024960.708,-39.551,-24.414,-27.832,-51.758,0.000
1714024960.712,-36.133,-31.250,-30.762,-44.434,0.000
1714024960.716,-32.227,-30.762,-30.762,-39.062,0.000
1714024960.720,-33.203,-26.855,-30.762,-42.480,0.000
1714024960.724,-31.738,-28.320,-29.785,-36.621,0.000
1714024960.728,-30.273,-31.250,-29.297,-26.367,0.000
1714024960.732,-29.297,-27.344,-26.367,-26.855,0.000
1714024960.735,-20.508,-23.438,-20.508,-32.715,0.000
1714024960.739,-20.020,-23.926,-20.020,-29.297,0.000
1714024960.743,-22.949,-22.949,-26.367,-20.508,0.000
1714024960.747,-18.555,-22.461,-20.996,-28.320,0.000
1714024960.751,-18.555,-28.809,-20.020,-34.668,0.000
1714024960.755,-24.902,-29.785,-30.762,-32.227,0.000
1714024960.759,-30.762,-28.320,-33.691,-36.133,0.000
1714024960.763,-23.438,-24.414,-30.273,-35.156,0.000
1714024960.767,-21.973,-20.508,-25.879,-35.645,0.000
1714024960.771,-27.832,-25.391,-24.902,-39.551,0.000
1714024960.775,-26.367,-25.879,-23.926,-33.691,0.000
1714024960.779,-25.391,-28.320,-26.855,-29.297,0.000
1714024960.783,-20.508,-27.832,-33.691,-29.297,0.000
1714024960.786,-17.090,-20.020,-36.621,-35.156,0.000
1714024960.790,-23.438,-18.555,-31.250,-31.738,0.000
1714024960.794,-21.484,-21.484,-22.949,-19.043,0.000
1714024960.798,-17.090,-24.414,-20.508,-11.230,0.000
1714024960.802,-24.902,-26.855,-20.020,-15.625,0.000
1714024960.806,-24.414,-28.320,-19.531,-19.531,0.000
1714024960.810,-22.461,-25.879,-25.391,-10.254,0.000
1714024960.814,-26.367,-23.926,-33.203,-14.648,0.000
1714024960.818,-27.832,-21.484,-33.691,-23.926,0.000
1714024960.821,-24.414,-23.926,-29.297,-24.902,0.000
1714024960.825,-16.113,-26.855,-28.809,-33.203,0.000
1714024960.829,-24.902,-31.250,-33.203,-40.527,0.000
1714024960.833,-34.180,-35.156,-38.574,-39.062,0.000
1714024960.837,-35.156,-31.250,-33.691,-44.434,0.000
1714024960.841,-35.645,-26.855,-29.297,-42.480,0.000
1714024960.845,-27.344,-23.926,-26.855,-31.250,0.000
1714024960.848,-24.902,-20.996,-29.297,-35.645,0.000
1714024960.852,-28.320,-20.996,-25.391,-41.992,0.000
1714024960.856,-27.344,-19.043,-19.531,-31.250,0.000
1714024960.860,-22.461,-14.648,-21.484,-19.531,0.000
1714024960.864,-28.320,-20.508,-20.508,-17.578,0.000
1714024960.868,-25.879,-24.414,-22.461,-20.020,0.000
1714024960.872,-18.555,-29.785,-23.438,-21.484,0.000
1714024960.876,-20.996,-32.227,-22.461,-18.066,0.000
1714024960.880,-20.020,-25.879,-19.531,-13.672,0.000
1714024960.884,-21.484,-24.414,-12.207,-17.090,0.000
1714024960.887,-20.020,-22.949,-13.672,-24.902,0.000
1714024960.891,-16.602,-20.508,-20.508,-22.949,0.000
1714024960.895,-15.625,-23.438,-21.973,-16.113,0.000
1714024960.898,-11.230,-23.438,-20.996,-14.648,0.000
1714024960.902,-13.672,-23.438,-21.973,-30.273,0.000
1714024960.906,-16.602,-22.461,-26.855,-39.551,0.000
1714024960.910,-16.602,-19.531,-41.992,-29.785,0.000
1714024960.914,-21.484,-21.973,-43.457,-27.344,0.000
1714024960.918,-22.461,-27.344,-35.156,-30.762,0.000
1714024960.922,-24.414,-27.344,-38.086,-32.715,0.000
1714024960.926,-20.508,-23.438,-33.691,-35.156,0.000
1714024960.930,-25.391,-23.926,-31.250,-31.250,0.000
1714024960.934,-35.156,-26.367,-33.203,-39.551,0.000
1714024960.938,-34.668,-27.344,-34.180,-49.805,0.000
1714024960.940,-31.738,-23.926,-35.645,-38.574,0.000
1714024960.944,-38.574,-23.926,-34.668,-34.180,0.000
1714024960.948,-38.574,-23.926,-33.691,-45.410,0.000
1714024960.952,-34.668,-27.344,-30.762,-35.645,0.000
