timestamps,TP9,AF7,AF8,TP10,Right AUX
1714023872.501,-27.344,-30.762,-10.742,-35.645,0.000
1714023872.505,-30.762,-30.273,-18.555,-47.363,0.000
1714023872.509,-38.574,-28.320,-32.715,-48.340,0.000
1714023872.513,-29.785,-27.832,-19.531,-32.227,0.000
1714023872.517,-25.391,-30.762,-8.789,-34.180,0.000
1714023872.520,-30.762,-33.203,-19.043,-45.898,0.000
1714023872.524,-37.109,-31.738,-30.762,-41.504,0.000
1714023872.528,-45.898,-25.879,-29.785,-47.363,0.000
1714023872.532,-38.574,-20.020,-16.113,-48.828,0.000
1714023872.536,-26.855,-22.949,-11.230,-43.457,0.000
1714023872.540,-34.180,-24.414,-25.391,-48.340,0.000
1714023872.544,-37.598,-24.414,-22.461,-41.016,0.000
1714023872.548,-35.156,-28.809,-19.043,-39.062,0.000
1714023872.552,-36.621,-29.785,-28.320,-47.363,0.000
1714023872.556,-40.039,-20.508,-22.949,-48.828,0.000
1714023872.560,-42.969,-8.301,-12.695,-51.758,0.000
1714023872.564,-47.363,-14.160,-10.254,-56.152,0.000
1714023872.568,-58.594,-30.762,-14.160,-62.012,0.000
1714023872.572,-68.848,-33.691,-14.160,-75.195,0.000
1714023872.575,-79.590,-24.902,-14.160,-94.727,0.000
1714023872.579,-87.402,-26.855,-17.578,-110.840,0.000
1714023872.583,-105.469,-35.156,-8.301,-125.977,0.000
1714023872.587,-127.441,-35.156,0.977,-139.648,0.000
1714023872.591,-140.625,-30.762,-0.977,-147.461,0.000
1714023872.595,0.000,-33.203,-0.977,-148.926,0.000
1714023872.599,0.000,-32.227,0.488,-153.809,0.000
1714023872.603,0.000,-30.762,1.953,-164.551,0.000
1714023872.607,0.000,-39.551,-4.883,-174.805,0.000
1714023872.611,0.000,-48.828,-3.418,-176.758,0.000
1714023872.615,0.000,-51.270,10.254,-168.945,0.000
1714023872.619,0.000,-39.062,20.996,-162.598,0.000
1714023872.623,0.000,-29.297,24.902,-166.016,0.000
1714023872.626,0.000,-28.320,19.043,-159.180,0.000
1714023872.630,0.000,-26.367,5.371,-149.414,0.000
1714023872.634,0.000,-27.832,-1.465,-153.809,0.000
1714023872.638,0.000,-35.645,11.719,-141.602,0.000
1714023872.642,-112.305,-36.621,18.066,-126.465,0.000
1714023872.646,-103.516,-32.227,7.324,-115.234,0.000
1714023872.650,-93.262,-26.367,1.465,-106.445,0.000
1714023872.654,-85.449,-24.902,-11.719,-111.328,0.000
1714023872.658,-83.008,-28.809,-23.926,-101.562,0.000
1714023872.662,-77.637,-46.875,-22.461,-85.938,0.000
1714023872.666,-58.105,-46.875,-13.672,-67.871,0.000
1714023872.670,-44.434,-33.203,-13.672,-59.082,0.000
1714023872.673,-40.039,-29.785,-33.691,-52.246,0.000
1714023872.677,-32.715,-24.414,-32.715,-40.039,0.000
1714023872.681,-20.996,-26.855,-26.855,-38.086,0.000
1714023872.685,-15.137,-29.297,-36.133,-37.598,0.000
1714023872.689,-21.484,-26.855,-43.945,-38.574,0.000
1714023872.693,-17.578,-31.250,-49.316,-28.320,0.000
1714023872.697,-10.742,-38.574,-45.898,-21.484,0.000
1714023872.701,-7.812,-39.551,-41.992,-22.461,0.000
1714023872.705,-5.371,-36.133,-50.293,-20.020,0.000
1714023872.709,-1.465,-34.668,-51.270,-8.789,0.000
1714023872.713,-0.977,-35.156,-37.109,4.883,0.000
1714023872.716,-3.906,-31.738,-46.875,-4.395,0.000
1714023872.720,0.977,-23.438,-57.617,-10.254,0.000
1714023872.724,1.465,-32.227,-47.852,-7.324,0.000
1714023872.728,4.395,-37.109,-44.434,-1.953,0.000
1714023872.732,8.301,-32.227,-42.969,-1.465,0.000
1714023872.736,5.371,-32.227,-38.574,-4.395,0.000
1714023872.740,4.395,-23.926,-41.992,-6.348,0.000
1714023872.744,10.254,-24.414,-38.574,-2.930,0.000
1714023872.748,12.695,-28.320,-39.062,4.395,0.000
1714023872.752,11.230,-25.879,-44.922,2.930,0.000
1714023872.756,12.695,-27.344,-47.363,1.953,0.000
1714023872.759,14.160,-31.738,-47.363,3.906,0.000
1714023872.763,12.207,-31.738,-42.480,6.836,0.000
1714023872.767,9.277,-29.297,-38.574,3.906,0.000
1714023872.771,2.441,-29.297,-41.504,-8.301,0.000
1714023872.775,2.930,-28.320,-51.758,-8.301,0.000
1714023872.779,10.742,-25.391,-50.781,-1.465,0.000
1714023872.783,10.742,-24.414,-49.805,-8.789,0.000
1714023872.787,8.789,-24.902,-59.082,-13.672,0.000
1714023872.791,12.695,-29.297,-57.129,-2.441,0.000
1714023872.795,8.789,-33.203,-43.945,2.930,0.000
1714023872.799,5.859,-34.180,-39.551,-2.930,0.000
1714023872.803,9.277,-32.227,-36.133,-1.953,0.000
1714023872.807,10.254,-27.344,-33.203,4.883,0.000
1714023872.811,4.395,-24.414,-37.109,3.418,0.000
1714023872.815,1.465,-25.879,-41.504,1.465,0.000
1714023872.818,3.906,-23.438,-42.969,-4.883,0.000
1714023872.822,2.930,-24.414,-40.527,-4.883,0.000
1714023872.826,2.930,-27.832,-43.945,0.488,0.000
1714023872.830,6.836,-19.531,-39.551,-1.953,0.000
1714023872.834,8.789,-17.578,-28.320,-0.977,0.000
1714023872.838,11.719,-21.973,-36.621,0.977,0.000
1714023872.842,3.418,-22.949,-47.852,-5.859,0.000
1714023872.846,-6.836,-27.344,-46.875,-6.348,0.000
1714023872.849,-2.441,-31.738,-43.457,-6.836,0.000
1714023872.853,-2.441,-28.809,-39.551,-9.766,0.000
1714023872.857,-1.465,-23.438,-38.086,-4.395,0.000
1714023872.861,4.395,-20.020,-35.645,2.441,0.000
1714023872.865,6.348,-22.461,-26.367,2.441,0.000
1714023872.869,7.324,-20.996,-30.273,5.371,0.000
1714023872.873,3.906,-19.043,-41.504,7.324,0.000
1714023872.877,-0.488,-25.879,-37.598,-3.906,0.000
1714023872.881,1.953,-22.949,-37.109,-11.230,0.000
1714023872.885,2.441,-21.973,-43.457,-12.695,0.000
1714023872.889,-3.418,-23.438,-43.457,-12.695,0.000
1714023872.893,-12.207,-22.461,-38.086,-7.812,0.000
1714023872.897,-13.184,-36.133,-36.621,-7.324,0.000
1714023872.901,-12.695,-37.598,-36.621,-18.555,0.000
1714023872.905,-16.602,-28.809,-38.086,-27.832,0.000
1714023872.908,-18.555,-34.180,-48.340,-26.367,0.000
1714023872.912,-17.090,-32.715,-48.340,-16.113,0.000
1714023872.916,-16.113,-23.438,-45.898,-15.137,0.000
1714023872.920,-17.578,-26.855,-39.062,-21.484,0.000
1714023872.924,-19.043,-39.062,-28.809,-17.090,0.000
1714023872.928,-15.137,-29.297,-32.715,-11.719,0.000
1714023872.932,-13.184,-18.066,-35.156,-21.973,0.000
1714023872.936,-14.648,-24.414,-31.250,-32.227,0.000
1714023872.940,-16.602,-28.809,-37.109,-27.344,0.000
1714023872.944,-29.297,-32.227,-42.480,-25.879,0.000
1714023872.948,-28.809,-36.133,-41.992,-25.391,0.000
1714023872.952,-17.090,-29.297,-29.785,-21.973,0.000
1714023872.956,-16.602,-20.508,-25.879,-24.414,0.000
1714023872.959,-23.438,-29.785,-41.016,-24.902,0.000
1714023872.963,-26.855,-46.875,-33.691,-22.461,0.000
1714023872.967,-23.438,-35.645,-25.879,-32.227,0.000
1714023872.971,-18.066,-24.414,-42.480,-35.645,0.000
1714023872.975,-19.043,-31.250,-43.945,-27.832,0.000
1714023872.979,-12.695,-28.320,-32.227,-20.508,0.000
1714023872.983,-6.836,-18.555,-26.855,-21.973,0.000
1714023872.987,-15.625,-24.414,-28.809,-32.227,0.000
1714023872.991,-19.531,-39.062,-38.086,-31.738,0.000
1714023872.995,-12.695,-33.691,-28.809,-24.414,0.000
1714023872.999,-12.695,-21.484,-20.508,-24.414,0.000
1714023873.003,-16.602,-23.926,-33.203,-29.785,0.000
1714023873.006,-20.996,-27.832,-38.086,-34.180,0.000
1714023873.010,-20.508,-18.555,-30.273,-31.250,0.000
1714023873.014,-12.695,-17.090,-19.043,-24.902,0.000
1714023873.018,-3.418,-20.508,-13.184,-16.113,0.000
1714023873.022,-7.324,-15.137,-16.602,-17.578,0.000
1714023873.026,-16.602,-19.043,-23.438,-19.531,0.000
1714023873.030,-14.160,-28.809,-30.273,-14.160,0.000
1714023873.034,-18.066,-37.109,-40.039,-20.508,0.000
1714023873.038,-21.973,-29.785,-38.086,-25.391,0.000
1714023873.042,-19.531,-17.090,-27.832,-27.344,0.000
1714023873.046,-18.555,-15.137,-20.020,-28.320,0.000
1714023873.049,-18.066,-20.020,-24.414,-20.996,0.000
1714023873.053,-15.625,-27.344,-26.855,-21.973,0.000
1714023873.057,-20.996,-41.504,-30.762,-26.855,0.000
1714023873.061,-27.344,-38.086,-37.109,-29.297,0.000
1714023873.065,-32.227,-25.879,-40.527,-42.480,0.000
1714023873.069,-37.598,-23.926,-49.316,-46.387,0.000
1714023873.073,-29.297,-20.020,-45.898,-34.180,0.000
1714023873.077,-21.484,-18.555,-34.668,-28.320,0.000
1714023873.081,-24.414,-15.137,-37.598,-32.227,0.000
1714023873.085,-25.391,-22.461,-30.762,-36.133,0.000
1714023873.089,-27.832,-34.668,-25.879,-36.621,0.000
1714023873.092,-34.668,-33.691,-36.621,-36.621,0.000
1714023873.096,-30.762,-35.156,-35.645,-27.344,0.000
1714023873.100,-30.273,-33.691,-32.715,-29.785,0.000
1714023873.104,-31.738,-20.508,-33.203,-38.574,0.000
1714023873.108,-28.809,-23.926,-32.715,-39.551,0.000
1714023873.112,-36.133,-33.691,-32.227,-42.480,0.000
1714023873.116,-31.738,-23.438,-23.438,-40.039,0.000
1714023873.120,-24.414,-23.926,-14.160,-39.062,0.000
1714023873.124,-31.250,-30.762,-20.996,-43.457,0.000
1714023873.128,-31.738,-30.273,-35.156,-41.016,0.000
1714023873.131,-27.832,-35.645,-36.621,-36.621,0.000
1714023873.135,-28.320,-37.109,-27.832,-46.875,0.000
1714023873.139,-29.785,-29.297,-34.668,-45.898,0.000
1714023873.143,-34.668,-26.855,-41.504,-39.062,0.000
1714023873.147,-32.227,-25.391,-30.762,-41.504,0.000
1714023873.151,-21.484,-29.785,-22.949,-38.574,0.000
1714023873.155,-28.809,-38.574,-28.809,-44.922,0.000
1714023873.159,-35.156,-30.762,-31.738,-37.598,0.000
1714023873.163,-29.297,-21.484,-35.156,-27.832,0.000
1714023873.166,-28.809,-22.949,-42.480,-28.809,0.000
1714023873.170,-28.320,-24.902,-34.668,-35.156,0.000
1714023873.174,-30.762,-25.879,-27.344,-35.156,0.000
1714023873.178,-28.320,-20.508,-33.203,-26.367,0.000
1714023873.182,-20.996,-20.996,-31.250,-28.809,0.000
1714023873.186,-21.484,-28.809,-29.297,-28.809,0.000
1714023873.190,-24.414,-22.949,-33.203,-29.785,0.000
1714023873.194,-25.879,-19.043,-41.016,-34.668,0.000
1714023873.198,-28.809,-24.414,-39.551,-35.156,0.000
1714023873.202,-28.320,-31.738,-32.227,-38.574,0.000
1714023873.205,-27.344,-31.250,-32.227,-41.992,0.000
1714023873.209,-29.297,-32.715,-27.344,-42.480,0.000
1714023873.213,-29.297,-39.062,-24.902,-35.645,0.000
1714023873.217,-29.785,-33.691,-24.902,-33.203,0.000
1714023873.221,-28.320,-21.973,-35.645,-34.180,0.000
1714023873.225,-30.762,-28.809,-37.598,-36.133,0.000
1714023873.229,-34.180,-34.668,-35.645,-31.738,0.000
1714023873.233,-31.250,-27.832,-34.180,-26.367,0.000
1714023873.237,-31.250,-28.320,-29.785,-36.133,0.000
1714023873.241,-34.180,-34.180,-35.156,-45.410,0.000
1714023873.244,-31.738,-30.762,-29.785,-39.551,0.000
1714023873.248,-26.367,-27.832,-20.020,-35.156,0.000
1714023873.253,-21.973,-23.438,-16.602,-38.086,0.000
1714023873.256,-26.367,-21.484,-27.344,-38.086,0.000
1714023873.260,-33.203,-26.855,-32.227,-31.250,0.000
1714023873.264,-34.180,-31.738,-20.508,-32.227,0.000
1714023873.268,-32.227,-25.879,-20.996,-39.551,0.000
1714023873.272,-29.785,-26.855,-27.832,-37.598,0.000
1714023873.276,-33.203,-28.320,-27.832,-33.203,0.000
1714023873.280,-36.621,-24.902,-24.414,-31.738,0.000
1714023873.284,-35.156,-28.809,-21.973,-36.621,0.000
1714023873.288,-32.715,-21.484,-23.926,-39.551,0.000
1714023873.292,-33.203,-19.531,-26.367,-33.203,0.000
1714023873.296,-35.645,-31.250,-21.484,-27.344,0.000
1714023873.299,-34.668,-30.273,-22.949,-35.645,0.000
1714023873.303,-33.203,-27.344,-24.902,-43.457,0.000
1714023873.307,-26.367,-24.414,-27.344,-41.992,0.000
1714023873.311,-24.414,-25.391,-39.062,-40.527,0.000
1714023873.315,-20.020,-23.926,-38.574,-41.504,0.000
1714023873.319,-12.695,-20.996,-30.273,-41.016,0.000
1714023873.323,-7.812,-17.578,-30.762,-39.551,0.000
1714023873.326,-1.465,-22.949,-26.855,-29.297,0.000
1714023873.330,-9.277,-27.344,-22.949,-22.461,0.000
1714023873.334,-20.020,-26.367,-36.133,-26.855,0.000
1714023873.338,-27.832,-38.086,-38.574,-34.668,0.000
1714023873.342,-34.180,-32.715,-25.391,-36.133,0.000
1714023873.346,-37.109,-28.809,-30.762,-39.551,0.000
1714023873.350,-29.297,-28.320,-37.109,-39.062,0.000
1714023873.354,-15.137,-25.879,-34.668,-31.250,0.000
1714023873.358,-26.855,-30.762,-30.273,-36.133,0.000
1714023873.362,-48.340,-37.598,-23.926,-49.805,0.000
1714023873.366,-47.852,-38.086,-24.902,-52.246,0.000
1714023873.370,-42.480,-32.227,-16.113,-46.387,0.000
1714023873.373,-49.805,-32.227,-12.207,-43.945,0.000
1714023873.377,-52.246,-37.109,-23.438,-39.551,0.000
1714023873.381,-43.457,-42.969,-28.809,-35.156,0.000
1714023873.385,-39.062,-43.945,-25.879,-34.180,0.000
1714023873.389,-38.574,-36.621,-23.926,-36.621,0.000
1714023873.393,-36.621,-34.668,-20.996,-31.738,0.000
1714023873.397,-35.156,-39.062,-20.996,-28.320,0.000
1714023873.401,-36.133,-36.621,-17.578,-34.180,0.000
1714023873.405,-36.621,-31.738,-14.648,-32.715,0.000
1714023873.409,-35.156,-26.855,-18.066,-31.738,0.000
1714023873.413,-40.527,-29.297,-22.461,-35.156,0.000
1714023873.417,-40.527,-28.809,-16.602,-31.250,0.000
1714023873.420,-35.645,-19.531,-20.020,-33.203,0.000
1714023873.424,-39.551,-25.879,-30.762,-34.668,0.000
1714023873.428,-42.969,-38.086,-22.949,-26.855,0.000
1714023873.432,-40.039,-40.527,-21.973,-39.062,0.000
1714023873.436,-39.551,-37.598,-24.902,-44.434,0.000
1714023873.440,-39.551,-31.738,-24.414,-36.621,0.000
1714023873.444,-35.645,-32.227,-22.461,-31.250,0.000
1714023873.448,-29.297,-26.855,-17.090,-29.297,0.000
1714023873.452,-27.832,-27.832,-24.414,-40.039,0.000
1714023873.456,-32.227,-32.227,-27.832,-43.457,0.000
1714023873.460,-38.574,-29.785,-36.133,-42.969,0.000
1714023873.463,-32.715,-29.785,-31.738,-38.574,0.000
1714023873.467,-26.855,-25.391,-26.367,-34.668,0.000
1714023873.471,-34.668,-31.250,-34.180,-36.133,0.000
1714023873.475,-39.062,-34.668,-29.297,-38.574,0.000
1714023873.479,-37.109,-35.156,-26.367,-37.109,0.000
1714023873.483,-36.621,-41.016,-32.715,-36.621,0.000
1714023873.487,-37.598,-41.016,-36.621,-38.086,0.000
1714023873.491,-42.480,-35.156,-35.645,-38.086,0.000
1714023873.495,-37.109,-30.762,-29.785,-32.227,0.000
1714023873.499,-30.762,-32.227,-30.273,-29.785,0.000
1714023873.502,-35.156,-32.715,-35.156,-42.480,0.000
1714023873.506,-35.156,-29.297,-39.551,-48.828,0.000
1714023873.510,-30.762,-33.691,-31.250,-39.551,0.000
1714023873.514,-28.320,-36.133,-27.344,-26.855,0.000
1714023873.518,-29.785,-25.879,-27.832,-30.273,0.000
1714023873.522,-32.227,-27.344,-24.902,-37.109,0.000
1714023873.526,-33.691,-32.227,-30.762,-31.738,0.000
1714023873.530,-34.668,-30.273,-32.227,-31.250,0.000
1714023873.534,-32.227,-21.973,-24.414,-29.785,0.000
1714023873.537,-31.250,-18.066,-27.344,-29.785,0.000
1714023873.541,-29.785,-30.273,-31.738,-30.273,0.000
1714023873.545,-28.809,-24.902,-32.715,-33.691,0.000
1714023873.549,-31.250,-18.555,-32.227,-40.527,0.000
1714023873.553,-34.668,-26.855,-31.250,-47.363,0.000
1714023873.557,-33.691,-27.344,-32.227,-44.434,0.000
1714023873.561,-32.715,-25.391,-33.203,-36.621,0.000
1714023873.565,-40.527,-25.879,-23.438,-41.016,0.000
1714023873.569,-38.086,-26.855,-22.461,-43.457,0.000
1714023873.573,-33.691,-23.926,-32.715,-46.875,0.000
1714023873.577,-40.039,-24.414,-34.180,-44.434,0.000
1714023873.580,-43.457,-37.109,-31.738,-41.992,0.000
1714023873.584,-41.504,-36.133,-25.879,-44.434,0.000
1714023873.588,-38.574,-26.855,-18.066,-40.527,0.000
1714023873.592,-41.992,-22.949,-18.555,-40.039,0.000
1714023873.596,-41.992,-16.602,-19.043,-42.969,0.000
1714023873.600,-41.504,-20.020,-22.949,-46.387,0.000
1714023873.604,-48.828,-29.297,-26.367,-48.340,0.000
1714023873.608,-47.363,-24.414,-18.066,-42.969,0.000
1714023873.611,-49.805,-19.531,-11.230,-52.734,0.000
1714023873.615,-56.641,-25.391,-10.742,-56.152,0.000
1714023873.619,-63.965,-32.715,-23.438,-60.547,0.000
1714023873.623,-75.684,-32.227,-26.855,-70.312,0.000
1714023873.627,-78.613,-30.273,-18.555,-76.172,0.000
1714023873.631,-88.867,-39.062,-11.230,-91.309,0.000
1714023873.635,-93.262,-33.691,-13.184,-99.121,0.000
1714023873.639,-88.379,-29.297,-10.742,-94.727,0.000
1714023873.643,-99.121,-44.922,-8.789,-99.609,0.000
1714023873.646,-108.887,-47.852,-11.719,-105.957,0.000
1714023873.650,-109.863,-43.457,-6.348,-106.934,0.000
1714023873.654,-118.164,-37.598,-6.348,-116.211,0.000
1714023873.658,-124.512,-35.645,-14.160,-125.488,0.000
1714023873.662,-126.465,-33.691,-20.996,-128.906,0.000
1714023873.666,-123.535,-30.762,-14.160,-129.883,0.000
1714023873.670,-127.441,-38.086,-9.766,-136.230,0.000
1714023873.674,-127.441,-36.133,-11.230,-132.324,0.000
1714023873.678,-119.629,-37.598,-9.277,-118.652,0.000
1714023873.682,-107.910,-43.945,-15.625,-109.863,0.000
1714023873.686,-104.980,-37.109,-18.555,-116.699,0.000
1714023873.690,-111.816,-35.645,-17.090,-127.441,0.000
1714023873.694,-110.840,-37.598,-14.160,-119.141,0.000
1714023873.697,-112.305,-34.668,-11.719,-116.699,0.000
1714023873.701,-110.840,-28.809,-4.883,-117.188,0.000
1714023873.705,-104.004,-27.344,-6.836,-116.699,0.000
1714023873.709,-104.980,-31.250,-17.090,-112.793,0.000
1714023873.713,-107.910,-30.762,-11.719,-106.445,0.000
1714023873.717,-100.098,-28.320,-7.324,-108.398,0.000
1714023873.721,-92.285,-28.809,-16.602,-108.887,0.000
1714023873.725,-88.379,-25.879,-14.160,-102.051,0.000
1714023873.729,-86.426,-25.391,-15.625,-97.168,0.000
1714023873.733,-88.379,-33.691,-25.879,-94.727,0.000
1714023873.737,-85.449,-28.809,-29.785,-94.727,0.000
1714023873.741,-90.332,-26.367,-30.273,-102.051,0.000
1714023873.744,-100.098,-31.738,-32.227,-104.492,0.000
1714023873.748,-87.891,-33.691,-28.320,-95.215,0.000
1714023873.752,-76.172,-36.621,-19.043,-91.309,0.000
1714023873.756,-86.426,-29.297,-12.207,-92.773,0.000
1714023873.760,-96.680,-26.367,-10.742,-100.098,0.000
1714023873.764,-85.449,-31.738,-21.484,-98.633,0.000
1714023873.768,-84.473,-29.785,-33.203,-99.121,0.000
1714023873.772,-92.773,-29.297,-32.227,-108.398,0.000
1714023873.776,-86.914,-35.645,-22.949,-100.098,0.000
1714023873.780,-85.938,-39.551,-18.555,-88.867,0.000
1714023873.784,-89.844,-40.039,-21.484,-90.820,0.000
1714023873.788,-84.961,-34.180,-24.902,-96.680,0.000
1714023873.791,-76.172,-22.949,-20.020,-92.773,0.000
1714023873.795,-71.289,-30.273,-13.184,-81.543,0.000
1714023873.799,-68.848,-32.227,-22.949,-76.660,0.000
1714023873.803,-64.453,-18.066,-31.738,-74.219,0.000
1714023873.807,-65.430,-24.414,-32.715,-78.125,0.000
1714023873.811,-62.988,-36.133,-36.133,-75.684,0.000
1714023873.815,-47.363,-28.809,-29.297,-60.547,0.000
1714023873.819,-37.598,-25.391,-28.320,-50.781,0.000
1714023873.823,-38.574,-27.832,-41.016,-49.316,0.000
1714023873.827,-28.320,-26.367,-39.062,-32.227,0.000
1714023873.831,-23.438,-27.832,-34.180,-22.949,0.000
1714023873.834,-19.531,-20.508,-38.086,-25.391,0.000
1714023873.838,-13.672,-23.438,-42.969,-17.578,0.000
1714023873.842,-17.578,-35.645,-49.316,-13.184,0.000
1714023873.846,-16.113,-35.645,-47.852,-3.906,0.000
1714023873.850,3.418,-36.621,-40.039,9.277,0.000
1714023873.854,10.742,-41.992,-45.410,-1.953,0.000
1714023873.858,1.465,-47.363,-54.199,-17.578,0.000
1714023873.862,8.301,-41.992,-58.105,-6.836,0.000
1714023873.866,16.602,-25.391,-62.012,-4.883,0.000
1714023873.870,13.184,-19.531,-63.477,-8.789,0.000
1714023873.873,12.695,-24.902,-55.664,3.418,0.000
1714023873.877,11.230,-25.391,-52.246,9.766,0.000
1714023873.881,19.531,-27.344,-54.688,16.602,0.000
1714023873.885,32.227,-29.785,-46.387,19.531,0.000
1714023873.889,32.227,-36.133,-47.363,15.137,0.000
1714023873.893,28.320,-34.180,-49.805,15.137,0.000
1714023873.897,30.762,-25.391,-43.457,14.648,0.000
1714023873.901,32.715,-33.691,-47.363,14.160,0.000
1714023873.905,32.715,-37.598,-50.293,15.137,0.000
1714023873.909,26.855,-40.039,-51.758,14.160,0.000
1714023873.912,23.438,-42.969,-52.734,14.160,0.000
1714023873.916,33.691,-47.363,-50.781,19.531,0.000
1714023873.920,38.574,-46.875,-51.270,20.508,0.000
1714023873.924,32.715,-32.715,-53.711,20.508,0.000
1714023873.928,36.133,-30.762,-54.688,26.855,0.000
1714023873.932,42.969,-25.879,-43.457,28.809,0.000
1714023873.936,41.504,-23.438,-42.480,20.996,0.000
1714023873.940,30.762,-23.926,-46.387,15.137,0.000
1714023873.944,25.879,-25.391,-44.434,13.672,0.000
1714023873.948,21.973,-35.156,-51.758,10.742,0.000
1714023873.951,18.066,-36.621,-53.711,11.719,0.000
1714023873.955,20.020,-28.320,-45.898,13.672,0.000
1714023873.959,21.484,-30.762,-36.133,16.602,0.000
1714023873.963,21.484,-34.668,-43.945,10.254,0.000
1714023873.967,25.879,-26.367,-57.617,3.418,0.000
1714023873.971,21.973,-27.344,-47.852,7.812,0.000
1714023873.975,16.113,-26.367,-40.527,10.254,0.000
1714023873.979,20.508,-26.367,-51.758,13.184,0.000
1714023873.983,18.066,-32.715,-58.105,12.695,0.000
1714023873.986,14.648,-28.320,-49.805,5.371,0.000
1714023873.990,19.531,-31.250,-45.898,2.441,0.000
1714023873.994,22.949,-23.926,-39.551,12.207,0.000
1714023873.998,18.555,-16.113,-38.574,12.207,0.000
1714023874.002,14.160,-26.855,-41.992,-6.836,0.000
1714023874.006,14.648,-25.879,-43.945,-6.836,0.000
1714023874.010,9.766,-32.227,-50.293,0.977,0.000
1714023874.014,9.766,-34.180,-46.875,4.395,0.000
1714023874.018,12.207,-19.043,-46.387,-2.441,0.000
1714023874.021,2.441,-19.531,-54.199,-17.090,0.000
1714023874.025,-5.371,-26.855,-48.828,-13.184,0.000
1714023874.029,-5.859,-33.203,-30.762,-6.836,0.000
1714023874.033,-8.301,-29.297,-38.086,-15.137,0.000
1714023874.037,-18.555,-28.809,-51.758,-17.090,0.000
1714023874.041,-24.902,-38.086,-52.246,-16.602,0.000
1714023874.045,-11.230,-35.645,-55.176,-15.137,0.000
1714023874.048,-5.859,-27.344,-50.781,-8.789,0.000
1714023874.052,-10.254,-25.879,-46.875,-14.160,0.000
1714023874.056,-11.719,-33.691,-48.828,-16.602,0.000
1714023874.060,-8.301,-25.879,-37.109,-10.742,0.000
1714023874.064,-5.859,-24.414,-22.949,-10.742,0.000
1714023874.068,-10.254,-33.691,-34.180,-16.602,0.000
1714023874.072,-16.602,-30.762,-49.805,-23.926,0.000
1714023874.076,-14.648,-27.832,-55.176,-17.090,0.000
1714023874.080,-12.207,-30.762,-50.781,-11.230,0.000
1714023874.084,-11.230,-31.250,-45.410,-14.648,0.000
1714023874.088,-9.277,-27.832,-42.969,-19.043,0.000
1714023874.091,-5.371,-21.484,-30.762,-20.996,0.000
1714023874.096,0.000,-25.391,-24.902,-8.301,0.000
1714023874.099,-4.395,-35.156,-37.109,-12.207,0.000
1714023874.103,-6.836,-29.785,-36.133,-11.719,0.000
1714023874.107,-4.883,-18.066,-30.762,-2.930,0.000
1714023874.111,-9.766,-18.066,-42.480,-8.789,0.000
1714023874.115,-17.578,-26.855,-48.828,-11.719,0.000
1714023874.119,-16.113,-21.973,-40.527,-22.949,0.000
1714023874.123,-7.812,-17.578,-32.227,-27.344,0.000
1714023874.127,-0.977,-22.949,-26.367,-16.113,0.000
1714023874.131,3.906,-19.531,-33.691,-17.578,0.000
1714023874.135,10.742,-21.484,-36.133,-24.414,0.000
1714023874.138,13.672,-29.785,-21.484,-16.602,0.000
1714023874.142,-1.953,-33.203,-17.090,-7.324,0.000
1714023874.146,-16.602,-36.133,-32.715,-12.695,0.000
1714023874.150,-23.438,-32.715,-36.133,-24.902,0.000
1714023874.154,-26.855,-28.809,-28.320,-23.926,0.000
1714023874.158,-32.715,-28.320,-22.461,-19.531,0.000
1714023874.162,-31.250,-30.762,-17.090,-11.230,0.000
1714023874.166,-25.879,-27.832,-19.531,-15.625,0.000
1714023874.170,-23.926,-22.949,-22.461,-33.203,0.000
1714023874.174,-29.297,-32.715,-29.297,-27.344,0.000
1714023874.178,-39.062,-36.621,-31.738,-26.367,0.000
1714023874.182,-41.992,-31.250,-31.738,-38.574,0.000
1714023874.185,-32.715,-26.855,-27.344,-34.668,0.000
1714023874.189,-33.691,-32.227,-24.902,-35.645,0.000
1714023874.193,-34.668,-33.691,-28.320,-22.949,0.000
1714023874.197,-31.250,-29.785,-22.949,-16.113,0.000
1714023874.201,-29.297,-24.902,-18.066,-25.879,0.000
1714023874.205,-30.762,-29.785,-24.902,-29.785,0.000
1714023874.209,-32.715,-36.621,-31.250,-28.809,0.000
1714023874.213,-34.668,-31.738,-27.832,-22.949,0.000
1714023874.217,-33.691,-23.438,-24.414,-24.902,0.000
1714023874.221,-33.691,-31.250,-28.809,-25.391,0.000
1714023874.225,-37.109,-30.762,-25.879,-23.438,0.000
1714023874.228,-31.738,-19.043,-16.113,-20.020,0.000
1714023874.232,-26.367,-27.344,-13.672,-23.438,0.000
1714023874.236,-28.320,-33.691,-20.508,-31.250,0.000
1714023874.240,-31.738,-38.086,-25.391,-30.762,0.000
1714023874.244,-31.738,-42.969,-28.320,-26.855,0.000
1714023874.248,-25.879,-34.668,-32.715,-22.461,0.000
1714023874.252,-22.461,-29.785,-28.320,-21.484,0.000
1714023874.256,-26.855,-29.297,-20.020,-18.066,0.000
1714023874.260,-25.879,-25.879,-19.043,-22.949,0.000
1714023874.264,-21.484,-22.949,-30.273,-27.832,0.000
1714023874.268,-20.020,-25.879,-32.227,-30.762,0.000
1714023874.271,-26.367,-33.691,-22.949,-39.551,0.000
1714023874.275,-27.832,-34.668,-24.414,-33.203,0.000
1714023874.279,-24.414,-27.344,-28.809,-20.996,0.000
1714023874.283,-17.578,-20.996,-23.438,-18.555,0.000
1714023874.287,-11.719,-20.996,-17.578,-23.926,0.000
1714023874.291,-13.184,-32.715,-17.578,-20.508,0.000
1714023874.295,-15.137,-39.062,-16.602,-20.996,0.000
1714023874.299,-10.254,-21.973,-18.555,-22.949,0.000
1714023874.303,-13.184,-20.508,-23.438,-26.367,0.000
1714023874.306,-20.508,-29.785,-24.414,-25.879,0.000
1714023874.310,-15.625,-28.320,-23.926,-11.719,0.000
1714023874.314,-14.648,-22.949,-20.020,-10.742,0.000
1714023874.318,-14.648,-17.090,-14.648,-17.578,0.000
1714023874.322,-15.625,-23.438,-20.508,-17.090,0.000
1714023874.326,-19.043,-28.320,-20.020,-16.602,0.000
1714023874.330,-15.137,-21.973,-15.625,-22.461,0.000
1714023874.334,-13.184,-24.902,-26.367,-27.344,0.000
1714023874.338,-21.484,-32.227,-31.250,-29.297,0.000
1714023874.341,-25.391,-39.551,-33.203,-34.180,0.000
1714023874.345,-20.508,-42.480,-30.273,-26.855,0.000
1714023874.349,-16.113,-25.391,-22.461,-28.809,0.000
1714023874.353,-17.090,-17.090,-27.344,-33.691,0.000
1714023874.357,-22.949,-19.043,-25.391,-25.879,0.000
1714023874.361,-18.555,-16.113,-21.484,-25.879,0.000
1714023874.365,-19.043,-23.926,-27.344,-31.250,0.000
1714023874.369,-24.902,-27.344,-28.809,-32.227,0.000
1714023874.373,-22.461,-21.484,-24.902,-38.574,0.000
1714023874.377,-29.785,-26.855,-25.879,-50.293,0.000
1714023874.381,-31.250,-34.668,-31.738,-46.387,0.000
1714023874.385,-33.203,-35.156,-29.785,-44.434,0.000
1714023874.389,-30.273,-33.203,-21.973,-43.457,0.000
1714023874.393,-23.926,-31.738,-25.391,-34.668,0.000
1714023874.396,-28.809,-31.250,-29.785,-37.598,0.000
1714023874.400,-31.250,-34.180,-28.809,-35.645,0.000
1714023874.404,-31.738,-31.250,-29.785,-42.969,0.000
1714023874.408,-28.320,-29.785,-28.809,-52.246,0.000
1714023874.412,-27.344,-35.645,-30.273,-46.387,0.000
1714023874.416,-29.785,-33.203,-25.391,-38.086,0.000
1714023874.420,-24.414,-28.809,-15.625,-27.344,0.000
1714023874.424,-24.902,-27.832,-21.484,-27.832,0.000
1714023874.427,-28.320,-21.484,-35.156,-32.227,0.000
1714023874.431,-31.250,-22.461,-34.668,-40.039,0.000
1714023874.435,-32.227,-28.809,-25.391,-41.504,0.000
1714023874.439,-31.738,-30.273,-20.996,-31.250,0.000
1714023874.443,-32.227,-27.832,-25.391,-28.320,0.000
1714023874.447,-27.832,-25.879,-22.461,-29.297,0.000
1714023874.451,-29.297,-28.320,-20.508,-34.180,0.000
1714023874.455,-31.250,-31.738,-24.902,-41.504,0.000
1714023874.459,-28.809,-36.621,-21.484,-31.738,0.000
1714023874.463,-33.203,-48.828,-20.996,-24.902,0.000
1714023874.467,-33.691,-45.898,-21.973,-32.227,0.000
1714023874.471,-30.762,-32.715,-27.344,-32.715,0.000
1714023874.475,-30.273,-26.367,-28.320,-34.668,0.000
1714023874.478,-26.855,-25.879,-19.043,-28.809,0.000
1714023874.482,-27.344,-27.344,-16.113,-25.879,0.000
1714023874.486,-31.738,-28.809,-22.949,-35.156,0.000
1714023874.490,-30.762,-30.273,-29.785,-38.574,0.000
1714023874.494,-31.250,-32.227,-24.902,-32.227,0.000
1714023874.498,-30.273,-30.762,-15.137,-29.297,0.000
1714023874.502,-31.250,-30.762,-22.949,-34.668,0.000
1714023874.506,-24.414,-27.344,-26.367,-31.250,0.000
1714023874.510,-25.879,-20.996,-20.020,-28.320,0.000
1714023874.514,-39.062,-30.273,-24.902,-38.086,0.000
1714023874.518,-36.133,-34.668,-33.691,-45.898,0.000
1714023874.521,-33.203,-34.180,-38.574,-55.664,0.000
1714023874.525,-33.691,-39.062,-35.156,-52.246,0.000
1714023874.529,-33.691,-37.598,-27.344,-42.969,0.000
1714023874.533,-28.809,-34.180,-21.484,-41.992,0.000
1714023874.537,-22.949,-35.645,-14.648,-43.945,0.000
1714023874.541,-29.297,-27.344,-12.207,-38.086,0.000
1714023874.545,-40.527,-28.320,-27.344,-36.621,0.000
1714023874.549,-41.992,-32.715,-37.109,-36.621,0.000
1714023874.553,-36.621,-25.879,-31.738,-35.645,0.000
1714023874.557,-32.227,-19.043,-21.973,-44.922,0.000
1714023874.561,-29.785,-20.996,-22.461,-39.551,0.000
1714023874.564,-23.438,-21.973,-22.461,-28.809,0.000
1714023874.568,-23.926,-21.484,-20.996,-36.133,0.000
1714023874.572,-24.414,-28.320,-16.602,-41.016,0.000
1714023874.576,-22.461,-26.855,-14.160,-29.297,0.000
1714023874.580,-26.367,-22.949,-22.949,-27.832,0.000
1714023874.584,-31.250,-28.320,-40.527,-37.109,0.000
1714023874.588,-30.273,-30.762,-43.945,-39.062,0.000
1714023874.592,-24.902,-21.973,-33.691,-34.180,0.000
1714023874.596,-27.344,-26.367,-31.250,-25.391,0.000
1714023874.600,-25.391,-26.855,-23.926,-28.320,0.000
1714023874.604,-25.879,-27.344,-21.973,-37.598,0.000
1714023874.607,-25.391,-31.250,-20.020,-28.320,0.000
1714023874.611,-27.832,-30.273,-24.414,-26.855,0.000
1714023874.615,-32.227,-31.738,-39.062,-35.645,0.000
1714023874.619,-26.855,-29.297,-38.574,-42.480,0.000
1714023874.623,-25.391,-32.715,-29.785,-40.039,0.000
1714023874.627,-27.344,-34.180,-25.391,-32.715,0.000
1714023874.631,-21.973,-26.367,-33.691,-27.344,0.000
1714023874.635,-18.555,-14.160,-36.133,-26.367,0.000
1714023874.639,-26.367,-21.484,-26.855,-26.855,0.000
1714023874.643,-30.273,-30.273,-25.879,-24.902,0.000
1714023874.646,-26.367,-24.902,-27.832,-28.809,0.000
1714023874.650,-23.926,-22.949,-30.762,-29.297,0.000
1714023874.654,-26.855,-25.391,-36.621,-32.715,0.000
1714023874.658,-31.250,-32.715,-34.668,-33.203,0.000
1714023874.662,-31.250,-30.273,-34.668,-32.715,0.000
1714023874.666,-30.762,-20.996,-36.133,-34.180,0.000
1714023874.670,-27.832,-21.484,-40.039,-39.551,0.000
1714023874.674,-29.297,-32.715,-32.715,-37.598,0.000
1714023874.678,-29.297,-34.668,-21.484,-30.762,0.000
1714023874.682,-30.273,-26.855,-25.879,-36.621,0.000
1714023874.685,-26.367,-28.809,-33.203,-33.203,0.000
1714023874.689,-23.438,-33.203,-36.133,-29.785,0.000
1714023874.693,-29.785,-29.297,-35.645,-34.668,0.000
1714023874.697,-33.691,-29.297,-33.203,-38.086,0.000
1714023874.701,-28.809,-31.738,-33.203,-42.969,0.000
1714023874.705,-26.855,-28.809,-29.785,-40.039,0.000
1714023874.709,-24.414,-16.602,-21.973,-31.250,0.000
1714023874.713,-20.996,-24.414,-17.090,-25.879,0.000
1714023874.717,-22.949,-39.551,-26.367,-30.762,0.000
1714023874.721,-24.902,-38.086,-26.367,-35.645,0.000
1714023874.725,-28.809,-34.180,-20.508,-29.297,0.000
1714023874.729,-31.250,-32.715,-30.762,-25.879,0.000
1714023874.733,-31.250,-29.297,-31.250,-31.250,0.000
1714023874.737,-34.668,-33.203,-25.391,-41.016,0.000
1714023874.741,-30.762,-25.391,-25.879,-38.086,0.000
1714023874.744,-20.020,-21.973,-17.090,-34.668,0.000
1714023874.748,-21.973,-37.598,-16.602,-42.480,0.000
1714023874.752,-25.879,-35.645,-26.367,-43.945,0.000
1714023874.756,-20.996,-29.297,-31.250,-47.363,0.000
1714023874.760,-23.438,-31.738,-31.250,-42.480,0.000
1714023874.764,-19.531,-34.180,-30.762,-29.785,0.000
1714023874.768,-12.207,-31.250,-27.344,-27.344,0.000
1714023874.772,-20.020,-33.691,-26.367,-32.715,0.000
1714023874.775,-27.832,-38.086,-36.621,-37.598,0.000
1714023874.779,-23.926,-38.086,-31.250,-29.297,0.000
1714023874.783,-17.090,-31.250,-22.461,-23.438,0.000
1714023874.787,-20.996,-34.668,-23.926,-29.297,0.000
1714023874.791,-28.320,-43.945,-27.344,-28.809,0.000
1714023874.795,-28.320,-34.668,-28.809,-28.809,0.000
1714023874.799,-23.926,-28.809,-24.902,-27.832,0.000
1714023874.803,-23.926,-24.414,-18.555,-30.273,0.000
1714023874.807,-25.391,-24.414,-19.531,-34.180,0.000
1714023874.811,-22.949,-23.926,-21.484,-29.297,0.000
1714023874.815,-20.508,-18.066,-22.461,-28.320,0.000
1714023874.819,-17.578,-20.020,-23.926,-31.738,0.000
1714023874.823,-19.531,-32.227,-17.090,-32.715,0.000
1714023874.826,-26.855,-36.621,-19.531,-33.203,0.000
1714023874.830,-24.902,-34.668,-25.391,-31.250,0.000
1714023874.834,-20.996,-26.855,-27.344,-31.250,0.000
1714023874.838,-21.973,-20.996,-22.949,-33.691,0.000
1714023874.842,-26.855,-29.785,-21.973,-34.668,0.000
1714023874.846,-28.320,-27.344,-20.508,-28.809,0.000
1714023874.850,-21.973,-20.020,-10.254,-25.391,0.000
1714023874.854,-19.531,-16.602,-15.137,-29.785,0.000
1714023874.858,-29.297,-21.973,-25.391,-38.574,0.000
1714023874.862,-41.992,-32.715,-28.320,-44.434,0.000
1714023874.866,-35.645,-32.227,-27.344,-40.039,0.000
1714023874.870,-30.762,-35.645,-21.973,-38.086,0.000
1714023874.873,-31.738,-32.227,-17.090,-37.598,0.000
1714023874.877,-30.273,-30.762,-21.484,-39.551,0.000
1714023874.881,-31.250,-29.785,-28.809,-43.457,0.000
1714023874.885,-30.762,-22.949,-24.902,-45.410,0.000
1714023874.889,-25.879,-19.043,-18.555,-41.992,0.000
1714023874.893,-27.832,-17.578,-30.273,-44.922,0.000
1714023874.897,-30.273,-19.531,-33.691,-45.898,0.000
1714023874.901,-30.762,-26.855,-25.879,-49.805,0.000
1714023874.905,-26.367,-34.668,-33.203,-53.711,0.000
1714023874.909,-23.438,-38.574,-30.273,-48.828,0.000
1714023874.913,-24.414,-38.574,-30.762,-45.410,0.000
1714023874.917,-26.855,-34.668,-35.156,-44.922,0.000
1714023874.920,-24.414,-28.809,-30.273,-49.316,0.000
1714023874.924,-18.555,-27.832,-28.320,-42.480,0.000
1714023874.928,-8.789,-22.949,-31.738,-30.762,0.000
1714023874.932,-7.812,-25.879,-31.738,-33.203,0.000
1714023874.936,-20.508,-33.691,-36.133,-34.668,0.000
1714023874.940,-27.344,-30.273,-29.297,-35.156,0.000
1714023874.944,-30.273,-29.297,-19.043,-29.785,0.000
1714023874.948,-29.297,-24.414,-22.949,-24.414,0.000
1714023874.952,-27.832,-23.438,-27.832,-28.320,0.000
1714023874.956,-31.738,-31.250,-35.156,-34.180,0.000
1714023874.960,-36.621,-30.762,-36.621,-34.180,0.000
1714023874.963,-33.203,-20.996,-32.227,-34.668,0.000
1714023874.967,-29.785,-21.973,-32.227,-44.434,0.000
1714023874.971,-30.273,-34.668,-33.203,-36.133,0.000
1714023874.975,-30.762,-30.762,-35.156,-26.855,0.000
1714023874.979,-29.297,-21.484,-37.109,-28.320,0.000
1714023874.983,-32.227,-30.273,-35.156,-36.133,0.000
1714023874.987,-32.715,-33.691,-30.273,-39.551,0.000
1714023874.991,-37.109,-29.297,-32.715,-38.574,0.000
1714023874.995,-40.039,-28.809,-33.691,-36.133,0.000
1714023874.999,-44.434,-28.320,-28.809,-33.691,0.000
1714023875.002,-43.457,-24.902,-26.367,-42.969,0.000
1714023875.006,-45.410,-34.180,-25.879,-46.387,0.000
1714023875.010,-46.387,-36.621,-32.715,-41.016,0.000
1714023875.014,-43.945,-33.691,-35.156,-36.621,0.000
1714023875.018,-41.992,-38.086,-27.344,-33.203,0.000
1714023875.022,-41.016,-34.668,-31.250,-44.434,0.000
1714023875.026,-35.645,-32.715,-38.086,-45.410,0.000
1714023875.030,-31.250,-40.039,-31.738,-40.039,0.000
1714023875.034,-31.738,-37.109,-29.785,-40.527,0.000
1714023875.037,-33.203,-29.785,-39.062,-45.898,0.000
1714023875.041,-33.203,-29.785,-34.668,-39.551,0.000
1714023875.045,-33.691,-29.297,-26.855,-32.715,0.000
1714023875.049,-32.715,-27.344,-29.297,-37.109,0.000
1714023875.053,-33.203,-30.273,-31.738,-42.969,0.000
1714023875.057,-33.691,-35.156,-38.086,-46.387,0.000
1714023875.061,-30.273,-27.344,-34.180,-31.738,0.000
1714023875.065,-28.809,-16.602,-27.832,-29.297,0.000
1714023875.069,-30.273,-21.484,-29.297,-41.016,0.000
1714023875.073,-31.738,-29.297,-31.250,-43.945,0.000
1714023875.077,-29.297,-29.785,-25.879,-41.016,0.000
1714023875.080,-20.020,-31.738,-27.344,-37.109,0.000
1714023875.084,-12.695,-33.691,-34.180,-32.227,0.000
1714023875.088,-15.625,-33.691,-34.180,-31.250,0.000
1714023875.092,-20.996,-32.715,-25.391,-29.297,0.000
1714023875.096,-21.973,-25.879,-25.391,-20.508,0.000
1714023875.100,-22.949,-28.809,-37.109,-24.414,0.000
1714023875.104,-23.438,-33.691,-41.992,-30.762,0.000
1714023875.108,-20.508,-21.484,-33.203,-25.391,0.000
1714023875.111,-22.461,-18.555,-24.902,-26.367,0.000
1714023875.115,-24.414,-34.180,-31.738,-34.668,0.000
1714023875.119,-27.832,-37.598,-38.086,-42.480,0.000
1714023875.123,-27.344,-33.203,-33.691,-42.480,0.000
1714023875.127,-22.461,-31.250,-27.832,-36.133,0.000
1714023875.131,-24.414,-33.691,-31.738,-35.645,0.000
1714023875.135,-26.367,-30.762,-40.527,-39.551,0.000
1714023875.139,-25.391,-30.273,-38.574,-38.574,0.000
1714023875.143,-26.855,-31.250,-31.738,-33.691,0.000
1714023875.146,-27.832,-28.809,-33.203,-31.250,0.000
1714023875.150,-24.902,-33.203,-37.109,-30.273,0.000
1714023875.154,-29.297,-29.785,-30.273,-42.969,0.000
1714023875.158,-27.832,-24.902,-24.414,-42.969,0.000
1714023875.162,-18.555,-29.297,-27.832,-32.715,0.000
1714023875.166,-24.902,-30.762,-28.809,-41.016,0.000
1714023875.170,-34.180,-27.344,-32.227,-46.387,0.000
1714023875.173,-31.250,-32.227,-31.250,-43.457,0.000
1714023875.177,-30.762,-30.762,-28.809,-36.133,0.000
1714023875.181,-29.297,-25.391,-29.297,-31.250,0.000
1714023875.185,-26.367,-32.227,-33.691,-36.133,0.000
1714023875.189,-34.180,-38.574,-32.715,-40.527,0.000
1714023875.193,-35.156,-39.551,-32.227,-33.203,0.000
1714023875.197,-32.715,-35.645,-33.203,-29.297,0.000
1714023875.201,-35.156,-25.879,-34.180,-41.016,0.000
1714023875.205,-35.156,-25.879,-44.922,-44.922,0.000
1714023875.209,-33.691,-30.762,-42.480,-41.504,0.000
1714023875.213,-26.367,-21.973,-29.785,-35.156,0.000
1714023875.216,-26.367,-20.020,-29.297,-34.668,0.000
1714023875.221,-30.273,-26.855,-41.504,-44.922,0.000
1714023875.224,-36.621,-28.320,-42.969,-44.922,0.000
1714023875.228,-40.039,-32.715,-33.691,-37.598,0.000
1714023875.232,-38.574,-39.062,-30.762,-41.016,0.000
1714023875.236,-44.434,-38.086,-35.156,-47.363,0.000
1714023875.240,-45.898,-31.738,-38.086,-45.898,0.000
1714023875.244,-42.969,-32.227,-34.668,-41.504,0.000
1714023875.248,-43.945,-27.344,-34.668,-40.039,0.000
1714023875.252,-41.992,-20.996,-36.133,-38.574,0.000
1714023875.256,-41.016,-25.391,-35.156,-39.062,0.000
1714023875.260,-40.039,-32.227,-32.227,-36.621,0.000
1714023875.263,-38.574,-39.551,-28.809,-34.668,0.000
1714023875.267,-44.922,-39.062,-34.668,-41.504,0.000
1714023875.271,-46.387,-32.715,-30.273,-51.758,0.000
1714023875.275,-42.969,-32.227,-22.949,-49.316,0.000
1714023875.279,-37.109,-34.180,-27.832,-39.551,0.000
1714023875.283,-31.738,-35.156,-34.180,-41.016,0.000
1714023875.287,-34.180,-38.086,-39.551,-50.293,0.000
1714023875.291,-32.227,-31.738,-34.180,-47.363,0.000
1714023875.295,-35.156,-31.738,-31.738,-47.363,0.000
1714023875.299,-38.574,-37.598,-37.598,-45.898,0.000
1714023875.303,-34.668,-33.203,-34.180,-42.480,0.000
1714023875.307,-39.062,-29.297,-31.250,-47.852,0.000
1714023875.310,-37.109,-35.156,-33.203,-39.551,0.000
1714023875.314,-31.738,-40.527,-28.320,-40.039,0.000
1714023875.318,-39.551,-39.551,-32.227,-51.270,0.000
1714023875.322,-37.598,-31.250,-30.762,-49.805,0.000
1714023875.326,-30.273,-32.227,-27.344,-39.551,0.000
1714023875.330,-30.762,-30.762,-31.738,-34.668,0.000
1714023875.334,-32.715,-24.902,-39.062,-40.527,0.000
1714023875.338,-33.691,-29.297,-39.551,-39.551,0.000
1714023875.342,-37.109,-32.227,-30.762,-36.133,0.000
1714023875.346,-38.574,-32.715,-34.668,-34.668,0.000
1714023875.350,-33.203,-28.809,-33.203,-32.715,0.000
1714023875.353,-36.621,-23.438,-30.273,-37.109,0.000
1714023875.357,-38.086,-26.855,-28.320,-35.645,0.000
1714023875.361,-31.738,-26.367,-26.367,-31.738,0.000
1714023875.365,-34.668,-30.273,-25.391,-38.574,0.000
1714023875.369,-33.203,-35.645,-19.531,-41.016,0.000
1714023875.373,-32.227,-35.156,-16.113,-40.527,0.000
1714023875.377,-32.227,-30.762,-15.625,-35.156,0.000
1714023875.381,-28.320,-21.973,-24.414,-25.391,0.000
1714023875.385,-25.391,-17.578,-24.902,-25.879,0.000
1714023875.389,-22.949,-22.949,-25.879,-24.902,0.000
1714023875.393,-27.344,-21.484,-22.461,-27.832,0.000
1714023875.396,-30.762,-20.996,-14.648,-34.180,0.000
1714023875.400,-33.691,-30.273,-20.020,-32.227,0.000
1714023875.404,-33.691,-36.621,-23.926,-30.273,0.000
1714023875.408,-30.762,-27.832,-23.438,-28.320,0.000
1714023875.412,-29.785,-18.555,-17.578,-28.320,0.000
1714023875.416,-26.367,-31.738,-20.996,-30.762,0.000
1714023875.420,-18.066,-24.902,-33.691,-24.414,0.000
1714023875.424,-5.859,-10.742,-41.992,-15.137,0.000
1714023875.428,-8.301,-14.160,-26.855,-17.090,0.000
1714023875.432,-21.973,-20.996,-11.230,-28.320,0.000
1714023875.435,-20.996,-23.926,-18.555,-27.832,0.000
1714023875.439,-21.484,-25.879,-18.555,-23.438,0.000
1714023875.443,-27.344,-30.762,-17.578,-23.926,0.000
1714023875.447,-21.484,-35.645,-7.324,-15.625,0.000
1714023875.451,-26.367,-31.738,-4.395,-18.555,0.000
1714023875.455,-29.785,-28.320,-20.508,-20.020,0.000
1714023875.459,-29.785,-37.109,-24.902,-19.043,0.000
1714023875.463,-20.508,-36.133,-22.949,-13.672,0.000
1714023875.466,-22.461,-34.668,-15.625,-15.137,0.000
1714023875.470,-27.832,-39.062,-20.508,-25.391,0.000
1714023875.474,-12.695,-38.086,-24.902,-15.137,0.000
1714023875.478,-8.789,-35.156,-22.461,-1.953,0.000
1714023875.482,-12.207,-36.133,-23.926,-4.883,0.000
1714023875.486,-18.555,-35.645,-22.461,-11.230,0.000
1714023875.490,-21.484,-35.156,-25.879,-11.719,0.000
1714023875.494,-21.973,-40.527,-23.926,-11.719,0.000
1714023875.498,-20.996,-38.086,-21.484,-12.695,0.000
1714023875.501,-21.973,-32.715,-22.949,-20.020,0.000
1714023875.505,-20.508,-33.203,-24.902,-18.555,0.000
1714023875.509,-18.555,-38.086,-20.508,-12.207,0.000
1714023875.513,-23.438,-43.457,-27.832,-14.648,0.000
1714023875.517,-18.555,-46.387,-36.621,-13.672,0.000
1714023875.521,-17.578,-41.992,-31.738,-16.113,0.000
1714023875.525,-17.578,-33.691,-33.203,-13.672,0.000
1714023875.529,-10.254,-28.809,-22.949,-6.836,0.000
1714023875.533,-12.207,-20.996,-10.254,-10.742,0.000
1714023875.537,-20.508,-25.879,-20.996,-18.066,0.000
1714023875.540,-24.902,-31.738,-31.738,-24.902,0.000
1714023875.544,-24.414,-37.598,-23.926,-18.066,0.000
1714023875.548,-19.531,-45.410,-19.531,-13.672,0.000
1714023875.552,-20.508,-41.504,-30.762,-21.484,0.000
1714023875.556,-19.043,-38.086,-34.668,-25.391,0.000
1714023875.560,-14.648,-30.273,-32.227,-23.438,0.000
1714023875.564,-18.555,-28.320,-29.297,-23.438,0.000
1714023875.568,-16.602,-33.691,-22.949,-14.648,0.000
1714023875.571,-15.625,-32.715,-18.555,-14.648,0.000
1714023875.575,-23.926,-27.344,-16.602,-25.879,0.000
1714023875.579,-25.879,-24.902,-14.160,-25.391,0.000
1714023875.583,-26.367,-30.762,-23.438,-28.320,0.000
1714023875.587,-35.645,-42.480,-34.180,-34.180,0.000
1714023875.591,-39.062,-44.922,-35.156,-32.715,0.000
1714023875.595,-28.320,-40.039,-30.273,-25.391,0.000
1714023875.599,-20.508,-36.133,-22.461,-18.555,0.000
1714023875.603,-20.508,-38.574,-26.855,-23.926,0.000
1714023875.607,-23.438,-39.062,-32.227,-36.133,0.000
1714023875.611,-29.785,-35.645,-27.832,-37.598,0.000
1714023875.615,-34.180,-30.273,-29.785,-37.598,0.000
1714023875.619,-24.902,-23.438,-36.621,-41.016,0.000
1714023875.622,-23.926,-32.715,-34.668,-40.039,0.000
1714023875.626,-31.738,-37.109,-32.227,-40.527,0.000
1714023875.630,-25.879,-25.879,-29.297,-31.250,0.000
1714023875.634,-19.043,-22.461,-15.625,-33.203,0.000
1714023875.638,-20.508,-23.438,-16.113,-37.109,0.000
1714023875.642,-20.508,-24.902,-17.578,-32.227,0.000
1714023875.646,-26.855,-30.273,-21.973,-34.180,0.000
1714023875.650,-32.715,-29.785,-28.809,-37.109,0.000
1714023875.654,-32.227,-32.227,-31.250,-37.109,0.000
1714023875.658,-30.273,-38.574,-30.273,-28.809,0.000
1714023875.662,-22.949,-36.133,-25.879,-23.438,0.000
1714023875.666,-27.344,-32.227,-23.438,-29.297,0.000
1714023875.669,-35.645,-34.180,-29.297,-40.039,0.000
1714023875.673,-35.645,-35.645,-36.621,-38.086,0.000
1714023875.677,-40.527,-32.715,-30.273,-31.738,0.000
1714023875.681,-35.645,-34.668,-22.949,-38.574,0.000
1714023875.685,-23.926,-36.133,-24.902,-37.598,0.000
1714023875.689,-25.391,-32.715,-24.414,-28.320,0.000
1714023875.693,-28.809,-32.715,-26.855,-28.320,0.000
1714023875.697,-30.762,-30.273,-26.367,-29.785,0.000
1714023875.701,-32.227,-26.367,-23.438,-32.715,0.000
1714023875.705,-33.691,-32.227,-26.855,-39.551,0.000
1714023875.709,-39.551,-41.016,-24.414,-40.039,0.000
1714023875.712,-41.504,-36.621,-25.391,-36.133,0.000
1714023875.716,-36.621,-31.738,-34.180,-36.621,0.000
1714023875.720,-33.691,-38.086,-40.527,-32.227,0.000
1714023875.724,-33.203,-35.645,-37.109,-32.715,0.000
1714023875.728,-28.809,-28.320,-28.320,-24.902,0.000
1714023875.732,-23.926,-28.320,-29.785,-19.531,0.000
1714023875.736,-16.113,-27.344,-31.250,-31.250,0.000
1714023875.740,-6.348,-20.020,-20.996,-30.762,0.000
1714023875.744,-7.812,-21.973,-24.902,-29.785,0.000
1714023875.748,-0.488,-31.738,-34.668,-27.832,0.000
1714023875.751,13.672,-26.855,-33.203,-20.020,0.000
1714023875.755,0.000,-21.484,-38.574,-30.762,0.000
1714023875.759,-19.043,-24.902,-41.016,-41.504,0.000
1714023875.763,-20.020,-25.879,-37.109,-29.297,0.000
1714023875.767,-19.043,-19.043,-29.785,-24.902,0.000
1714023875.771,-24.414,-11.719,-31.250,-41.504,0.000
1714023875.775,-34.180,-16.113,-41.504,-49.316,0.000
1714023875.779,-36.133,-24.414,-39.551,-46.387,0.000
1714023875.783,-29.297,-20.508,-42.969,-37.109,0.000
1714023875.787,-31.250,-19.531,-38.574,-39.062,0.000
1714023875.790,-40.039,-30.273,-34.668,-51.270,0.000
1714023875.794,-38.086,-28.320,-31.738,-42.969,0.000
1714023875.798,-32.715,-21.973,-18.555,-37.598,0.000
1714023875.802,-35.156,-23.438,-30.762,-50.293,0.000
1714023875.806,-36.621,-26.855,-41.504,-56.641,0.000
1714023875.810,-39.062,-26.855,-32.227,-45.898,0.000
1714023875.814,-40.527,-27.344,-26.855,-39.062,0.000
1714023875.818,-34.180,-24.902,-22.461,-43.457,0.000
1714023875.822,-34.668,-27.344,-26.855,-46.875,0.000
1714023875.826,-35.156,-28.809,-24.414,-43.945,0.000
1714023875.829,-26.855,-27.832,-17.578,-38.574,0.000
1714023875.833,-22.949,-29.297,-28.809,-36.133,0.000
1714023875.837,-28.320,-29.785,-34.668,-42.480,0.000
1714023875.841,-30.273,-28.809,-35.156,-41.504,0.000
1714023875.845,-30.273,-22.949,-33.203,-39.062,0.000
1714023875.849,-28.320,-19.531,-27.344,-46.387,0.000
1714023875.853,-26.367,-25.879,-33.203,-46.875,0.000
1714023875.857,-31.738,-36.621,-35.156,-44.434,0.000
1714023875.861,-33.691,-34.668,-28.320,-40.039,0.000
1714023875.865,-26.855,-23.438,-27.832,-31.738,0.000
1714023875.868,-25.391,-23.438,-26.855,-33.691,0.000
1714023875.872,-26.855,-34.668,-29.785,-31.738,0.000
1714023875.876,-27.832,-32.227,-33.203,-30.762,0.000
1714023875.880,-24.414,-24.414,-32.715,-33.203,0.000
1714023875.884,-20.508,-25.391,-37.598,-40.527,0.000
1714023875.888,-26.367,-28.320,-38.086,-44.434,0.000
1714023875.892,-28.320,-31.250,-28.320,-35.156,0.000
1714023875.896,-31.250,-29.297,-25.879,-34.668,0.000
1714023875.899,-32.715,-28.809,-33.203,-31.738,0.000
1714023875.903,-26.855,-24.414,-30.273,-33.203,0.000
1714023875.907,-30.273,-25.391,-26.855,-46.875,0.000
1714023875.911,-31.738,-26.855,-29.785,-42.969,0.000
1714023875.915,-27.832,-20.020,-33.203,-36.621,0.000
1714023875.919,-27.344,-26.855,-35.156,-42.480,0.000
1714023875.923,-34.668,-31.738,-26.367,-40.527,0.000
1714023875.927,-37.109,-19.531,-26.367,-32.227,0.000
1714023875.930,-31.250,-17.578,-31.250,-32.715,0.000
1714023875.934,-27.832,-25.391,-22.949,-36.133,0.000
1714023875.938,-29.297,-23.438,-23.926,-38.086,0.000
1714023875.942,-28.809,-22.949,-34.180,-36.133,0.000
1714023875.946,-35.156,-27.832,-34.668,-40.527,0.000
1714023875.950,-36.621,-29.785,-31.250,-43.945,0.000
1714023875.954,-35.645,-29.785,-34.668,-39.551,0.000
1714023875.958,-35.156,-34.180,-32.715,-36.133,0.000
1714023875.962,-24.902,-36.621,-23.926,-27.344,0.000
1714023875.966,-28.809,-38.086,-23.926,-36.133,0.000
1714023875.970,-39.551,-42.480,-32.227,-47.852,0.000
1714023875.974,-38.086,-40.527,-39.062,-46.875,0.000
1714023875.978,-32.715,-26.855,-32.715,-41.992,0.000
1714023875.981,-35.645,-27.344,-26.367,-45.898,0.000
1714023875.985,-32.715,-30.273,-26.367,-50.781,0.000
1714023875.989,-30.762,-24.414,-29.297,-42.480,0.000
1714023875.993,-31.738,-26.367,-37.598,-40.527,0.000
1714023875.997,-31.738,-31.250,-43.945,-44.434,0.000
1714023876.001,-32.715,-34.668,-44.922,-40.039,0.000
1714023876.005,-29.297,-31.250,-44.922,-38.086,0.000
1714023876.009,-41.992,-26.855,-39.551,-52.246,0.000
1714023876.013,-48.340,-28.320,-33.203,-55.664,0.000
1714023876.017,-40.527,-30.273,-22.949,-45.898,0.000
1714023876.021,-49.316,-35.645,-20.020,-52.246,0.000
1714023876.025,-58.594,-32.715,-24.902,-55.176,0.000
1714023876.029,-48.828,-28.809,-28.320,-44.922,0.000
1714023876.032,-45.898,-28.320,-30.273,-43.457,0.000
1714023876.036,-41.016,-24.902,-30.273,-42.480,0.000
1714023876.040,-36.621,-18.555,-28.320,-45.898,0.000
1714023876.044,-41.016,-19.531,-22.949,-47.363,0.000
1714023876.048,-35.645,-32.227,-17.090,-38.086,0.000
1714023876.052,-38.086,-37.109,-21.973,-42.480,0.000
1714023876.056,-40.527,-33.203,-28.809,-44.922,0.000
1714023876.060,-41.992,-38.574,-28.320,-45.898,0.000
1714023876.064,-43.945,-36.621,-30.273,-48.340,0.000
1714023876.068,-39.551,-25.879,-32.227,-41.016,0.000
1714023876.072,-41.504,-36.133,-20.996,-41.016,0.000
1714023876.075,-44.922,-48.828,-16.113,-47.852,0.000
1714023876.079,-46.387,-39.551,-22.949,-51.270,0.000
1714023876.083,-43.457,-41.992,-30.273,-50.781,0.000
1714023876.087,-48.828,-50.293,-39.551,-54.688,0.000
1714023876.091,-53.711,-44.922,-41.504,-54.199,0.000
1714023876.095,-49.316,-35.645,-40.527,-47.852,0.000
1714023876.099,-50.293,-36.133,-31.250,-55.176,0.000
1714023876.103,-40.039,-34.180,-23.438,-48.828,0.000
1714023876.107,-39.062,-38.574,-30.762,-48.340,0.000
1714023876.111,-46.387,-38.086,-30.273,-51.270,0.000
1714023876.114,-48.340,-33.203,-25.391,-53.223,0.000
1714023876.118,-58.105,-45.410,-27.832,-67.383,0.000
1714023876.122,-73.730,-50.781,-34.668,-85.449,0.000
1714023876.126,-85.449,-45.898,-25.391,-98.145,0.000
1714023876.130,-87.402,-39.551,-12.695,-99.121,0.000
1714023876.134,-93.750,-39.551,-11.230,-105.957,0.000
1714023876.138,-100.098,-42.969,-17.578,-102.051,0.000
1714023876.142,-110.352,-43.945,-20.508,-109.863,0.000
1714023876.146,-123.535,-43.945,-18.555,-124.023,0.000
1714023876.150,-127.441,-45.898,-16.602,-126.953,0.000
1714023876.154,-138.672,-48.340,-19.043,-145.020,0.000
1714023876.157,-138.672,-44.922,-24.902,-149.902,0.000
1714023876.161,-124.512,-41.016,-13.672,-134.766,0.000
1714023876.165,-130.371,-50.781,-5.371,-134.277,0.000
1714023876.169,-119.629,-42.969,-12.207,-128.906,0.000
1714023876.173,-98.145,-33.691,-14.160,-112.793,0.000
1714023876.177,-99.609,-40.039,-20.020,-106.934,0.000
1714023876.181,-94.727,-36.621,-32.227,-105.469,0.000
1714023876.185,-79.102,-32.715,-34.180,-102.051,0.000
1714023876.189,-71.777,-34.668,-27.344,-94.238,0.000
1714023876.193,-72.754,-37.109,-32.227,-87.891,0.000
1714023876.196,-66.406,-42.969,-36.133,-78.125,0.000
1714023876.200,-51.758,-40.527,-29.785,-66.406,0.000
1714023876.204,-40.527,-34.668,-27.344,-57.129,0.000
1714023876.208,-34.668,-34.668,-33.203,-54.199,0.000
1714023876.212,-31.250,-26.855,-39.551,-49.805,0.000
1714023876.216,-21.973,-20.996,-42.480,-42.480,0.000
1714023876.220,-10.742,-25.391,-43.945,-35.156,0.000
1714023876.224,-9.277,-29.785,-44.922,-23.926,0.000
1714023876.228,-10.254,-40.039,-48.828,-13.672,0.000
1714023876.231,-8.301,-41.504,-46.875,-13.184,0.000
1714023876.235,-4.395,-32.715,-34.180,-12.207,0.000
1714023876.239,-6.836,-31.738,-43.945,-9.766,0.000
1714023876.243,-6.348,-34.180,-52.246,-0.977,0.000
1714023876.247,4.395,-35.645,-41.016,5.371,0.000
1714023876.251,12.695,-33.691,-41.016,0.977,0.000
1714023876.255,10.742,-27.344,-48.340,-1.953,0.000
1714023876.259,5.859,-31.250,-48.340,0.977,0.000
1714023876.263,16.113,-32.715,-37.109,12.207,0.000
1714023876.266,19.531,-25.391,-35.645,7.324,0.000
1714023876.270,7.812,-23.926,-48.340,-2.930,0.000
1714023876.274,7.812,-28.320,-52.734,2.930,0.000
1714023876.278,12.207,-30.762,-45.410,7.812,0.000
1714023876.282,13.184,-27.344,-44.922,-1.953,0.000
1714023876.286,11.719,-24.414,-50.781,-4.395,0.000
1714023876.290,12.695,-22.949,-48.340,7.812,0.000
1714023876.294,19.531,-18.066,-36.133,16.113,0.000
1714023876.297,24.902,-16.113,-29.785,15.137,0.000
1714023876.301,23.926,-21.973,-35.645,6.348,0.000
1714023876.305,20.508,-25.391,-45.898,4.883,0.000
1714023876.309,16.113,-23.438,-40.039,9.766,0.000
1714023876.313,12.695,-29.785,-33.203,6.348,0.000
1714023876.317,13.672,-29.297,-40.039,1.953,0.000
1714023876.321,12.207,-21.484,-39.551,1.465,0.000
1714023876.325,5.859,-23.926,-31.738,6.348,0.000
1714023876.329,4.395,-34.180,-29.785,14.648,0.000
1714023876.333,7.812,-33.203,-35.645,14.648,0.000
1714023876.336,6.348,-27.832,-38.086,11.719,0.000
1714023876.340,7.812,-29.785,-28.320,4.883,0.000
1714023876.345,6.348,-27.344,-33.691,0.977,0.000
1714023876.348,1.953,-21.973,-40.039,2.441,0.000
1714023876.352,6.836,-19.531,-34.180,-1.465,0.000
1714023876.356,8.301,-19.531,-31.738,0.488,0.000
1714023876.360,5.371,-23.926,-31.250,2.930,0.000
1714023876.364,7.324,-27.344,-31.738,0.488,0.000
1714023876.368,4.395,-21.973,-29.785,-12.207,0.000
1714023876.372,-3.906,-16.602,-24.902,-20.508,0.000
1714023876.376,-7.324,-26.367,-32.715,-9.766,0.000
1714023876.380,-3.418,-28.809,-41.504,0.000,0.000
1714023876.384,-5.371,-29.297,-33.691,-4.395,0.000
1714023876.387,-8.301,-36.133,-25.879,-11.719,0.000
1714023876.392,-14.648,-27.832,-29.297,-8.301,0.000
1714023876.395,-18.555,-29.297,-30.762,-0.488,0.000
1714023876.399,-9.766,-33.691,-30.273,-0.488,0.000
1714023876.403,-5.371,-27.832,-34.668,-9.766,0.000
1714023876.407,-7.324,-32.227,-36.621,-16.113,0.000
1714023876.411,-12.695,-34.180,-43.457,-20.020,0.000
1714023876.415,-20.508,-34.180,-38.574,-20.508,0.000
1714023876.419,-20.996,-31.738,-27.832,-24.414,0.000
1714023876.423,-17.090,-21.973,-35.156,-21.973,0.000
1714023876.427,-20.020,-28.809,-36.621,-16.602,0.000
1714023876.431,-28.320,-34.180,-32.715,-31.250,0.000
1714023876.435,-26.855,-28.809,-34.180,-37.109,0.000
1714023876.438,-27.832,-25.879,-31.738,-32.227,0.000
1714023876.442,-29.785,-23.926,-31.250,-27.344,0.000
1714023876.446,-27.344,-25.391,-27.832,-17.090,0.000
1714023876.450,-17.578,-20.996,-25.879,-14.648,0.000
1714023876.454,-10.254,-12.695,-27.832,-17.090,0.000
1714023876.458,-21.973,-27.832,-36.621,-23.926,0.000
1714023876.462,-24.414,-27.344,-44.922,-25.879,0.000
1714023876.466,-15.137,-20.508,-42.969,-20.508,0.000
1714023876.470,-17.578,-28.320,-35.645,-15.137,0.000
1714023876.474,-22.949,-25.391,-22.949,-16.602,0.000
1714023876.478,-17.578,-23.438,-16.113,-18.555,0.000
1714023876.481,-16.113,-21.484,-14.648,-19.043,0.000
1714023876.485,-20.996,-15.625,-16.602,-29.297,0.000
1714023876.489,-27.832,-26.855,-35.645,-37.109,0.000
1714023876.493,-30.273,-34.668,-47.852,-33.691,0.000
1714023876.497,-32.227,-30.273,-42.969,-37.598,0.000
1714023876.501,-36.621,-29.785,-33.203,-41.992,0.000
1714023876.505,-34.668,-28.320,-23.926,-38.086,0.000
1714023876.509,-39.062,-23.438,-18.555,-35.156,0.000
1714023876.513,-41.504,-21.484,-20.020,-25.879,0.000
1714023876.517,-32.227,-20.020,-23.438,-22.949,0.000
1714023876.521,-38.086,-28.320,-30.273,-35.645,0.000
1714023876.524,-42.480,-31.738,-43.457,-40.039,0.000
1714023876.528,-38.086,-19.043,-46.387,-32.715,0.000
1714023876.532,-31.738,-16.602,-37.109,-30.273,0.000
1714023876.536,-31.250,-25.879,-24.414,-37.598,0.000
1714023876.540,-38.574,-32.227,-29.297,-41.992,0.000
1714023876.544,-41.016,-34.180,-36.133,-36.621,0.000
1714023876.548,-38.086,-28.320,-29.297,-30.762,0.000
1714023876.552,-34.668,-23.926,-36.133,-39.062,0.000
1714023876.556,-37.598,-32.227,-45.410,-46.387,0.000
1714023876.560,-36.621,-29.297,-39.062,-32.715,0.000
1714023876.563,-35.645,-18.555,-24.902,-28.809,0.000
1714023876.567,-34.668,-27.832,-25.879,-36.621,0.000
1714023876.571,-30.273,-27.832,-31.250,-29.297,0.000
1714023876.575,-33.203,-22.461,-27.832,-27.832,0.000
1714023876.579,-35.645,-30.273,-31.738,-35.156,0.000
1714023876.583,-33.203,-30.273,-37.598,-35.645,0.000
1714023876.587,-35.156,-32.227,-37.598,-44.922,0.000
1714023876.591,-38.086,-35.156,-34.180,-39.062,0.000
1714023876.595,-34.668,-28.809,-25.391,-34.668,0.000
1714023876.599,-28.320,-19.531,-12.695,-40.527,0.000
1714023876.602,-21.973,-21.484,-19.531,-42.480,0.000
1714023876.606,-22.949,-26.855,-35.156,-49.316,0.000
1714023876.610,-25.391,-24.414,-37.598,-44.922,0.000
1714023876.614,-20.508,-33.203,-38.086,-40.527,0.000
1714023876.618,-19.531,-40.039,-37.598,-49.316,0.000
1714023876.622,-25.391,-29.297,-32.227,-44.922,0.000
1714023876.626,-29.297,-22.949,-26.855,-31.250,0.000
1714023876.630,-32.227,-28.320,-23.438,-26.855,0.000
1714023876.633,-41.504,-39.551,-22.461,-29.785,0.000
1714023876.637,-49.316,-37.109,-36.133,-32.715,0.000
1714023876.641,-45.898,-32.227,-43.945,-36.621,0.000
1714023876.645,-47.852,-36.133,-38.086,-36.133,0.000
1714023876.649,-41.992,-35.156,-33.691,-27.832,0.000
1714023876.653,-37.598,-30.273,-26.855,-29.297,0.000
1714023876.657,-42.480,-26.367,-22.949,-32.227,0.000
1714023876.661,-39.062,-25.391,-19.043,-28.320,0.000
1714023876.665,-38.574,-28.320,-26.367,-32.715,0.000
1714023876.669,-38.574,-27.832,-34.668,-37.598,0.000
1714023876.672,-39.062,-26.855,-33.691,-42.969,0.000
1714023876.676,-44.434,-34.180,-36.621,-43.457,0.000
1714023876.680,-42.969,-34.668,-30.762,-39.062,0.000
1714023876.684,-40.527,-36.621,-22.949,-41.504,0.000
1714023876.688,-42.480,-39.551,-24.902,-51.270,0.000
1714023876.692,-38.086,-36.621,-34.180,-41.504,0.000
1714023876.696,-34.668,-36.621,-34.668,-27.832,0.000
1714023876.700,-36.133,-38.574,-25.879,-39.551,0.000
1714023876.704,-35.156,-34.668,-31.738,-50.293,0.000
1714023876.707,-18.066,-31.250,-46.387,-31.250,0.000
1714023876.711,-11.230,-29.785,-31.738,-17.090,0.000
1714023876.715,-32.227,-29.785,-19.043,-32.715,0.000
1714023876.719,-37.598,-31.738,-21.484,-37.598,0.000
1714023876.723,-38.086,-34.668,-19.531,-37.109,0.000
1714023876.727,-36.621,-32.715,-20.020,-35.156,0.000
1714023876.731,-29.785,-30.273,-12.207,-32.227,0.000
1714023876.735,-33.691,-35.156,-9.766,-38.086,0.000
1714023876.739,-40.527,-42.480,-13.672,-42.480,0.000
1714023876.743,-45.410,-53.223,-13.184,-44.434,0.000
1714023876.747,-36.621,-54.199,-14.160,-36.621,0.000
1714023876.751,-23.926,-45.410,-19.531,-30.762,0.000
1714023876.755,-25.879,-38.086,-20.020,-29.297,0.000
1714023876.758,-29.297,-34.180,-14.648,-29.785,0.000
1714023876.762,-26.855,-30.762,-11.719,-28.809,0.000
1714023876.766,-21.484,-33.203,-14.648,-27.832,0.000
1714023876.770,-21.973,-36.133,-23.438,-36.133,0.000
1714023876.774,-23.926,-37.109,-18.066,-30.273,0.000
1714023876.778,-22.461,-35.156,-16.113,-27.344,0.000
1714023876.782,-20.020,-37.109,-24.902,-30.273,0.000
1714023876.786,-20.020,-34.668,-23.926,-31.250,0.000
1714023876.790,-19.531,-26.855,-16.113,-31.250,0.000
1714023876.794,-17.578,-23.926,-16.602,-27.832,0.000
1714023876.798,-17.090,-23.438,-29.785,-31.738,0.000
1714023876.802,-22.461,-26.855,-23.438,-29.785,0.000
1714023876.805,-26.855,-34.180,-11.230,-31.250,0.000
1714023876.809,-17.578,-33.203,-23.926,-26.855,0.000
1714023876.813,-16.113,-33.691,-29.785,-24.414,0.000
1714023876.817,-20.996,-32.715,-19.043,-27.344,0.000
1714023876.821,-22.461,-31.250,-17.090,-23.438,0.000
1714023876.825,-22.949,-36.133,-19.043,-19.531,0.000
1714023876.829,-22.461,-29.297,-31.250,-21.973,0.000
1714023876.833,-22.461,-24.902,-35.156,-25.391,0.000
1714023876.837,-21.484,-25.391,-26.367,-32.715,0.000
1714023876.841,-24.414,-27.344,-33.203,-35.156,0.000
1714023876.845,-25.391,-32.715,-38.086,-25.391,0.000
1714023876.849,-22.949,-33.203,-27.344,-33.691,0.000
1714023876.852,-21.973,-27.344,-18.555,-45.898,0.000
1714023876.856,-23.926,-29.297,-21.484,-35.156,0.000
1714023876.860,-21.484,-35.645,-25.879,-26.855,0.000
1714023876.864,-20.020,-31.738,-26.855,-37.109,0.000
1714023876.868,-18.066,-25.879,-26.855,-39.062,0.000
1714023876.872,-24.414,-34.180,-33.691,-36.133,0.000
1714023876.876,-28.809,-37.598,-38.086,-33.691,0.000
1714023876.880,-22.461,-30.762,-31.738,-32.227,0.000
1714023876.884,-26.855,-32.227,-31.250,-41.504,0.000
1714023876.888,-32.227,-32.227,-36.621,-38.086,0.000
1714023876.892,-33.691,-31.738,-39.551,-32.715,0.000
1714023876.895,-36.133,-35.645,-31.738,-41.504,0.000
1714023876.899,-31.738,-30.762,-24.902,-45.410,0.000
1714023876.903,-34.180,-27.344,-34.668,-49.805,0.000
1714023876.907,-40.039,-31.250,-41.016,-50.781,0.000
1714023876.911,-39.062,-28.809,-30.762,-44.922,0.000
1714023876.915,-32.227,-25.879,-24.902,-39.551,0.000
1714023876.919,-29.297,-30.762,-20.508,-38.574,0.000
1714023876.923,-36.133,-33.691,-20.020,-38.574,0.000
1714023876.927,-36.621,-35.645,-21.484,-38.086,0.000
1714023876.931,-30.273,-37.109,-20.508,-30.273,0.000
1714023876.934,-27.832,-31.250,-30.762,-27.344,0.000
1714023876.938,-31.250,-32.227,-33.691,-39.062,0.000
1714023876.942,-34.180,-34.180,-28.809,-41.016,0.000
1714023876.946,-31.738,-33.691,-30.762,-35.156,0.000
1714023876.950,-31.250,-29.785,-31.250,-38.086,0.000
1714023876.954,-39.551,-25.391,-37.109,-43.457,0.000
1714023876.958,-40.527,-27.344,-28.320,-42.480,0.000
1714023876.962,-37.109,-33.691,-15.625,-35.156,0.000
1714023876.966,-36.621,-30.273,-24.902,-36.133,0.000
1714023876.969,-38.574,-26.367,-24.902,-41.504,0.000
1714023876.973,-34.668,-28.809,-25.879,-35.645,0.000
1714023876.977,-33.691,-33.203,-36.621,-27.832,0.000
1714023876.981,-39.062,-27.832,-30.273,-27.344,0.000
1714023876.985,-35.645,-20.996,-16.602,-38.574,0.000
1714023876.989,-33.691,-25.391,-11.230,-46.875,0.000
1714023876.993,-38.086,-23.438,-16.602,-46.387,0.000
1714023876.997,-40.527,-22.949,-24.902,-44.922,0.000
1714023877.001,-44.922,-30.273,-19.043,-54.688,0.000
1714023877.004,-57.617,-40.527,-20.996,-75.684,0.000
1714023877.008,-68.359,-41.992,-31.738,-80.566,0.000
1714023877.012,-70.801,-40.039,-18.555,-77.637,0.000
1714023877.016,-72.754,-38.086,-10.742,-86.426,0.000
1714023877.020,-70.801,-35.645,-15.137,-89.844,0.000
1714023877.024,-77.148,-33.691,-19.531,-95.703,0.000
1714023877.028,-93.262,-35.156,-22.461,-111.328,0.000
1714023877.032,-108.398,-37.109,-23.438,-129.395,0.000
1714023877.036,-116.211,-39.551,-26.367,-133.301,0.000
1714023877.040,-117.188,-37.598,-25.879,-134.277,0.000
1714023877.044,-123.535,-41.504,-22.949,-132.324,0.000
1714023877.047,-129.883,-51.270,-14.160,-140.625,0.000
1714023877.051,-131.348,-41.992,-16.113,-147.461,0.000
1714023877.055,-135.254,-34.668,-24.414,-148.438,0.000
1714023877.059,-139.648,-36.621,-26.855,-155.273,0.000
1714023877.063,-138.672,-36.621,-28.809,-152.832,0.000
1714023877.067,-142.090,-43.457,-28.809,-155.762,0.000
1714023877.071,-146.973,-46.387,-28.809,-161.621,0.000
1714023877.075,-143.555,-38.086,-24.902,-158.691,0.000
1714023877.078,-129.395,-36.133,-32.715,-145.020,0.000
1714023877.082,-122.070,-32.715,-34.668,-140.137,0.000
1714023877.086,-122.070,-31.250,-22.461,-142.578,0.000
1714023877.090,-118.164,-23.926,-33.203,-147.461,0.000
1714023877.094,-111.328,-18.555,-51.758,-140.625,0.000
1714023877.098,-112.305,-33.691,-49.805,-127.930,0.000
1714023877.102,-119.141,-39.062,-49.805,-132.324,0.000
1714023877.106,-119.141,-35.156,-53.711,-137.695,0.000
1714023877.110,-112.305,-27.832,-46.387,-125.000,0.000
1714023877.114,-103.516,-26.855,-46.387,-123.047,0.000
1714023877.118,-101.074,-28.320,-54.688,-134.277,0.000
1714023877.122,-100.586,-18.555,-50.781,-129.883,0.000
1714023877.126,-89.355,-16.602,-52.734,-115.234,0.000
1714023877.129,-82.031,-23.438,-56.641,-110.352,0.000
1714023877.133,-81.543,-15.137,-52.246,-116.699,0.000
1714023877.137,-80.078,-6.836,-57.617,-117.676,0.000
1714023877.141,-68.848,-1.953,-55.664,-100.586,0.000
1714023877.145,-70.312,-10.742,-57.129,-95.215,0.000
1714023877.149,-82.031,-30.273,-64.453,-114.746,0.000
1714023877.153,-79.102,-31.738,-68.848,-122.559,0.000
1714023877.157,-67.871,-25.391,-66.895,-104.004,0.000
1714023877.161,-60.059,-23.926,-56.152,-86.426,0.000
1714023877.165,-56.641,-31.738,-53.223,-80.566,0.000
1714023877.169,-52.246,-20.996,-61.035,-78.613,0.000
1714023877.173,-44.434,-3.418,-68.359,-67.383,0.000
1714023877.176,-34.180,-13.672,-62.012,-45.410,0.000
1714023877.180,-32.715,-19.043,-47.363,-45.898,0.000
1714023877.184,-32.715,-16.602,-45.410,-53.711,0.000
1714023877.188,-26.367,-23.438,-47.852,-40.039,0.000
1714023877.192,-19.043,-18.066,-52.734,-24.414,0.000
1714023877.196,-2.930,-13.672,-48.828,-10.742,0.000
1714023877.200,7.812,-18.066,-48.340,-4.883,0.000
1714023877.204,4.395,-24.902,-59.082,-7.812,0.000
1714023877.208,2.930,-34.180,-59.570,3.906,0.000
1714023877.212,11.230,-41.016,-53.223,13.184,0.000
1714023877.216,20.996,-35.645,-46.387,18.066,0.000
1714023877.219,18.555,-38.574,-45.898,20.508,0.000
1714023877.223,13.184,-41.016,-49.316,12.207,0.000
1714023877.227,22.949,-40.527,-42.480,15.625,0.000
1714023877.231,36.133,-37.598,-36.133,20.996,0.000
1714023877.235,32.227,-39.551,-45.898,12.695,0.000
1714023877.239,32.227,-48.340,-54.688,17.090,0.000
1714023877.243,40.039,-43.945,-58.594,22.461,0.000
1714023877.247,39.551,-40.527,-53.223,20.020,0.000
1714023877.251,34.668,-41.016,-48.340,23.438,0.000
1714023877.255,29.785,-38.086,-60.059,22.461,0.000
1714023877.259,32.227,-33.691,-58.594,23.926,0.000
1714023877.262,41.016,-30.273,-40.527,38.086,0.000
1714023877.266,41.992,-42.480,-41.992,41.504,0.000
1714023877.270,38.086,-43.457,-47.852,29.785,0.000
1714023877.274,34.668,-28.809,-53.223,23.926,0.000
1714023877.278,32.715,-25.879,-51.758,24.902,0.000
1714023877.282,31.738,-23.438,-46.875,21.484,0.000
1714023877.286,32.715,-22.461,-54.199,24.902,0.000
1714023877.290,34.180,-22.949,-48.340,34.180,0.000
1714023877.294,33.203,-17.578,-42.969,34.180,0.000
1714023877.298,30.273,-21.484,-55.176,26.367,0.000
1714023877.302,30.762,-25.879,-62.500,18.066,0.000
1714023877.306,31.250,-25.391,-56.641,23.438,0.000
1714023877.310,29.297,-27.344,-50.293,34.668,0.000
1714023877.314,24.902,-24.902,-47.363,28.320,0.000
1714023877.318,23.438,-16.113,-47.852,14.648,0.000
1714023877.322,17.090,-20.020,-48.828,11.719,0.000
1714023877.325,18.066,-24.414,-47.852,14.160,0.000
1714023877.329,23.438,-15.625,-40.527,13.184,0.000
1714023877.333,23.438,-9.766,-36.621,15.625,0.000
1714023877.337,19.531,-18.066,-44.922,13.672,0.000
1714023877.341,11.230,-29.297,-48.340,1.465,0.000
1714023877.345,6.348,-23.438,-44.922,6.348,0.000
1714023877.349,7.812,-12.695,-47.852,14.160,0.000
1714023877.353,8.789,-10.254,-52.246,8.301,0.000
1714023877.357,2.441,-15.625,-49.316,3.906,0.000
1714023877.360,-0.977,-12.207,-46.387,2.441,0.000
1714023877.364,8.789,-8.301,-44.922,4.883,0.000
1714023877.368,19.043,-12.695,-37.598,15.137,0.000
1714023877.372,7.324,-17.578,-45.410,7.812,0.000
1714023877.376,-4.883,-22.461,-49.805,-3.906,0.000
1714023877.380,0.488,-19.531,-41.992,-2.930,0.000
1714023877.384,0.488,-9.277,-39.551,-5.371,0.000
1714023877.388,-3.906,-11.719,-36.133,-10.742,0.000
1714023877.392,-4.395,-20.996,-32.227,-11.230,0.000
1714023877.395,-6.348,-24.902,-34.668,-17.090,0.000
1714023877.399,0.000,-19.531,-40.527,-16.602,0.000
1714023877.403,16.113,-2.930,-33.691,-2.930,0.000
1714023877.407,20.508,-0.977,-28.320,-2.930,0.000
1714023877.411,14.160,-22.461,-38.574,-7.812,0.000
1714023877.415,16.113,-18.555,-32.227,-4.883,0.000
1714023877.419,17.578,-10.742,-22.461,-8.301,0.000
1714023877.423,2.930,-23.926,-25.879,-13.184,0.000
1714023877.426,-11.230,-22.461,-29.297,-7.324,0.000
1714023877.430,-17.578,-16.113,-24.902,-1.953,0.000
1714023877.434,-25.391,-25.391,-30.762,-9.277,0.000
1714023877.438,-28.320,-20.508,-28.320,-14.648,0.000
1714023877.442,-24.902,-17.090,-21.973,-5.371,0.000
1714023877.446,-24.902,-25.879,-17.090,-2.930,0.000
1714023877.450,-35.645,-29.297,-7.812,-29.785,0.000
1714023877.454,-53.223,-37.598,-24.414,-50.781,0.000
1714023877.458,-73.242,-41.504,-32.715,-58.594,0.000
1714023877.462,-74.707,-35.156,-18.555,-55.664,0.000
1714023877.465,-87.891,-35.156,-10.742,-78.125,0.000
1714023877.470,-114.258,-34.668,-16.602,-114.746,0.000
1714023877.474,-136.719,-41.504,-22.949,-137.695,0.000
1714023877.477,-164.062,-45.410,-31.250,-162.109,0.000
1714023877.481,-177.734,-46.387,-33.691,-173.828,0.000
1714023877.485,-188.965,-46.387,-36.133,-188.477,0.000
1714023877.489,-196.289,-45.410,-33.203,-201.172,0.000
1714023877.493,-192.871,-47.363,-31.250,-193.848,0.000
1714023877.497,-196.777,-48.828,-31.738,-197.754,0.000
1714023877.501,-190.918,-47.852,-34.180,-199.219,0.000
1714023877.505,-176.758,-45.410,-36.621,-184.082,0.000
1714023877.509,-172.852,-42.969,-32.227,-173.828,0.000
1714023877.513,-163.086,-38.086,-24.902,-163.574,0.000
1714023877.517,-152.832,-35.645,-14.648,-155.762,0.000
1714023877.521,-152.832,-52.246,-9.277,-153.320,0.000
1714023877.524,-137.695,-53.223,-12.207,-133.301,0.000
1714023877.528,-121.582,-41.992,-12.695,-114.746,0.000
1714023877.532,-113.770,-46.875,-20.508,-108.887,0.000
1714023877.536,-97.168,-47.852,-22.949,-98.145,0.000
1714023877.540,-83.496,-49.316,-20.508,-85.449,0.000
1714023877.544,-67.383,-53.223,-17.090,-63.965,0.000
1714023877.548,-51.758,-57.617,-20.996,-46.875,0.000
1714023877.552,-37.109,-54.688,-14.648,-40.527,0.000
1714023877.556,-32.715,-47.852,-15.625,-39.062,0.000
1714023877.560,-31.250,-43.945,-32.227,-29.785,0.000
1714023877.564,-16.113,-33.691,-33.691,-23.438,0.000
1714023877.567,-16.113,-33.691,-31.250,-24.414,0.000
1714023877.571,-13.184,-36.133,-33.691,-20.020,0.000
1714023877.575,1.953,-37.598,-36.133,-7.812,0.000
1714023877.579,14.160,-36.621,-34.668,8.301,0.000
1714023877.583,14.160,-29.785,-36.133,7.812,0.000
1714023877.587,7.812,-32.227,-34.180,-3.418,0.000
1714023877.591,14.160,-36.621,-33.203,1.465,0.000
1714023877.595,16.113,-30.273,-42.480,1.953,0.000
1714023877.599,14.648,-24.902,-41.992,1.465,0.000
1714023877.603,13.672,-23.926,-40.039,-1.465,0.000
1714023877.607,16.113,-25.391,-39.551,0.000,0.000
1714023877.610,22.949,-23.438,-38.574,12.207,0.000
1714023877.614,22.949,-20.508,-30.762,13.184,0.000
1714023877.618,22.461,-15.137,-23.438,13.184,0.000
1714023877.622,16.602,-17.090,-33.203,7.812,0.000
1714023877.626,9.277,-22.461,-37.109,2.441,0.000
1714023877.630,11.719,-20.996,-36.133,7.324,0.000
1714023877.634,20.508,-18.066,-40.527,5.371,0.000
1714023877.638,28.320,-18.555,-42.480,7.324,0.000
1714023877.642,19.531,-25.879,-45.410,11.230,0.000
1714023877.646,17.578,-21.973,-41.016,17.090,0.000
1714023877.650,25.879,-5.859,-33.203,23.438,0.000
1714023877.653,25.879,-6.836,-41.016,22.461,0.000
1714023877.657,24.414,-10.254,-45.410,20.020,0.000
1714023877.661,21.484,-9.766,-40.527,13.184,0.000
1714023877.665,19.531,-12.695,-41.016,16.602,0.000
1714023877.669,18.066,-13.184,-38.574,11.230,0.000
1714023877.673,13.672,-16.113,-31.738,0.488,0.000
1714023877.677,15.625,-20.508,-26.855,9.277,0.000
1714023877.681,24.902,-12.207,-31.738,18.066,0.000
1714023877.685,19.531,-11.230,-43.945,12.695,0.000
1714023877.689,9.766,-19.043,-41.992,10.254,0.000
1714023877.692,4.883,-12.695,-41.504,9.766,0.000
1714023877.696,-1.465,-18.066,-43.945,4.883,0.000
1714023877.700,1.953,-24.902,-35.645,0.000,0.000
1714023877.704,0.488,-26.855,-34.180,-3.418,0.000
1714023877.708,-6.348,-30.273,-40.527,-7.324,0.000
1714023877.712,-4.395,-23.438,-33.691,-3.418,0.000
1714023877.716,1.953,-16.602,-19.531,-6.348,0.000
1714023877.720,2.441,-20.020,-20.508,-12.207,0.000
1714023877.724,-2.441,-27.832,-26.367,-8.789,0.000
1714023877.727,2.441,-23.438,-30.762,1.465,0.000
1714023877.731,2.441,-19.043,-34.668,4.883,0.000
1714023877.735,-3.418,-22.461,-27.344,-8.789,0.000
1714023877.739,-5.371,-23.926,-25.391,-16.113,0.000
1714023877.743,-7.812,-18.066,-24.414,-12.695,0.000
1714023877.747,-3.906,-16.602,-20.020,-7.812,0.000
1714023877.751,-4.395,-16.113,-22.949,-13.184,0.000
1714023877.755,-9.766,-15.625,-28.320,-18.066,0.000
1714023877.759,-11.230,-22.461,-32.227,-10.254,0.000
1714023877.762,-10.254,-19.043,-27.832,-10.742,0.000
1714023877.766,-3.906,-9.277,-20.508,-16.113,0.000
1714023877.770,-1.953,-20.020,-22.461,-12.695,0.000
1714023877.774,-8.789,-30.273,-25.391,-10.742,0.000
1714023877.778,-7.812,-24.414,-16.602,-10.742,0.000
1714023877.782,-3.906,-20.508,-12.695,-19.531,0.000
1714023877.786,-9.277,-20.508,-19.531,-26.367,0.000
1714023877.790,-8.789,-30.762,-25.879,-21.973,0.000
1714023877.794,-7.324,-28.809,-23.926,-17.090,0.000
1714023877.797,-6.836,-8.301,-22.949,-15.137,0.000
1714023877.801,-14.160,-8.789,-27.344,-27.832,0.000
1714023877.805,-21.973,-20.996,-23.438,-35.645,0.000
1714023877.809,-27.344,-23.926,-17.090,-32.715,0.000
1714023877.813,-31.250,-27.832,-20.996,-39.062,0.000
1714023877.817,-22.461,-30.762,-26.367,-33.203,0.000
1714023877.821,-13.672,-18.066,-22.461,-23.438,0.000
1714023877.825,-17.090,-16.602,-21.484,-37.109,0.000
1714023877.829,-19.531,-24.902,-29.297,-36.621,0.000
1714023877.832,-16.602,-25.391,-29.297,-33.691,0.000
1714023877.836,-18.066,-22.949,-31.250,-39.551,0.000
1714023877.840,-26.855,-25.879,-32.715,-33.203,0.000
1714023877.844,-31.250,-34.180,-20.996,-34.180,0.000
1714023877.848,-26.855,-38.574,-15.625,-26.855,0.000
1714023877.852,-34.180,-28.320,-19.043,-25.879,0.000
1714023877.856,-34.180,-19.043,-19.043,-32.227,0.000
1714023877.860,-25.879,-23.438,-20.020,-22.461,0.000
1714023877.864,-26.367,-29.785,-30.273,-23.438,0.000
1714023877.868,-20.020,-26.855,-26.855,-26.367,0.000
1714023877.872,-20.020,-35.156,-21.973,-31.738,0.000
1714023877.876,-26.855,-37.109,-27.832,-35.156,0.000
1714023877.880,-26.855,-26.855,-30.273,-33.203,0.000
1714023877.883,-26.855,-33.203,-20.020,-45.410,0.000
1714023877.887,-29.785,-45.898,-13.184,-43.945,0.000
1714023877.891,-30.273,-45.410,-21.973,-36.133,0.000
1714023877.895,-29.297,-34.668,-23.438,-39.551,0.000
1714023877.899,-29.785,-26.855,-22.461,-38.086,0.000
1714023877.903,-33.691,-32.715,-23.438,-36.621,0.000
1714023877.907,-36.133,-29.297,-24.902,-39.551,0.000
1714023877.911,-30.273,-30.273,-22.949,-36.621,0.000
1714023877.915,-25.391,-29.297,-23.438,-35.156,0.000
1714023877.919,-22.461,-26.855,-24.902,-40.039,0.000
1714023877.923,-19.531,-39.062,-30.273,-32.227,0.000
1714023877.927,-17.578,-35.645,-32.715,-23.438,0.000
1714023877.931,-16.602,-15.137,-16.602,-31.738,0.000
1714023877.934,-11.230,-16.113,-8.789,-31.250,0.000
1714023877.938,-15.625,-28.320,-17.578,-29.297,0.000
1714023877.942,-28.809,-26.855,-23.438,-35.156,0.000
1714023877.946,-27.832,-27.344,-22.461,-39.062,0.000
1714023877.950,-20.508,-30.762,-14.648,-34.668,0.000
1714023877.954,-17.578,-19.043,-12.207,-37.598,0.000
1714023877.958,-22.461,-16.602,-25.391,-35.645,0.000
1714023877.962,-36.133,-27.344,-32.715,-38.574,0.000
1714023877.966,-28.809,-24.902,-25.391,-41.016,0.000
1714023877.970,-20.996,-26.855,-16.602,-34.668,0.000
1714023877.974,-25.879,-30.273,-5.859,-33.691,0.000
1714023877.977,-27.344,-31.250,-10.742,-31.738,0.000
1714023877.981,-23.926,-42.969,-18.555,-33.203,0.000
1714023877.985,-23.438,-43.945,-18.555,-38.574,0.000
1714023877.989,-21.973,-28.320,-20.020,-37.598,0.000
1714023877.993,-20.996,-23.926,-20.996,-28.809,0.000
1714023877.997,-18.555,-24.902,-19.043,-28.809,0.000
1714023878.001,-21.973,-32.715,-15.625,-36.621,0.000
1714023878.005,-27.832,-36.133,-17.578,-30.762,0.000
1714023878.009,-27.344,-30.762,-18.555,-28.320,0.000
1714023878.013,-20.996,-32.227,-23.438,-24.902,0.000
1714023878.017,-21.973,-29.297,-31.738,-26.855,0.000
1714023878.020,-27.344,-19.531,-35.156,-34.180,0.000
1714023878.024,-22.461,-20.020,-31.738,-30.762,0.000
1714023878.028,-20.508,-31.738,-25.879,-27.832,0.000
1714023878.032,-15.625,-30.273,-23.926,-26.855,0.000
1714023878.036,-20.508,-23.438,-24.414,-35.156,0.000
1714023878.040,-26.367,-29.297,-22.461,-31.738,0.000
1714023878.044,-22.949,-28.320,-25.879,-24.902,0.000
1714023878.048,-32.227,-26.367,-35.156,-41.992,0.000
1714023878.052,-29.785,-34.180,-26.855,-40.527,0.000
1714023878.056,-22.949,-21.973,-20.996,-34.180,0.000
1714023878.059,-29.785,-16.602,-25.391,-32.715,0.000
1714023878.063,-28.809,-26.855,-21.973,-29.297,0.000
1714023878.067,-24.902,-28.809,-24.414,-34.668,0.000
1714023878.071,-27.832,-29.297,-19.531,-34.668,0.000
1714023878.075,-31.738,-27.832,-16.602,-36.621,0.000
1714023878.079,-31.250,-21.973,-25.879,-38.086,0.000
1714023878.083,-23.926,-27.344,-26.367,-31.250,0.000
1714023878.087,-17.578,-30.762,-24.414,-26.367,0.000
1714023878.091,-24.414,-27.344,-33.203,-21.484,0.000
1714023878.094,-26.855,-21.973,-32.715,-21.484,0.000
1714023878.098,-24.902,-21.973,-24.902,-21.484,0.000
1714023878.102,-27.832,-27.832,-22.949,-18.066,0.000
1714023878.106,-30.273,-31.738,-31.250,-22.461,0.000
1714023878.110,-37.109,-30.273,-31.738,-25.391,0.000
1714023878.114,-38.574,-25.879,-24.414,-26.855,0.000
1714023878.118,-31.250,-24.414,-23.926,-38.574,0.000
1714023878.122,-28.809,-21.973,-33.691,-40.039,0.000
1714023878.126,-29.297,-24.902,-34.180,-34.668,0.000
1714023878.129,-29.297,-27.344,-32.715,-35.645,0.000
1714023878.133,-30.762,-28.320,-31.738,-43.457,0.000
1714023878.137,-30.762,-31.738,-32.715,-47.363,0.000
1714023878.141,-40.527,-31.250,-40.039,-47.363,0.000
1714023878.145,-42.969,-23.926,-36.133,-41.992,0.000
1714023878.149,-39.062,-19.531,-31.738,-30.273,0.000
1714023878.153,-46.875,-22.949,-31.250,-41.504,0.000
1714023878.157,-42.969,-26.855,-30.273,-45.410,0.000
1714023878.161,-41.504,-25.391,-26.367,-23.438,0.000
1714023878.165,-40.527,-19.531,-22.461,-20.020,0.000
1714023878.168,-39.062,-22.461,-26.367,-25.391,0.000
1714023878.173,-46.875,-34.180,-33.203,-22.949,0.000
1714023878.177,-38.574,-30.762,-29.297,-13.184,0.000
1714023878.180,-31.738,-20.020,-25.879,-14.648,0.000
1714023878.184,-43.457,-24.414,-29.297,-34.668,0.000
1714023878.188,-44.922,-34.668,-27.344,-43.457,0.000
1714023878.192,-45.410,-31.250,-29.297,-36.133,0.000
1714023878.196,-41.504,-27.344,-33.203,-33.691,0.000
1714023878.200,-21.973,-23.926,-23.438,-30.762,0.000
1714023878.204,-20.020,-19.043,-31.738,-40.527,0.000
1714023878.208,-24.902,-24.902,-48.828,-48.828,0.000
1714023878.212,-20.020,-35.156,-41.504,-45.898,0.000
1714023878.216,-16.602,-29.785,-29.785,-49.805,0.000
1714023878.220,-20.508,-26.855,-22.461,-53.223,0.000
1714023878.224,-34.180,-26.367,-20.020,-50.293,0.000
1714023878.228,-46.387,-22.461,-25.879,-48.340,0.000
1714023878.232,-47.363,-24.902,-17.090,-45.898,0.000
1714023878.235,-59.082,-32.715,-18.066,-54.688,0.000
1714023878.239,-73.242,-39.062,-28.809,-64.453,0.000
1714023878.243,-75.684,-44.434,-26.855,-68.848,0.000
1714023878.247,-81.543,-44.434,-21.484,-78.613,0.000
1714023878.251,-84.473,-37.109,-19.043,-88.867,0.000
1714023878.255,-103.516,-44.434,-24.414,-99.609,0.000
1714023878.259,-124.512,-58.594,-22.949,-108.887,0.000
1714023878.263,-114.258,-46.387,-20.508,-109.375,0.000
1714023878.267,-117.676,-45.410,-14.160,-109.375,0.000
1714023878.271,-146.973,-65.918,-7.812,-127.930,0.000
1714023878.275,-159.668,-66.406,-0.977,-147.461,0.000
1714023878.279,-151.367,-54.688,1.465,-146.484,0.000
1714023878.282,-161.133,-61.035,-9.766,-160.156,0.000
1714023878.286,-171.875,-65.430,-8.789,-178.711,0.000
1714023878.290,-173.828,-58.594,-5.371,-176.758,0.000
1714023878.294,-176.758,-56.641,-7.324,-172.363,0.000
1714023878.298,-165.039,-56.152,-9.766,-162.598,0.000
1714023878.302,-158.691,-58.105,-13.184,-159.668,0.000
1714023878.306,-153.809,-50.781,-25.879,-167.480,0.000
1714023878.310,-157.227,-46.387,-38.086,-164.551,0.000
1714023878.314,-160.156,-50.293,-42.969,-162.109,0.000
1714023878.318,-149.414,-50.781,-39.551,-160.645,0.000
1714023878.322,-143.555,-53.711,-39.551,-158.691,0.000
1714023878.325,-139.160,-59.570,-33.203,-148.926,0.000
1714023878.329,-134.766,-52.246,-32.715,-135.742,0.000
1714023878.333,-130.371,-48.340,-45.410,-133.789,0.000
1714023878.337,-125.000,-49.316,-38.086,-132.324,0.000
1714023878.341,-103.516,-42.969,-22.461,-108.398,0.000
1714023878.345,-89.844,-40.039,-20.996,-86.914,0.000
1714023878.349,-93.750,-36.133,-25.391,-89.844,0.000
1714023878.353,-83.496,-25.879,-19.531,-92.773,0.000
1714023878.357,-78.613,-35.156,-10.742,-90.332,0.000
1714023878.361,-78.125,-41.016,-18.066,-86.914,0.000
1714023878.365,-71.289,-34.180,-24.414,-84.473,0.000
1714023878.368,-65.430,-36.621,-26.367,-88.379,0.000
1714023878.372,-57.129,-38.086,-24.414,-80.078,0.000
1714023878.376,-51.270,-34.668,-26.855,-70.312,0.000
1714023878.380,-44.922,-29.297,-37.598,-67.383,0.000
1714023878.384,-35.156,-25.391,-42.480,-62.988,0.000
1714023878.388,-31.250,-26.367,-40.039,-55.664,0.000
1714023878.392,-24.414,-30.273,-36.133,-44.922,0.000
1714023878.396,-14.648,-25.879,-33.203,-39.062,0.000
1714023878.400,-9.277,-25.391,-36.133,-36.133,0.000
1714023878.404,-1.953,-29.785,-41.504,-28.320,0.000
1714023878.407,6.348,-26.367,-43.945,-22.461,0.000
1714023878.411,9.766,-23.926,-42.969,-16.113,0.000
1714023878.415,11.230,-24.414,-36.621,-10.254,0.000
1714023878.419,11.230,-22.949,-35.645,-5.371,0.000
1714023878.423,13.184,-18.066,-38.574,7.324,0.000
1714023878.427,18.066,-16.602,-36.621,12.207,0.000
1714023878.431,22.949,-23.926,-39.551,10.254,0.000
1714023878.435,20.996,-28.809,-37.598,12.695,0.000
1714023878.439,19.531,-25.391,-32.227,9.766,0.000
1714023878.443,23.926,-18.066,-33.691,2.930,0.000
1714023878.447,20.020,-20.996,-33.691,-2.930,0.000
1714023878.450,15.625,-24.902,-38.086,-8.789,0.000
1714023878.454,15.137,-23.438,-46.387,-13.184,0.000
1714023878.458,14.648,-19.531,-48.828,-9.277,0.000
1714023878.462,13.672,-20.020,-48.340,1.953,0.000
1714023878.466,9.766,-32.715,-41.016,-1.953,0.000
1714023878.470,11.719,-33.203,-35.156,-8.789,0.000
1714023878.474,12.695,-27.344,-43.457,1.465,0.000
1714023878.478,14.160,-21.484,-44.922,9.277,0.000
1714023878.482,20.020,-19.043,-40.039,8.789,0.000
1714023878.485,25.879,-23.926,-38.086,10.742,0.000
1714023878.489,31.738,-32.715,-45.898,18.066,0.000
1714023878.493,32.227,-29.785,-46.387,25.879,0.000
1714023878.497,32.715,-25.391,-37.598,29.785,0.000
1714023878.501,33.691,-20.996,-27.344,30.762,0.000
1714023878.505,32.227,-11.230,-26.367,25.879,0.000
1714023878.509,24.902,-12.207,-38.086,21.484,0.000
1714023878.513,23.926,-12.695,-38.574,28.320,0.000
1714023878.516,21.973,-12.207,-38.574,23.926,0.000
1714023878.520,15.137,-7.812,-44.922,5.371,0.000
1714023878.524,13.672,-11.230,-46.387,10.254,0.000
1714023878.528,8.301,-20.996,-45.410,15.137,0.000
1714023878.532,9.277,-15.625,-40.527,6.348,0.000
1714023878.536,11.719,-8.301,-31.738,1.465,0.000
1714023878.540,3.906,-9.277,-41.016,-3.906,0.000
1714023878.544,6.836,-14.648,-41.992,-0.977,0.000
1714023878.547,14.160,-14.160,-34.668,1.465,0.000
1714023878.551,11.719,-13.672,-48.828,-6.836,0.000
1714023878.555,4.395,-19.043,-49.805,-14.648,0.000
1714023878.559,-2.930,-23.438,-50.293,-17.090,0.000
1714023878.563,2.930,-22.949,-50.781,-5.371,0.000
1714023878.567,13.672,-21.484,-40.527,9.766,0.000
1714023878.571,16.113,-21.484,-45.410,2.930,0.000
1714023878.575,14.648,-18.555,-48.340,0.977,0.000
1714023878.579,17.578,-20.020,-41.016,2.930,0.000
1714023878.583,24.902,-14.648,-28.809,9.766,0.000
1714023878.587,26.367,-7.324,-19.531,16.113,0.000
1714023878.590,12.207,-19.043,-33.691,10.742,0.000
1714023878.595,7.812,-27.344,-43.945,16.113,0.000
1714023878.598,12.695,-16.113,-33.691,17.578,0.000
1714023878.602,8.301,-16.602,-36.621,3.906,0.000
1714023878.606,1.465,-24.902,-44.434,-2.930,0.000
1714023878.610,-5.859,-30.273,-41.504,-2.441,0.000
1714023878.614,-9.766,-29.297,-33.691,-2.441,0.000
1714023878.618,-11.719,-24.902,-22.461,-7.324,0.000
1714023878.622,-17.578,-32.227,-24.902,-18.555,0.000
1714023878.626,-16.602,-33.203,-31.250,-16.113,0.000
1714023878.630,-16.113,-25.879,-24.902,-14.648,0.000
1714023878.634,-13.184,-20.508,-21.973,-20.508,0.000
1714023878.638,-10.742,-26.855,-27.344,-14.648,0.000
1714023878.642,-11.230,-24.414,-29.297,-14.648,0.000
1714023878.645,-10.254,-17.578,-30.273,-12.207,0.000
1714023878.649,-3.906,-25.879,-19.043,-6.348,0.000
1714023878.653,-3.906,-25.879,-14.160,-9.277,0.000
1714023878.657,-12.695,-28.320,-22.461,-11.230,0.000
1714023878.661,-12.695,-36.621,-20.508,-3.906,0.000
1714023878.665,-4.883,-29.297,-22.461,-3.418,0.000
1714023878.669,-4.883,-28.320,-31.738,-8.789,0.000
1714023878.673,-13.672,-39.062,-31.250,-3.906,0.000
1714023878.677,-23.438,-36.621,-29.785,-4.395,0.000
1714023878.681,-20.508,-27.832,-20.508,-9.766,0.000
1714023878.685,-16.602,-32.715,-10.254,-14.160,0.000
1714023878.689,-25.391,-35.645,-16.113,-18.555,0.000
1714023878.693,-26.855,-26.855,-20.020,-15.625,0.000
1714023878.697,-28.809,-23.926,-19.531,-22.949,0.000
1714023878.701,-34.668,-26.855,-25.391,-33.203,0.000
1714023878.705,-31.738,-27.344,-31.250,-40.039,0.000
1714023878.709,-30.762,-18.066,-24.414,-39.062,0.000
1714023878.713,-29.297,-19.531,-12.207,-40.039,0.000
1714023878.716,-24.902,-29.785,-8.789,-41.504,0.000
1714023878.720,-23.438,-30.273,-24.414,-38.086,0.000
1714023878.724,-19.043,-29.297,-21.973,-34.668,0.000
1714023878.728,-15.137,-24.902,-12.207,-29.297,0.000
1714023878.732,-14.160,-19.531,-22.949,-27.832,0.000
1714023878.736,-8.789,-17.090,-29.785,-28.320,0.000
1714023878.740,-3.418,-15.137,-29.785,-22.949,0.000
1714023878.744,-9.766,-16.602,-27.344,-21.973,0.000
1714023878.748,-16.113,-17.578,-23.926,-22.949,0.000
1714023878.752,-19.531,-22.949,-21.973,-27.344,0.000
1714023878.755,-17.578,-31.738,-16.113,-31.250,0.000
1714023878.759,-16.113,-26.367,-16.602,-25.391,0.000
1714023878.763,-31.250,-20.020,-26.855,-32.715,0.000
1714023878.767,-40.039,-24.414,-26.855,-39.551,0.000
1714023878.771,-31.250,-34.668,-22.461,-36.621,0.000
1714023878.775,-30.273,-38.574,-24.902,-34.668,0.000
1714023878.779,-35.156,-26.855,-30.273,-33.203,0.000
1714023878.783,-36.621,-16.602,-29.297,-39.551,0.000
1714023878.787,-37.598,-22.461,-26.855,-51.758,0.000
1714023878.791,-36.133,-28.320,-20.020,-50.293,0.000
1714023878.794,-33.203,-19.043,-12.695,-42.969,0.000
1714023878.798,-27.832,-23.438,-19.043,-40.527,0.000
1714023878.802,-17.578,-28.809,-26.367,-38.574,0.000
1714023878.806,-15.625,-24.902,-23.438,-32.227,0.000
1714023878.810,-13.184,-23.438,-24.902,-18.066,0.000
1714023878.814,-10.254,-24.902,-22.949,-16.113,0.000
1714023878.818,-10.742,-22.949,-20.020,-22.461,0.000
1714023878.822,-12.207,-18.555,-26.855,-24.902,0.000
1714023878.826,-13.672,-18.555,-31.250,-25.391,0.000
1714023878.829,-17.578,-22.949,-30.762,-21.484,0.000
1714023878.833,-19.531,-30.273,-23.438,-22.949,0.000
1714023878.837,-14.160,-31.250,-23.926,-23.438,0.000
1714023878.841,-17.090,-21.973,-31.738,-22.949,0.000
1714023878.845,-18.066,-9.766,-20.020,-15.137,0.000
1714023878.849,-14.648,-17.578,-4.395,-13.672,0.000
1714023878.853,-22.461,-31.250,-16.113,-26.367,0.000
1714023878.857,-30.273,-40.527,-27.832,-29.785,0.000
1714023878.861,-31.738,-40.039,-31.250,-36.621,0.000
1714023878.865,-30.273,-24.902,-37.109,-44.434,0.000
1714023878.868,-32.715,-21.973,-34.180,-44.434,0.000
1714023878.872,-31.738,-22.461,-37.598,-42.480,0.000
1714023878.876,-27.344,-18.066,-30.762,-42.480,0.000
1714023878.880,-25.879,-20.020,-19.531,-34.668,0.000
1714023878.884,-21.484,-22.949,-22.949,-32.227,0.000
1714023878.888,-21.484,-20.508,-22.461,-37.598,0.000
1714023878.892,-19.043,-22.949,-22.461,-27.832,0.000
1714023878.896,-15.625,-29.785,-28.809,-20.508,0.000
1714023878.900,-15.625,-34.180,-30.273,-16.602,0.000
1714023878.903,-13.672,-28.320,-33.203,-16.113,0.000
1714023878.907,-14.160,-15.137,-23.438,-15.625,0.000
1714023878.911,-23.438,-18.555,-18.066,-18.066,0.000
1714023878.915,-25.879,-33.203,-26.367,-27.832,0.000
1714023878.919,-20.996,-27.832,-22.461,-30.273,0.000
1714023878.923,-25.391,-25.391,-20.996,-28.809,0.000
1714023878.927,-35.645,-36.133,-33.691,-30.273,0.000
1714023878.931,-27.832,-33.691,-38.086,-25.879,0.000
1714023878.934,-25.391,-29.297,-35.156,-23.926,0.000
1714023878.938,-35.156,-19.531,-33.203,-38.574,0.000
1714023878.942,-29.785,-23.438,-23.926,-37.598,0.000
1714023878.946,-27.344,-43.457,-19.531,-24.902,0.000
1714023878.950,-22.949,-33.203,-20.508,-34.180,0.000
1714023878.954,-22.949,-28.809,-22.461,-46.387,0.000
1714023878.958,-29.785,-29.297,-32.227,-48.828,0.000
1714023878.962,-26.367,-22.461,-36.621,-38.086,0.000
1714023878.966,-20.508,-20.996,-30.273,-31.250,0.000
1714023878.970,-24.902,-18.555,-37.598,-38.086,0.000
1714023878.974,-26.855,-22.461,-38.086,-35.645,0.000
1714023878.978,-22.461,-34.668,-24.902,-27.344,0.000
1714023878.982,-14.648,-32.227,-25.391,-27.344,0.000
1714023878.985,-9.277,-29.297,-24.414,-23.926,0.000
1714023878.989,-15.137,-29.785,-32.715,-22.949,0.000
1714023878.993,-20.020,-23.926,-40.527,-20.508,0.000
1714023878.997,-25.391,-16.113,-31.738,-19.531,0.000
1714023879.001,-26.855,-22.949,-32.227,-25.879,0.000
1714023879.005,-26.855,-25.879,-28.809,-27.832,0.000
1714023879.009,-31.738,-29.785,-23.438,-31.250,0.000
1714023879.013,-27.344,-37.109,-33.691,-30.273,0.000
1714023879.017,-23.926,-25.879,-37.598,-28.320,0.000
1714023879.021,-24.902,-24.902,-31.250,-34.180,0.000
1714023879.025,-29.785,-30.273,-30.762,-38.574,0.000
1714023879.029,-25.879,-21.484,-39.551,-39.062,0.000
1714023879.032,-21.973,-19.043,-49.316,-44.922,0.000
1714023879.036,-22.949,-20.996,-44.922,-50.293,0.000
1714023879.040,-25.391,-19.531,-28.320,-58.594,0.000
1714023879.044,-25.391,-30.273,-22.949,-52.734,0.000
1714023879.048,-14.648,-35.156,-27.832,-30.273,0.000
1714023879.052,-16.602,-20.508,-33.691,-31.738,0.000
1714023879.056,-24.902,-19.531,-33.203,-46.875,0.000
1714023879.060,-25.391,-28.320,-44.434,-47.852,0.000
1714023879.064,-19.531,-21.484,-54.199,-35.156,0.000
1714023879.068,-4.883,-11.230,-43.457,-26.367,0.000
1714023879.072,-6.348,-10.742,-36.133,-34.180,0.000
1714023879.076,-8.301,-15.137,-40.039,-38.574,0.000
1714023879.079,-3.906,-18.555,-45.898,-45.410,0.000
1714023879.083,-4.395,-17.578,-48.828,-55.664,0.000
1714023879.087,-13.184,-15.625,-41.504,-60.547,0.000
1714023879.091,-21.973,-14.648,-37.598,-48.828,0.000
1714023879.095,-24.414,-19.043,-42.969,-31.738,0.000
1714023879.099,-32.227,-23.438,-33.203,-38.574,0.000
1714023879.103,-34.180,-18.555,-35.645,-38.574,0.000
1714023879.107,-33.203,-16.113,-43.457,-28.320,0.000
1714023879.111,-37.109,-26.367,-40.039,-40.039,0.000
1714023879.115,-38.086,-23.438,-34.180,-45.898,0.000
1714023879.118,-39.062,-10.254,-33.203,-45.898,0.000
1714023879.122,-37.109,-14.648,-29.297,-41.016,0.000
1714023879.126,-36.621,-13.672,-14.648,-35.156,0.000
1714023879.130,-37.598,-6.348,-17.578,-35.645,0.000
1714023879.134,-33.691,-8.789,-28.809,-40.527,0.000
1714023879.138,-26.367,-18.066,-33.691,-41.992,0.000
1714023879.142,-20.508,-20.996,-33.203,-34.180,0.000
1714023879.146,-26.367,-14.160,-28.320,-30.273,0.000
1714023879.150,-23.438,-14.160,-18.555,-36.133,0.000
1714023879.154,-26.367,-16.602,-12.207,-38.086,0.000
1714023879.157,-45.410,-21.484,-19.043,-42.480,0.000
1714023879.161,-55.176,-31.738,-25.391,-56.152,0.000
1714023879.165,-53.223,-30.762,-24.902,-50.293,0.000
1714023879.169,-62.500,-26.367,-19.043,-63.965,0.000
1714023879.173,-77.637,-28.320,-22.949,-91.797,0.000
1714023879.177,-86.426,-33.691,-31.738,-100.098,0.000
1714023879.181,-104.980,-43.457,-27.832,-111.816,0.000
1714023879.185,-132.812,-47.363,-27.832,-135.742,0.000
1714023879.189,-149.902,-45.410,-30.762,-161.621,0.000
1714023879.193,-153.320,-52.734,-30.273,-176.270,0.000
1714023879.197,-157.227,-50.781,-25.879,-173.340,0.000
1714023879.200,-159.180,-42.969,-24.414,-170.898,0.000
1714023879.205,-151.855,-47.363,-18.555,-169.434,0.000
1714023879.209,-138.184,-41.504,-10.742,-155.762,0.000
1714023879.213,-131.836,-41.016,-13.184,-147.949,0.000
1714023879.216,-122.559,-40.527,-9.766,-139.648,0.000
1714023879.220,-110.840,-36.133,-0.488,-129.395,0.000
1714023879.224,-108.887,-40.039,0.000,-122.559,0.000
1714023879.228,-100.586,-44.922,-9.277,-106.934,0.000
1714023879.232,-89.844,-53.711,-7.812,-92.285,0.000
1714023879.236,-83.496,-51.758,-10.742,-93.262,0.000
1714023879.240,-73.730,-48.828,-19.043,-88.379,0.000
1714023879.244,-64.941,-52.734,-21.484,-67.383,0.000
1714023879.248,-51.758,-41.992,-17.578,-50.293,0.000
1714023879.251,-34.668,-30.762,-5.371,-35.645,0.000
1714023879.255,-23.926,-31.250,-6.836,-25.879,0.000
1714023879.259,-28.809,-32.227,-16.113,-27.832,0.000
1714023879.263,-26.367,-27.344,-15.137,-26.367,0.000
1714023879.267,-12.695,-19.043,-13.672,-28.809,0.000
1714023879.271,-13.184,-24.902,-25.879,-30.762,0.000
1714023879.275,-22.461,-33.691,-38.086,-28.809,0.000
1714023879.279,-28.809,-37.598,-31.250,-33.691,0.000
1714023879.283,-24.902,-37.598,-18.066,-37.109,0.000
1714023879.287,-21.484,-36.133,-19.531,-44.434,0.000
1714023879.290,-19.043,-40.039,-28.809,-33.691,0.000
1714023879.294,-3.418,-28.809,-18.555,-14.648,0.000
1714023879.298,-0.977,-22.461,-14.160,-17.578,0.000
1714023879.302,-6.348,-20.020,-26.367,-21.484,0.000
1714023879.306,-10.742,-20.508,-22.949,-28.809,0.000
1714023879.310,-19.043,-35.645,-21.484,-35.156,0.000
1714023879.314,-30.273,-35.156,-31.250,-41.016,0.000
1714023879.318,-35.645,-32.227,-28.809,-46.875,0.000
1714023879.321,-36.621,-26.855,-25.391,-52.246,0.000
1714023879.325,-44.434,-26.367,-12.695,-52.246,0.000
1714023879.329,-71.289,-28.809,-0.488,-74.707,0.000
1714023879.333,-99.121,-29.297,0.000,-97.656,0.000
1714023879.337,-104.492,-33.203,-5.371,-98.633,0.000
1714023879.341,-113.281,-37.109,-8.789,-114.746,0.000
1714023879.345,-123.535,-34.180,-5.859,-129.395,0.000
1714023879.349,-126.953,-26.367,-1.465,-135.254,0.000
1714023879.353,-124.023,-20.508,-8.789,-132.324,0.000
1714023879.357,-123.535,-18.066,-11.230,-125.488,0.000
1714023879.361,-121.582,-19.531,-15.137,-126.465,0.000
1714023879.365,-105.469,-25.391,-18.555,-119.141,0.000
1714023879.369,-92.773,-33.203,-7.812,-106.934,0.000
1714023879.372,-90.332,-32.715,-5.859,-97.656,0.000
1714023879.376,-76.660,-22.949,-13.672,-84.473,0.000
1714023879.380,-61.523,-22.461,-19.043,-62.988,0.000
1714023879.384,-45.898,-25.391,-9.277,-49.316,0.000
1714023879.388,-34.180,-21.973,-13.184,-52.246,0.000
1714023879.392,-23.926,-25.879,-27.344,-41.016,0.000
1714023879.396,-16.113,-36.133,-30.762,-20.508,0.000
1714023879.400,-10.742,-31.250,-33.691,-12.695,0.000
1714023879.404,-3.418,-25.879,-35.645,-10.254,0.000
1714023879.408,3.906,-24.414,-38.086,-0.488,0.000
1714023879.412,14.160,-22.949,-32.227,5.371,0.000
1714023879.416,19.043,-22.949,-21.973,13.184,0.000
1714023879.419,20.996,-20.996,-18.555,13.184,0.000
1714023879.423,13.672,-26.367,-28.320,6.348,0.000
1714023879.427,8.789,-30.762,-34.668,8.301,0.000
1714023879.431,20.996,-31.738,-30.273,6.348,0.000
1714023879.435,22.461,-30.273,-33.203,-3.418,0.000
1714023879.439,17.090,-22.461,-31.250,-3.418,0.000
1714023879.443,24.414,-17.090,-20.996,13.672,0.000
1714023879.447,30.762,-19.043,-16.113,25.879,0.000
1714023879.451,36.621,-31.250,-19.531,32.227,0.000
1714023879.455,40.039,-30.273,-30.762,34.180,0.000
1714023879.459,37.109,-22.949,-33.691,35.156,0.000
1714023879.462,34.668,-24.414,-23.926,32.715,0.000
1714023879.466,38.574,-23.438,-26.367,31.250,0.000
1714023879.470,36.133,-21.973,-32.715,30.273,0.000
1714023879.474,33.691,-18.555,-30.762,23.926,0.000
1714023879.478,29.785,-16.602,-27.832,21.973,0.000
1714023879.482,24.902,-20.508,-23.926,22.949,0.000
1714023879.486,27.832,-21.484,-26.855,18.555,0.000
1714023879.490,19.531,-25.879,-28.809,16.113,0.000
1714023879.494,13.672,-30.273,-25.879,20.020,0.000
1714023879.498,18.555,-25.879,-20.020,22.949,0.000
1714023879.502,18.555,-22.949,-15.625,16.602,0.000
1714023879.505,11.719,-31.738,-26.855,6.348,0.000
1714023879.509,8.301,-31.250,-31.250,8.301,0.000
1714023879.513,9.277,-20.020,-30.762,5.859,0.000
1714023879.517,10.254,-18.066,-23.926,3.906,0.000
1714023879.521,9.277,-20.020,-23.926,-1.953,0.000
1714023879.525,7.324,-18.066,-32.227,-0.977,0.000
1714023879.529,9.766,-11.719,-26.855,7.324,0.000
1714023879.533,9.766,-17.578,-29.297,4.883,0.000
1714023879.537,9.766,-18.066,-32.227,1.953,0.000
1714023879.541,6.836,-18.066,-31.250,0.000,0.000
1714023879.544,0.000,-23.438,-35.156,0.488,0.000
1714023879.548,-0.977,-15.137,-38.574,-0.488,0.000
1714023879.552,-0.977,-15.625,-36.133,2.930,0.000
1714023879.556,-1.465,-15.137,-22.949,2.930,0.000
1714023879.560,-3.418,-20.996,-19.043,-4.883,0.000
1714023879.564,-7.324,-31.250,-27.344,-3.418,0.000
1714023879.568,-2.930,-26.367,-24.902,-1.953,0.000
1714023879.572,-0.488,-17.090,-29.785,-7.812,0.000
1714023879.576,-1.953,-20.508,-39.062,-6.348,0.000
1714023879.579,0.000,-21.484,-29.785,2.441,0.000
1714023879.583,-3.418,-17.578,-23.926,-7.812,0.000
1714023879.587,-4.395,-19.531,-23.926,-14.160,0.000
1714023879.591,-9.766,-18.066,-22.461,-17.090,0.000
1714023879.595,-12.207,-18.066,-24.902,-13.672,0.000
1714023879.599,-11.230,-23.926,-29.297,-13.184,0.000
1714023879.603,-9.766,-24.902,-32.227,-16.602,0.000
1714023879.607,-8.789,-22.949,-28.809,-8.301,0.000
1714023879.611,-13.184,-23.926,-29.785,-15.625,0.000
1714023879.615,-10.254,-22.461,-37.109,-17.578,0.000
1714023879.618,-10.254,-21.484,-41.992,-20.996,0.000
1714023879.622,-12.207,-19.043,-36.133,-24.414,0.000
1714023879.626,-10.742,-12.207,-19.531,-11.230,0.000
1714023879.630,-14.160,-17.578,-15.625,-8.789,0.000
1714023879.634,-15.625,-23.438,-26.367,-20.508,0.000
1714023879.638,-12.207,-23.438,-27.344,-20.020,0.000
1714023879.642,-14.160,-22.949,-17.578,-14.160,0.000
1714023879.646,-18.066,-21.973,-18.555,-21.484,0.000
1714023879.650,-18.066,-24.902,-27.832,-23.926,0.000
1714023879.653,-16.113,-21.973,-28.320,-23.926,0.000
1714023879.657,-14.648,-21.973,-22.949,-30.273,0.000
1714023879.661,-13.184,-19.531,-22.949,-29.297,0.000
1714023879.665,-10.742,-14.160,-26.367,-24.902,0.000
1714023879.669,-13.672,-25.391,-23.926,-27.832,0.000
1714023879.673,-15.137,-29.297,-25.879,-27.832,0.000
1714023879.677,-14.648,-29.297,-27.344,-23.438,0.000
1714023879.681,-11.230,-24.414,-28.320,-24.414,0.000
1714023879.684,-11.230,-19.531,-28.809,-24.902,0.000
1714023879.688,-17.578,-22.461,-28.809,-22.949,0.000
1714023879.692,-22.461,-29.297,-32.715,-18.555,0.000
1714023879.696,-24.414,-24.902,-21.973,-14.160,0.000
1714023879.700,-29.297,-22.949,-18.555,-20.020,0.000
1714023879.704,-30.762,-26.855,-25.391,-25.879,0.000
1714023879.708,-29.785,-28.320,-26.367,-26.367,0.000
1714023879.712,-33.691,-34.180,-29.785,-26.855,0.000
1714023879.716,-36.621,-34.180,-32.227,-28.320,0.000
1714023879.720,-33.203,-33.203,-31.738,-24.414,0.000
1714023879.724,-35.645,-32.715,-24.902,-22.461,0.000
1714023879.728,-38.574,-31.250,-19.531,-19.531,0.000
1714023879.732,-29.785,-33.203,-20.020,-20.996,0.000
1714023879.735,-20.020,-30.273,-25.391,-27.344,0.000
1714023879.739,-21.973,-31.738,-31.738,-32.227,0.000
1714023879.743,-27.832,-29.785,-29.785,-38.086,0.000
1714023879.747,-22.461,-23.926,-21.973,-34.180,0.000
1714023879.751,-20.508,-34.668,-28.809,-34.180,0.000
1714023879.755,-19.043,-41.992,-37.598,-33.691,0.000
1714023879.759,-19.531,-32.715,-37.598,-30.273,0.000
1714023879.763,-11.719,-28.320,-27.832,-22.461,0.000
1714023879.767,-9.277,-33.203,-24.902,-21.973,0.000
1714023879.771,-11.230,-31.738,-28.320,-26.367,0.000
1714023879.775,-8.301,-31.250,-27.832,-26.855,0.000
1714023879.779,-14.648,-32.227,-29.297,-28.320,0.000
1714023879.782,-19.531,-28.809,-27.832,-27.832,0.000
1714023879.786,-22.461,-30.762,-31.738,-34.180,0.000
1714023879.790,-29.785,-33.691,-38.574,-43.457,0.000
1714023879.794,-35.645,-31.738,-38.086,-43.457,0.000
1714023879.798,-36.133,-30.273,-33.691,-41.016,0.000
1714023879.802,-33.691,-31.738,-26.855,-39.551,0.000
1714023879.806,-30.762,-31.738,-20.996,-38.574,0.000
1714023879.810,-31.738,-34.180,-26.855,-39.062,0.000
1714023879.814,-38.574,-34.180,-28.809,-38.574,0.000
1714023879.818,-41.992,-31.738,-23.926,-44.434,0.000
1714023879.822,-38.574,-34.180,-24.902,-46.387,0.000
1714023879.826,-39.062,-33.691,-25.391,-39.062,0.000
1714023879.829,-33.691,-30.762,-22.461,-37.109,0.000
1714023879.833,-33.691,-27.344,-22.949,-42.480,0.000
1714023879.837,-35.156,-29.785,-19.043,-45.898,0.000
1714023879.841,-28.809,-29.785,-12.695,-38.086,0.000
1714023879.845,-26.855,-28.809,-14.648,-23.438,0.000
1714023879.849,-27.344,-31.738,-12.207,-26.855,0.000
1714023879.853,-22.461,-27.832,-13.184,-35.156,0.000
1714023879.857,-20.020,-19.531,-26.855,-29.785,0.000
1714023879.861,-19.531,-15.625,-28.809,-28.320,0.000
1714023879.865,-19.531,-20.508,-22.949,-24.414,0.000
1714023879.868,-19.043,-28.320,-22.949,-29.785,0.000
1714023879.872,-14.648,-27.832,-28.320,-24.414,0.000
1714023879.876,-11.719,-21.973,-25.879,-14.160,0.000
1714023879.880,-9.277,-17.578,-12.695,-10.254,0.000
1714023879.884,-17.090,-19.531,-9.766,-17.090,0.000
1714023879.888,-23.438,-24.414,-30.762,-29.785,0.000
1714023879.892,-20.020,-19.531,-36.133,-22.949,0.000
1714023879.896,-20.996,-16.113,-19.531,-20.508,0.000
1714023879.900,-19.531,-28.809,-20.996,-30.273,0.000
1714023879.904,-19.043,-31.738,-20.508,-33.691,0.000
1714023879.907,-18.555,-22.461,-15.625,-34.668,0.000
1714023879.911,-8.789,-17.090,-20.996,-35.645,0.000
1714023879.915,-7.812,-15.625,-24.902,-35.156,0.000
1714023879.919,-1.465,-13.672,-24.414,-42.969,0.000
1714023879.923,8.301,-16.602,-27.832,-38.574,0.000
1714023879.927,-0.488,-20.020,-25.391,-27.344,0.000
1714023879.931,-17.578,-21.973,-23.926,-28.809,0.000
1714023879.935,-28.320,-28.809,-30.762,-28.809,0.000
1714023879.939,-36.133,-37.598,-30.762,-33.203,0.000
1714023879.943,-40.039,-39.062,-21.973,-32.715,0.000
1714023879.947,-32.227,-30.762,-26.855,-20.020,0.000
1714023879.950,-28.320,-23.438,-32.227,-18.555,0.000
1714023879.954,-26.855,-25.879,-26.367,-18.066,0.000
1714023879.958,-21.973,-26.855,-26.855,-16.602,0.000
1714023879.962,-24.414,-30.762,-33.691,-20.996,0.000
1714023879.966,-19.531,-31.250,-29.785,-21.484,0.000
1714023879.970,-14.160,-23.926,-30.762,-28.320,0.000
1714023879.974,-28.320,-31.250,-36.621,-36.621,0.000
1714023879.978,-32.227,-33.203,-30.762,-29.785,0.000
1714023879.982,-26.367,-27.344,-26.367,-23.438,0.000
1714023879.985,-29.785,-30.762,-19.043,-33.203,0.000
1714023879.989,-41.016,-41.016,-20.996,-43.945,0.000
1714023879.993,-46.387,-41.992,-27.344,-39.551,0.000
1714023879.997,-37.109,-33.203,-25.879,-36.133,0.000
1714023880.001,-38.086,-38.574,-28.320,-40.039,0.000
1714023880.005,-40.527,-41.016,-36.133,-43.457,0.000
1714023880.009,-37.598,-34.180,-33.203,-41.992,0.000
1714023880.013,-41.016,-35.156,-30.762,-38.574,0.000
1714023880.017,-34.668,-35.156,-32.715,-35.156,0.000
1714023880.020,-25.391,-34.668,-24.414,-37.109,0.000
1714023880.024,-28.809,-36.133,-27.344,-37.109,0.000
1714023880.028,-31.738,-34.668,-29.785,-28.809,0.000
1714023880.032,-22.461,-31.250,-17.578,-28.320,0.000
1714023880.036,-16.113,-31.738,-16.602,-35.645,0.000
1714023880.040,-15.625,-26.367,-28.320,-34.180,0.000
1714023880.044,-16.602,-18.555,-32.715,-34.668,0.000
1714023880.048,-16.113,-23.926,-26.855,-33.691,0.000
1714023880.051,-16.113,-30.762,-23.926,-26.855,0.000
1714023880.055,-26.855,-33.691,-27.344,-33.203,0.000
1714023880.059,-29.785,-36.133,-30.273,-36.133,0.000
1714023880.063,-24.414,-38.086,-28.809,-36.621,0.000
1714023880.067,-28.320,-33.691,-22.949,-41.504,0.000
1714023880.071,-37.598,-27.344,-20.020,-47.852,0.000
1714023880.075,-39.551,-24.902,-27.832,-58.594,0.000
1714023880.079,-38.574,-22.461,-35.156,-56.152,0.000
1714023880.083,-34.668,-27.832,-29.785,-54.199,0.000
1714023880.087,-31.738,-33.691,-26.855,-57.617,0.000
1714023880.090,-30.762,-32.227,-34.180,-51.758,0.000
1714023880.095,-30.762,-37.109,-31.250,-43.457,0.000
1714023880.099,-32.715,-34.180,-24.414,-41.992,0.000
1714023880.102,-25.391,-28.809,-24.414,-39.062,0.000
1714023880.106,-28.320,-32.715,-31.250,-39.062,0.000
1714023880.110,-29.785,-32.715,-34.180,-34.668,0.000
1714023880.114,-20.996,-28.809,-32.227,-28.809,0.000
1714023880.118,-17.090,-31.738,-28.809,-30.762,0.000
1714023880.122,-12.695,-26.367,-25.391,-24.902,0.000
1714023880.126,-10.742,-24.902,-25.391,-20.020,0.000
1714023880.130,-17.578,-34.180,-23.438,-20.996,0.000
1714023880.134,-20.996,-28.320,-23.926,-30.273,0.000
1714023880.138,-20.996,-20.996,-35.156,-34.180,0.000
1714023880.142,-21.484,-36.133,-33.203,-29.297,0.000
1714023880.146,-22.461,-42.480,-15.625,-26.855,0.000
1714023880.149,-22.949,-34.668,-16.113,-33.203,0.000
1714023880.153,-17.578,-28.320,-19.531,-34.180,0.000
1714023880.157,-17.578,-23.438,-23.926,-25.391,0.000
1714023880.161,-21.973,-19.043,-26.367,-23.926,0.000
1714023880.165,-23.438,-12.695,-17.578,-31.250,0.000
1714023880.169,-26.855,-19.043,-21.973,-40.527,0.000
1714023880.173,-25.879,-31.738,-28.809,-36.133,0.000
1714023880.177,-25.879,-29.297,-26.367,-26.855,0.000
1714023880.181,-23.926,-28.320,-10.254,-19.531,0.000
1714023880.185,-18.066,-37.598,-9.277,-21.973,0.000
1714023880.189,-23.926,-35.645,-28.320,-35.156,0.000
1714023880.192,-24.902,-28.809,-31.738,-28.809,0.000
1714023880.196,-20.996,-27.832,-24.902,-18.066,0.000
1714023880.200,-20.020,-20.020,-24.902,-26.367,0.000
1714023880.204,-18.066,-20.508,-32.227,-24.902,0.000
1714023880.208,-19.043,-32.227,-37.109,-16.602,0.000
1714023880.212,-21.973,-36.621,-34.180,-18.066,0.000
1714023880.216,-24.414,-38.574,-32.227,-26.855,0.000
1714023880.220,-23.926,-36.621,-38.086,-27.344,0.000
1714023880.224,-27.832,-27.344,-30.273,-29.785,0.000
1714023880.228,-34.668,-21.973,-18.066,-35.156,0.000
1714023880.232,-24.414,-23.926,-22.461,-32.715,0.000
1714023880.235,-23.926,-25.879,-34.180,-42.480,0.000
1714023880.239,-37.598,-32.715,-33.691,-54.199,0.000
1714023880.243,-36.621,-34.180,-28.320,-45.410,0.000
1714023880.247,-31.738,-35.645,-35.645,-34.668,0.000
1714023880.251,-40.527,-38.086,-28.320,-40.039,0.000
1714023880.255,-41.992,-34.180,-22.461,-38.086,0.000
1714023880.259,-35.645,-33.691,-24.902,-34.180,0.000
1714023880.263,-30.762,-28.320,-22.949,-27.344,0.000
1714023880.267,-24.414,-22.949,-18.555,-20.996,0.000
1714023880.271,-21.973,-18.066,-15.137,-26.855,0.000
1714023880.275,-20.996,-13.184,-16.602,-27.832,0.000
1714023880.278,-19.043,-16.602,-21.484,-24.902,0.000
1714023880.282,-17.578,-24.902,-22.949,-23.926,0.000
1714023880.286,-16.113,-27.344,-19.531,-21.973,0.000
1714023880.290,-15.137,-26.367,-19.043,-20.508,0.000
1714023880.294,-20.508,-26.367,-19.043,-21.973,0.000
1714023880.298,-30.273,-29.785,-20.508,-28.809,0.000
1714023880.302,-26.855,-27.832,-22.461,-28.809,0.000
1714023880.306,-24.902,-25.391,-28.320,-30.762,0.000
1714023880.310,-29.785,-24.414,-31.250,-35.156,0.000
1714023880.314,-35.156,-22.949,-20.996,-39.551,0.000
1714023880.317,-38.086,-25.879,-18.066,-48.340,0.000
1714023880.321,-41.016,-29.785,-19.531,-51.270,0.000
1714023880.325,-44.922,-31.738,-13.672,-47.363,0.000
1714023880.329,-45.410,-32.227,-19.531,-38.086,0.000
1714023880.333,-44.434,-32.227,-31.250,-43.945,0.000
1714023880.337,-41.016,-33.203,-28.809,-47.363,0.000
1714023880.341,-35.645,-31.250,-28.809,-38.086,0.000
1714023880.345,-34.180,-24.902,-30.762,-35.156,0.000
1714023880.349,-25.391,-21.484,-26.855,-30.273,0.000
1714023880.352,-23.926,-25.879,-27.832,-27.344,0.000
1714023880.356,-30.273,-36.133,-27.344,-30.762,0.000
1714023880.360,-24.902,-32.227,-32.227,-28.320,0.000
1714023880.364,-22.949,-26.855,-34.668,-29.785,0.000
1714023880.368,-20.020,-29.297,-29.785,-32.227,0.000
1714023880.372,-24.414,-23.926,-30.762,-33.203,0.000
1714023880.376,-34.668,-24.902,-33.203,-41.992,0.000
1714023880.380,-33.203,-36.621,-35.645,-39.551,0.000
1714023880.384,-29.785,-29.785,-21.484,-31.738,0.000
1714023880.387,-34.180,-21.484,-17.090,-35.156,0.000
1714023880.391,-34.180,-21.484,-24.902,-39.551,0.000
1714023880.395,-27.344,-23.926,-25.879,-43.945,0.000
1714023880.399,-34.180,-28.320,-30.273,-47.363,0.000
1714023880.403,-41.992,-25.391,-29.297,-55.176,0.000
1714023880.407,-33.203,-22.461,-30.273,-45.898,0.000
1714023880.411,-32.715,-23.438,-31.250,-33.203,0.000
1714023880.415,-37.598,-25.879,-23.438,-35.156,0.000
1714023880.419,-38.086,-28.809,-21.484,-40.039,0.000
1714023880.422,-37.109,-25.879,-35.645,-47.363,0.000
1714023880.426,-27.344,-27.344,-34.668,-36.133,0.000
1714023880.430,-21.973,-28.809,-21.484,-28.809,0.000
1714023880.434,-29.785,-26.367,-24.902,-39.551,0.000
1714023880.438,-28.320,-24.414,-28.809,-41.016,0.000
1714023880.442,-24.414,-26.855,-26.855,-33.691,0.000
1714023880.446,-22.461,-36.621,-18.555,-25.879,0.000
1714023880.450,-28.320,-35.645,-13.184,-35.156,0.000
1714023880.454,-37.109,-33.691,-27.344,-48.828,0.000
1714023880.458,-40.527,-27.344,-38.086,-45.410,0.000
1714023880.461,-47.363,-19.043,-29.785,-45.898,0.000
1714023880.465,-50.293,-24.414,-26.855,-50.781,0.000
1714023880.469,-48.828,-22.461,-21.484,-54.688,0.000
1714023880.473,-55.664,-23.926,-13.672,-61.523,0.000
1714023880.477,-62.012,-30.273,-7.324,-62.988,0.000
1714023880.481,-70.312,-27.832,-7.324,-71.289,0.000
1714023880.485,-73.242,-34.668,-21.484,-79.102,0.000
1714023880.489,-80.566,-32.227,-22.461,-83.984,0.000
1714023880.493,-79.102,-17.090,-6.348,-79.102,0.000
1714023880.497,-78.125,-17.578,3.418,-83.008,0.000
1714023880.501,-93.750,-30.273,-18.066,-103.516,0.000
1714023880.505,-103.516,-35.156,-24.414,-119.141,0.000
1714023880.509,-112.305,-32.715,-7.324,-123.047,0.000
1714023880.512,-127.441,-32.227,0.488,-133.301,0.000
1714023880.517,-131.348,-31.738,-4.395,-146.973,0.000
1714023880.520,-140.625,-35.156,-11.719,-163.574,0.000
1714023880.524,-153.320,-42.969,-12.207,-163.574,0.000
1714023880.528,-158.203,-41.016,0.000,-162.598,0.000
1714023880.532,-153.809,-30.762,6.836,-162.598,0.000
1714023880.536,-153.320,-36.621,-0.977,-165.527,0.000
1714023880.540,-157.715,-40.039,-8.789,-171.387,0.000
1714023880.544,-148.438,-40.039,-3.418,-157.715,0.000
1714023880.548,-138.672,-44.922,-0.977,-137.207,0.000
1714023880.552,-134.277,-45.410,-8.301,-141.602,0.000
1714023880.556,-131.836,-38.086,-2.441,-150.879,0.000
1714023880.559,-128.906,-36.133,-2.930,-135.742,0.000
1714023880.563,-110.840,-35.156,-3.906,-117.676,0.000
1714023880.567,-97.168,-24.902,1.953,-108.398,0.000
1714023880.571,-100.098,-25.879,4.883,-104.004,0.000
1714023880.575,-95.215,-32.227,-5.371,-94.238,0.000
1714023880.579,-74.707,-31.738,-16.113,-76.660,0.000
1714023880.583,-56.152,-33.691,-13.184,-67.871,0.000
1714023880.587,-50.781,-30.273,-15.137,-70.312,0.000
1714023880.591,-52.246,-29.785,-25.879,-67.871,0.000
1714023880.595,-44.922,-35.645,-28.809,-48.340,0.000
1714023880.599,-27.832,-28.320,-22.461,-34.180,0.000
1714023880.603,-16.602,-22.461,-20.020,-35.645,0.000
1714023880.606,-11.230,-24.902,-19.531,-25.879,0.000
1714023880.610,-10.254,-30.762,-20.020,-14.648,0.000
1714023880.614,-13.184,-31.738,-24.414,-7.324,0.000
1714023880.618,-1.465,-26.367,-32.227,-2.930,0.000
1714023880.622,6.836,-36.133,-36.133,-1.953,0.000
1714023880.626,2.441,-33.203,-32.715,-0.488,0.000
1714023880.630,0.488,-28.320,-35.645,-0.977,0.000
1714023880.634,2.930,-30.762,-36.133,-4.395,0.000
1714023880.638,8.789,-36.133,-32.227,-1.953,0.000
1714023880.642,6.836,-44.434,-36.133,-0.977,0.000
1714023880.645,7.812,-35.156,-33.691,-4.883,0.000
1714023880.649,9.766,-29.297,-36.133,-5.371,0.000
1714023880.653,8.301,-25.391,-47.363,-5.859,0.000
1714023880.657,14.648,-29.785,-49.805,4.395,0.000
1714023880.661,22.461,-34.668,-42.969,16.602,0.000
1714023880.665,26.367,-34.668,-41.016,12.695,0.000
1714023880.669,25.391,-45.410,-37.109,6.348,0.000
1714023880.673,22.461,-48.340,-41.016,6.348,0.000
1714023880.677,20.996,-35.156,-49.805,11.230,0.000
1714023880.681,16.113,-23.926,-46.387,18.555,0.000
1714023880.685,17.090,-17.090,-36.621,18.066,0.000
1714023880.688,20.996,-16.602,-33.691,17.090,0.000
1714023880.692,23.926,-21.484,-41.504,18.555,0.000
1714023880.696,30.762,-22.949,-40.039,20.020,0.000
1714023880.700,31.738,-24.902,-28.320,8.789,0.000
1714023880.704,25.391,-27.832,-27.344,1.953,0.000
1714023880.708,30.762,-27.344,-29.785,8.301,0.000
1714023880.712,31.738,-26.855,-33.691,11.230,0.000
1714023880.716,26.367,-21.973,-47.363,5.371,0.000
1714023880.720,32.227,-18.066,-48.340,0.488,0.000
1714023880.723,33.691,-22.461,-47.852,2.441,0.000
1714023880.727,30.762,-24.414,-49.805,12.207,0.000
1714023880.731,29.785,-24.414,-37.109,22.949,0.000
1714023880.735,24.902,-25.879,-29.785,12.695,0.000
1714023880.739,23.438,-23.438,-28.320,9.277,0.000
1714023880.743,14.648,-21.973,-26.855,15.137,0.000
1714023880.747,9.277,-20.508,-37.109,11.230,0.000
1714023880.751,5.859,-18.555,-36.133,0.977,0.000
1714023880.755,-1.465,-20.996,-32.227,0.000,0.000
1714023880.758,4.395,-14.160,-32.227,4.395,0.000
1714023880.762,7.324,-16.113,-27.344,5.371,0.000
1714023880.766,4.395,-31.250,-22.461,1.465,0.000
1714023880.770,2.441,-30.762,-22.461,-1.953,0.000
1714023880.774,-0.977,-19.043,-30.273,6.836,0.000
1714023880.778,-9.277,-18.066,-35.156,4.883,0.000
1714023880.782,-8.301,-21.973,-31.738,-0.977,0.000
1714023880.786,-3.418,-19.531,-36.133,-4.395,0.000
1714023880.790,-10.254,-20.508,-39.062,-3.906,0.000
1714023880.794,-15.137,-24.902,-35.156,-7.324,0.000
1714023880.797,-4.883,-28.809,-31.738,-9.277,0.000
1714023880.801,-7.812,-31.738,-41.992,-11.230,0.000
1714023880.805,-17.578,-26.855,-46.875,-16.602,0.000
1714023880.809,-15.137,-21.973,-44.434,-12.207,0.000
1714023880.813,-7.324,-20.020,-35.156,-5.371,0.000
1714023880.817,1.953,-18.555,-20.508,-7.812,0.000
1714023880.821,-1.465,-12.695,-25.879,-14.160,0.000
1714023880.825,-10.254,-17.090,-35.156,-12.207,0.000
1714023880.829,-4.883,-26.855,-24.414,-0.977,0.000
1714023880.832,-1.953,-29.785,-16.113,-0.977,0.000
1714023880.836,-8.789,-22.461,-28.320,-16.113,0.000
1714023880.840,-5.859,-12.207,-39.062,-17.578,0.000
1714023880.844,0.488,-15.625,-38.574,-10.254,0.000
1714023880.848,0.000,-20.996,-25.879,-10.742,0.000
1714023880.852,0.488,-11.719,-20.020,-15.625,0.000
1714023880.856,-0.488,-11.719,-26.855,-19.531,0.000
1714023880.860,-6.836,-29.297,-23.438,-14.648,0.000
1714023880.864,-8.789,-31.738,-27.344,-24.902,0.000
1714023880.868,-9.766,-30.273,-35.645,-27.832,0.000
1714023880.872,-19.043,-30.762,-35.156,-21.484,0.000
1714023880.876,-24.414,-34.668,-35.645,-27.344,0.000
1714023880.880,-19.531,-28.320,-39.062,-21.484,0.000
1714023880.883,-19.043,-19.531,-29.297,-21.973,0.000
1714023880.887,-21.973,-20.020,-19.531,-31.250,0.000
1714023880.891,-24.414,-20.508,-26.855,-31.738,0.000
1714023880.895,-23.438,-22.461,-31.738,-23.438,0.000
1714023880.899,-16.602,-21.484,-30.273,-21.973,0.000
1714023880.903,-12.207,-22.461,-21.973,-32.227,0.000
1714023880.907,-15.137,-26.855,-19.531,-30.273,0.000
1714023880.911,-20.508,-30.273,-22.949,-21.484,0.000
1714023880.915,-17.578,-18.066,-26.855,-19.531,0.000
1714023880.919,-17.090,-26.855,-22.461,-28.809,0.000
1714023880.923,-29.297,-31.250,-30.273,-43.457,0.000
1714023880.927,-32.715,-20.508,-45.898,-46.875,0.000
1714023880.930,-25.391,-20.996,-38.086,-47.363,0.000
1714023880.934,-24.414,-26.855,-29.785,-44.922,0.000
1714023880.938,-23.438,-26.367,-26.367,-41.992,0.000
1714023880.942,-12.695,-14.160,-27.344,-35.156,0.000
1714023880.946,-7.812,-11.719,-25.879,-25.391,0.000
1714023880.950,-10.254,-10.742,-25.879,-22.461,0.000
1714023880.954,-12.207,-18.066,-29.785,-23.438,0.000
1714023880.958,-11.719,-24.902,-33.203,-22.949,0.000
1714023880.962,-11.719,-27.344,-35.645,-19.531,0.000
1714023880.966,-10.254,-28.320,-37.109,-25.879,0.000
1714023880.970,-9.277,-21.484,-29.297,-23.926,0.000
1714023880.973,-17.090,-19.531,-22.949,-23.438,0.000
1714023880.977,-18.066,-19.531,-29.785,-24.414,0.000
1714023880.981,-14.648,-16.602,-33.691,-19.531,0.000
1714023880.986,-17.578,-23.926,-29.297,-21.973,0.000
1714023880.990,-20.996,-27.832,-29.785,-24.902,0.000
1714023880.994,-23.438,-29.297,-27.344,-20.996,0.000
1714023880.997,-24.414,-30.762,-22.461,-19.043,0.000
1714023881.001,-22.949,-25.391,-24.902,-23.926,0.000
1714023881.005,-24.414,-14.160,-23.926,-24.902,0.000
1714023881.009,-33.203,-13.672,-26.855,-29.297,0.000
1714023881.013,-38.086,-26.855,-34.180,-27.832,0.000
1714023881.017,-34.668,-22.461,-35.645,-22.949,0.000
1714023881.021,-37.598,-19.043,-27.832,-34.668,0.000
1714023881.025,-37.598,-36.621,-23.926,-47.363,0.000
1714023881.029,-36.621,-44.434,-29.297,-46.387,0.000
1714023881.033,-34.668,-36.621,-29.785,-43.945,0.000
1714023881.036,-31.250,-33.691,-28.320,-46.387,0.000
1714023881.040,-33.691,-27.832,-24.414,-43.457,0.000
1714023881.044,-25.879,-19.043,-18.555,-38.086,0.000
1714023881.048,-21.973,-31.738,-11.230,-31.250,0.000
1714023881.052,-30.762,-29.297,-19.531,-32.715,0.000
1714023881.056,-36.621,-17.090,-26.855,-36.621,0.000
1714023881.060,-34.180,-22.461,-20.020,-28.809,0.000
1714023881.064,-28.320,-26.855,-20.508,-25.879,0.000
1714023881.068,-29.297,-23.438,-30.762,-34.668,0.000
1714023881.072,-33.691,-23.438,-34.668,-37.598,0.000
1714023881.075,-34.180,-32.227,-33.691,-34.668,0.000
1714023881.079,-37.109,-25.879,-34.180,-38.086,0.000
1714023881.083,-37.109,-20.020,-38.574,-42.480,0.000
1714023881.087,-34.668,-24.902,-34.180,-40.039,0.000
1714023881.091,-37.598,-28.809,-21.973,-39.551,0.000
1714023881.095,-32.715,-27.832,-23.438,-30.762,0.000
1714023881.099,-31.250,-22.461,-31.250,-26.367,0.000
1714023881.103,-34.668,-26.367,-32.715,-33.203,0.000
1714023881.107,-29.785,-31.738,-25.391,-27.344,0.000
1714023881.111,-31.738,-37.598,-16.113,-28.809,0.000
1714023881.114,-33.203,-35.156,-20.020,-37.598,0.000
1714023881.118,-35.156,-34.180,-25.391,-36.133,0.000
1714023881.122,-40.039,-45.898,-24.902,-38.086,0.000
1714023881.126,-35.645,-44.922,-23.438,-28.809,0.000
1714023881.130,-31.250,-25.879,-25.391,-24.902,0.000
1714023881.134,-22.949,-14.648,-20.020,-29.297,0.000
1714023881.138,-24.414,-20.996,-13.184,-31.250,0.000
1714023881.142,-35.645,-31.250,-23.438,-34.668,0.000
1714023881.145,-30.762,-27.832,-22.461,-28.809,0.000
1714023881.149,-27.832,-29.785,-16.113,-23.438,0.000
1714023881.153,-28.320,-33.691,-23.926,-31.250,0.000
1714023881.157,-19.043,-31.738,-23.438,-29.785,0.000
1714023881.161,-16.602,-37.598,-24.902,-24.902,0.000
1714023881.165,-19.531,-33.691,-30.762,-29.785,0.000
1714023881.169,-18.555,-20.020,-21.484,-26.855,0.000
1714023881.173,-14.648,-19.531,-12.207,-22.461,0.000
1714023881.176,-14.160,-28.809,-20.508,-21.973,0.000
1714023881.180,-16.113,-29.785,-36.621,-23.926,0.000
1714023881.184,-15.625,-23.438,-37.109,-26.855,0.000
1714023881.188,-15.625,-23.438,-30.762,-23.438,0.000
1714023881.192,-18.066,-38.086,-40.527,-24.414,0.000
1714023881.196,-14.160,-40.039,-41.992,-22.949,0.000
1714023881.200,-7.324,-23.926,-18.555,-17.578,0.000
1714023881.204,-13.184,-21.973,-15.137,-22.461,0.000
1714023881.208,-21.484,-33.203,-23.438,-25.879,0.000
1714023881.212,-27.832,-32.715,-34.668,-32.715,0.000
1714023881.216,-28.809,-32.227,-41.992,-43.457,0.000
1714023881.220,-25.391,-29.297,-36.621,-48.828,0.000
1714023881.224,-28.320,-32.715,-33.203,-42.480,0.000
1714023881.227,-26.367,-37.598,-20.508,-28.809,0.000
1714023881.231,-18.555,-34.180,-8.301,-27.832,0.000
1714023881.235,-19.043,-25.879,-13.184,-31.738,0.000
1714023881.239,-23.926,-20.996,-24.902,-31.738,0.000
1714023881.243,-28.809,-22.949,-34.668,-32.227,0.000
