timestamps,TP9,AF7,AF8,TP10,Right AUX
1714023560.924,-28.809,-48.828,-45.410,-32.227,0.000
1714023560.927,-31.250,-43.945,-44.434,-20.996,0.000
1714023560.931,-38.086,-41.016,-36.133,-33.691,0.000
1714023560.935,-34.668,-38.574,-26.855,-31.738,0.000
1714023560.939,-26.855,-48.340,-22.461,-24.902,0.000
1714023560.943,-35.645,-56.152,-29.297,-36.621,0.000
1714023560.947,-34.668,-47.363,-39.551,-33.203,0.000
1714023560.951,-30.273,-45.898,-42.969,-25.879,0.000
1714023560.955,-28.809,-47.852,-39.551,-39.551,0.000
1714023560.959,-25.879,-48.340,-39.062,-36.621,0.000
1714023560.963,-28.809,-44.922,-34.668,-29.785,0.000
1714023560.966,-23.438,-39.551,-26.855,-33.691,0.000
1714023560.970,-22.461,-41.992,-33.691,-34.668,0.000
1714023560.974,-27.832,-43.945,-44.922,-32.227,0.000
1714023560.978,-22.461,-38.574,-40.039,-27.832,0.000
1714023560.982,-20.508,-41.016,-40.039,-28.809,0.000
1714023560.986,-21.973,-46.875,-46.387,-37.598,0.000
1714023560.990,-33.203,-47.852,-48.828,-43.945,0.000
1714023560.994,-40.527,-49.805,-53.223,-43.457,0.000
1714023560.998,-32.715,-50.781,-49.316,-38.086,0.000
1714023561.002,-30.273,-43.457,-37.598,-44.922,0.000
1714023561.005,-22.949,-36.133,-40.527,-33.203,0.000
1714023561.009,-22.949,-44.434,-46.875,-22.949,0.000
1714023561.013,-28.809,-55.176,-43.457,-34.180,0.000
1714023561.017,-24.414,-42.969,-33.691,-39.551,0.000
1714023561.021,-24.902,-35.156,-32.715,-41.016,0.000
1714023561.025,-28.320,-42.480,-37.598,-39.062,0.000
1714023561.029,-29.785,-43.945,-36.621,-30.273,0.000
1714023561.033,-24.414,-45.898,-31.738,-30.273,0.000
1714023561.037,-22.949,-41.016,-33.691,-31.250,0.000
1714023561.041,-25.879,-38.574,-33.691,-34.180,0.000
1714023561.044,-27.832,-39.062,-31.738,-42.969,0.000
1714023561.048,-20.996,-32.227,-37.109,-37.109,0.000
1714023561.052,-20.020,-35.156,-36.621,-34.180,0.000
1714023561.056,-29.297,-37.598,-32.227,-36.621,0.000
1714023561.060,-22.949,-32.227,-33.691,-31.250,0.000
1714023561.064,-12.695,-30.762,-33.691,-29.785,0.000
1714023561.068,-10.742,-32.227,-22.949,-31.738,0.000
1714023561.072,-17.090,-34.180,-16.602,-31.738,0.000
1714023561.076,-24.414,-35.645,-25.391,-37.109,0.000
1714023561.080,-22.949,-41.992,-37.109,-34.180,0.000
1714023561.084,-18.555,-45.410,-40.039,-33.691,0.000
1714023561.087,-21.484,-38.574,-32.227,-42.480,0.000
1714023561.091,-19.043,-36.621,-26.367,-33.203,0.000
1714023561.095,-14.648,-41.016,-23.926,-21.973,0.000
1714023561.099,-20.020,-41.016,-24.902,-25.391,0.000
1714023561.103,-21.973,-34.668,-24.414,-25.391,0.000
1714023561.107,-26.367,-40.039,-24.902,-24.414,0.000
1714023561.111,-32.715,-48.340,-25.879,-25.391,0.000
1714023561.115,-26.855,-45.898,-22.949,-20.996,0.000
1714023561.119,-25.879,-42.480,-30.762,-27.344,0.000
1714023561.123,-33.691,-43.457,-43.457,-36.133,0.000
1714023561.127,-38.574,-52.246,-47.363,-35.645,0.000
1714023561.130,-38.574,-56.641,-41.992,-37.109,0.000
1714023561.134,-36.621,-55.664,-34.180,-42.480,0.000
1714023561.138,-28.320,-58.594,-28.809,-43.945,0.000
1714023561.142,-25.879,-59.082,-27.832,-25.391,0.000
1714023561.146,-33.691,-55.664,-34.668,-20.020,0.000
1714023561.150,-37.109,-49.805,-38.574,-39.551,0.000
1714023561.154,-33.203,-46.875,-39.551,-41.504,0.000
1714023561.158,-30.762,-48.340,-38.574,-32.715,0.000
1714023561.162,-28.809,-51.270,-36.621,-28.809,0.000
1714023561.166,-29.785,-46.387,-35.156,-28.809,0.000
1714023561.170,-31.738,-39.551,-31.738,-36.621,0.000
1714023561.173,-32.227,-48.340,-33.203,-36.621,0.000
1714023561.177,-24.414,-51.270,-38.574,-29.297,0.000
1714023561.181,-14.160,-45.898,-35.156,-21.484,0.000
1714023561.185,-29.785,-51.758,-32.227,-38.086,0.000
1714023561.189,-57.617,-57.129,-34.180,-47.363,0.000
1714023561.193,-55.664,-57.129,-33.691,-39.062,0.000
1714023561.197,-45.898,-53.711,-32.715,-44.434,0.000
1714023561.201,-47.852,-52.734,-33.691,-44.922,0.000
1714023561.205,-47.363,-57.129,-36.621,-43.945,0.000
1714023561.209,-43.457,-50.293,-31.250,-53.711,0.000
1714023561.212,-48.828,-46.875,-29.297,-58.594,0.000
1714023561.216,-48.828,-50.293,-31.738,-49.805,0.000
1714023561.220,-34.668,-40.527,-30.273,-39.551,0.000
1714023561.224,-32.715,-37.109,-33.203,-39.062,0.000
1714023561.228,-29.297,-36.621,-35.156,-36.621,0.000
1714023561.232,-20.996,-40.039,-33.691,-30.273,0.000
1714023561.236,-27.832,-39.062,-32.227,-37.598,0.000
1714023561.240,-36.621,-40.039,-30.762,-45.898,0.000
1714023561.244,-32.227,-49.316,-28.809,-27.832,0.000
1714023561.248,-33.691,-41.504,-25.391,-26.855,0.000
1714023561.252,-34.180,-32.715,-30.762,-41.992,0.000
1714023561.255,-29.785,-36.133,-34.180,-37.109,0.000
1714023561.259,-25.879,-40.039,-41.016,-34.180,0.000
1714023561.263,-22.949,-38.574,-51.270,-38.086,0.000
1714023561.267,-25.391,-34.668,-43.457,-33.203,0.000
1714023561.271,-31.738,-41.016,-39.551,-34.180,0.000
1714023561.275,-27.344,-51.758,-41.504,-29.785,0.000
1714023561.279,-24.902,-50.781,-36.133,-23.926,0.000
1714023561.283,-25.391,-37.109,-25.879,-24.902,0.000
1714023561.287,-24.902,-34.180,-22.461,-31.738,0.000
1714023561.291,-33.203,-39.062,-32.715,-36.133,0.000
1714023561.294,-32.227,-42.969,-38.086,-32.715,0.000
1714023561.298,-31.738,-47.852,-36.133,-35.156,0.000
1714023561.302,-35.645,-47.363,-41.016,-40.039,0.000
1714023561.306,-32.715,-46.875,-40.527,-32.715,0.000
1714023561.310,-36.133,-53.711,-36.133,-32.715,0.000
1714023561.314,-37.598,-50.781,-33.203,-42.480,0.000
1714023561.318,-36.621,-43.945,-41.016,-41.504,0.000
1714023561.322,-46.875,-41.504,-46.387,-41.504,0.000
1714023561.326,-46.875,-45.410,-39.062,-40.527,0.000
1714023561.330,-38.086,-49.805,-29.297,-42.480,0.000
1714023561.333,-31.738,-41.992,-28.320,-42.969,0.000
1714023561.337,-28.320,-36.621,-31.250,-41.992,0.000
1714023561.341,-32.715,-39.551,-33.203,-39.551,0.000
1714023561.345,-39.551,-41.504,-34.180,-40.527,0.000
1714023561.349,-38.086,-40.527,-34.180,-42.969,0.000
1714023561.353,-39.062,-41.992,-40.527,-47.363,0.000
1714023561.357,-37.109,-44.434,-40.527,-42.969,0.000
1714023561.361,-33.203,-46.875,-35.645,-29.785,0.000
1714023561.365,-38.086,-47.363,-39.062,-29.785,0.000
1714023561.369,-38.574,-44.434,-39.551,-36.133,0.000
1714023561.372,-34.180,-44.434,-34.668,-33.691,0.000
1714023561.376,-31.250,-41.016,-33.691,-32.715,0.000
1714023561.380,-27.832,-39.551,-34.668,-32.227,0.000
1714023561.384,-29.297,-49.316,-38.574,-36.133,0.000
1714023561.388,-27.832,-44.922,-43.457,-45.410,0.000
1714023561.392,-22.949,-36.621,-44.434,-43.945,0.000
1714023561.396,-13.184,-40.527,-36.621,-37.109,0.000
1714023561.400,-8.789,-41.016,-38.574,-35.645,0.000
1714023561.404,-13.184,-44.434,-46.387,-38.574,0.000
1714023561.408,-16.113,-45.898,-44.922,-33.203,0.000
1714023561.411,-17.578,-45.410,-41.016,-21.973,0.000
1714023561.415,-24.414,-41.016,-35.645,-20.996,0.000
1714023561.419,-28.320,-40.039,-26.367,-22.461,0.000
1714023561.423,-34.180,-43.945,-28.320,-35.156,0.000
1714023561.427,-40.039,-37.598,-39.551,-37.109,0.000
1714023561.431,-42.969,-48.340,-34.668,-28.809,0.000
1714023561.435,-40.039,-60.059,-26.855,-27.832,0.000
1714023561.439,-34.180,-46.875,-40.527,-29.297,0.000
1714023561.443,-32.715,-40.039,-44.922,-29.785,0.000
1714023561.447,-30.762,-44.434,-35.645,-26.367,0.000
1714023561.451,-32.227,-43.457,-36.621,-26.367,0.000
1714023561.454,-32.715,-45.410,-35.645,-29.297,0.000
1714023561.458,-34.180,-56.152,-40.039,-35.156,0.000
1714023561.462,-43.945,-59.570,-41.992,-45.410,0.000
1714023561.466,-45.410,-49.805,-30.762,-44.434,0.000
1714023561.470,-38.086,-42.969,-31.250,-31.250,0.000
1714023561.474,-33.203,-44.434,-36.133,-23.438,0.000
1714023561.478,-28.809,-51.270,-30.273,-27.344,0.000
1714023561.482,-20.020,-50.293,-35.645,-25.879,0.000
1714023561.486,-16.113,-42.480,-41.504,-21.484,0.000
1714023561.490,-27.344,-47.363,-41.504,-33.203,0.000
1714023561.494,-27.832,-45.898,-41.016,-36.133,0.000
1714023561.497,-25.879,-39.551,-33.203,-31.250,0.000
1714023561.501,-28.320,-41.504,-33.691,-40.039,0.000
1714023561.505,-21.973,-44.434,-34.668,-39.062,0.000
1714023561.509,-20.508,-43.457,-31.250,-31.250,0.000
1714023561.513,-26.367,-41.016,-31.250,-23.438,0.000
1714023561.517,-20.996,-42.969,-31.738,-21.484,0.000
1714023561.521,-14.160,-39.062,-32.715,-29.297,0.000
1714023561.525,-23.438,-35.156,-33.203,-32.715,0.000
1714023561.529,-19.043,-40.527,-27.832,-27.344,0.000
1714023561.533,-14.648,-41.504,-32.227,-29.297,0.000
1714023561.537,-23.926,-36.621,-36.621,-32.227,0.000
1714023561.540,-18.555,-27.832,-29.297,-21.973,0.000
1714023561.544,-18.555,-30.762,-25.879,-24.902,0.000
1714023561.548,-15.137,-34.668,-21.973,-29.297,0.000
1714023561.552,-10.742,-28.320,-18.066,-19.043,0.000
1714023561.556,-20.508,-32.715,-26.855,-31.738,0.000
1714023561.560,-17.090,-37.109,-38.086,-36.621,0.000
1714023561.564,-15.137,-30.762,-38.574,-23.926,0.000
1714023561.568,-17.090,-23.926,-36.621,-38.574,0.000
1714023561.572,-17.578,-18.555,-35.156,-42.969,0.000
1714023561.576,-20.996,-32.227,-36.133,-35.645,0.000
1714023561.579,-10.742,-39.062,-36.621,-29.785,0.000
1714023561.583,-10.742,-32.715,-40.039,-35.156,0.000
1714023561.587,-22.949,-33.691,-41.992,-38.574,0.000
1714023561.591,-22.949,-28.320,-39.062,-31.738,0.000
1714023561.595,-18.066,-29.785,-36.133,-32.715,0.000
1714023561.599,-11.230,-33.203,-35.645,-25.879,0.000
1714023561.603,-14.160,-38.574,-37.109,-21.484,0.000
1714023561.607,-24.902,-47.363,-38.574,-25.879,0.000
1714023561.611,-23.926,-39.062,-34.180,-22.949,0.000
1714023561.615,-19.531,-26.367,-23.926,-26.855,0.000
1714023561.619,-27.832,-32.227,-33.203,-43.457,0.000
1714023561.622,-32.227,-39.062,-44.434,-42.480,0.000
1714023561.626,-31.738,-40.039,-44.922,-36.621,0.000
1714023561.630,-32.715,-37.109,-43.945,-41.992,0.000
1714023561.634,-27.344,-37.109,-40.039,-32.227,0.000
1714023561.638,-28.320,-40.527,-43.945,-25.391,0.000
1714023561.642,-30.273,-33.691,-40.039,-28.320,0.000
1714023561.646,-19.531,-39.062,-29.297,-19.531,0.000
1714023561.650,-20.996,-51.758,-36.133,-30.762,0.000
1714023561.654,-41.504,-50.781,-46.387,-44.434,0.000
1714023561.658,-54.688,-45.898,-43.457,-44.922,0.000
1714023561.661,-49.316,-45.898,-41.016,-39.551,0.000
1714023561.665,-50.781,-49.805,-42.969,-45.410,0.000
1714023561.669,-56.641,-48.340,-38.574,-51.758,0.000
1714023561.673,-56.641,-43.457,-37.109,-49.805,0.000
1714023561.677,-59.082,-52.734,-41.016,-49.316,0.000
1714023561.681,-56.152,-55.176,-40.039,-51.758,0.000
1714023561.685,-46.875,-35.156,-40.039,-52.734,0.000
1714023561.689,-49.316,-33.691,-42.480,-44.922,0.000
1714023561.693,-56.152,-48.340,-40.039,-48.340,0.000
1714023561.697,-47.363,-50.781,-38.086,-38.086,0.000
1714023561.700,-39.062,-40.527,-33.691,-30.762,0.000
1714023561.704,-40.039,-35.156,-29.297,-40.039,0.000
1714023561.708,-39.551,-40.039,-34.180,-39.062,0.000
1714023561.712,-36.133,-36.133,-31.250,-30.273,0.000
1714023561.716,-37.598,-38.574,-26.367,-28.320,0.000
1714023561.720,-41.016,-47.363,-35.156,-43.457,0.000
1714023561.724,-41.992,-48.828,-44.922,-39.062,0.000
1714023561.728,-40.039,-48.340,-43.457,-22.461,0.000
1714023561.732,-36.621,-48.340,-41.016,-32.715,0.000
1714023561.736,-32.715,-49.316,-32.227,-33.691,0.000
1714023561.739,-29.297,-50.781,-24.414,-30.762,0.000
1714023561.743,-31.738,-48.828,-38.086,-29.297,0.000
1714023561.747,-34.180,-49.805,-44.434,-30.273,0.000
1714023561.751,-31.250,-45.410,-42.969,-31.250,0.000
1714023561.755,-30.273,-35.645,-39.551,-26.855,0.000
1714023561.759,-31.738,-36.133,-28.809,-26.367,0.000
1714023561.763,-37.598,-39.062,-32.715,-33.691,0.000
1714023561.767,-33.691,-38.574,-39.551,-27.344,0.000
1714023561.771,-20.996,-40.039,-27.832,-16.602,0.000
1714023561.775,-18.066,-36.621,-30.273,-18.555,0.000
1714023561.778,-20.020,-32.715,-45.410,-25.391,0.000
1714023561.782,-18.555,-36.133,-45.410,-29.785,0.000
1714023561.786,-18.555,-38.574,-41.504,-27.344,0.000
1714023561.790,-26.367,-38.086,-44.434,-26.367,0.000
1714023561.794,-27.344,-37.109,-40.039,-21.973,0.000
1714023561.798,-18.066,-41.992,-27.832,-23.438,0.000
1714023561.802,-17.090,-43.457,-30.273,-27.832,0.000
1714023561.806,-21.973,-38.574,-34.180,-21.973,0.000
1714023561.810,-16.602,-32.715,-35.156,-20.996,0.000
1714023561.814,-14.160,-36.133,-40.527,-27.344,0.000
1714023561.818,-13.672,-39.551,-39.551,-29.785,0.000
1714023561.821,-15.625,-40.039,-34.668,-28.809,0.000
1714023561.825,-18.066,-39.551,-30.273,-21.973,0.000
1714023561.829,-16.113,-39.062,-26.367,-16.602,0.000
1714023561.833,-11.230,-42.969,-26.855,-19.043,0.000
1714023561.837,-13.672,-40.527,-26.367,-28.320,0.000
1714023561.841,-18.066,-39.551,-27.832,-26.367,0.000
1714023561.845,-21.973,-40.039,-36.621,-24.902,0.000
1714023561.849,-25.879,-42.480,-34.180,-26.855,0.000
1714023561.853,-25.391,-39.551,-25.879,-27.344,0.000
1714023561.857,-20.996,-36.621,-20.508,-25.391,0.000
1714023561.861,-20.996,-31.738,-18.555,-18.555,0.000
1714023561.864,-27.832,-34.668,-30.273,-27.344,0.000
1714023561.868,-28.809,-41.992,-35.645,-36.621,0.000
1714023561.872,-27.832,-37.598,-32.715,-35.645,0.000
1714023561.876,-36.133,-42.969,-38.574,-36.621,0.000
1714023561.880,-47.852,-48.828,-36.621,-41.992,0.000
1714023561.884,-50.781,-45.898,-31.250,-48.828,0.000
1714023561.888,-44.922,-38.574,-28.320,-45.898,0.000
1714023561.892,-45.898,-41.992,-33.203,-42.969,0.000
1714023561.896,-52.734,-49.805,-33.203,-45.410,0.000
1714023561.900,-54.688,-43.457,-20.020,-54.688,0.000
1714023561.904,-55.664,-40.527,-25.391,-55.664,0.000
1714023561.907,-70.801,-45.898,-36.133,-64.941,0.000
1714023561.911,-85.449,-53.711,-30.762,-83.008,0.000
1714023561.915,-94.727,-54.199,-22.949,-98.145,0.000
1714023561.919,-90.332,-52.246,-20.996,-98.633,0.000
1714023561.923,-90.332,-54.688,-18.066,-98.145,0.000
1714023561.927,-114.746,-55.664,-15.625,-124.512,0.000
1714023561.931,-117.676,-52.734,-5.371,-133.301,0.000
1714023561.935,-107.910,-53.711,1.465,-130.859,0.000
1714023561.939,-115.234,-54.688,3.906,-132.812,0.000
1714023561.943,-117.676,-50.293,7.324,-133.301,0.000
1714023561.947,-110.352,-48.828,6.836,-130.859,0.000
1714023561.950,-106.934,-48.828,-10.254,-123.047,0.000
1714023561.954,-102.539,-48.828,-21.484,-121.582,0.000
1714023561.958,-99.609,-51.758,-8.301,-116.211,0.000
1714023561.962,-99.121,-51.758,-3.906,-103.516,0.000
1714023561.966,-92.773,-40.039,-0.977,-92.773,0.000
1714023561.970,-82.031,-43.945,0.977,-89.844,0.000
1714023561.974,-71.777,-54.688,-9.277,-79.590,0.000
1714023561.978,-67.383,-49.805,-25.879,-67.383,0.000
1714023561.982,-58.105,-38.574,-34.668,-57.129,0.000
1714023561.986,-44.922,-41.016,-29.297,-42.969,0.000
1714023561.989,-39.062,-41.992,-38.086,-37.598,0.000
1714023561.993,-36.621,-38.086,-47.852,-31.250,0.000
1714023561.997,-35.645,-37.598,-37.598,-31.250,0.000
1714023562.001,-28.320,-32.715,-33.691,-31.738,0.000
1714023562.005,-21.484,-37.109,-35.645,-25.879,0.000
1714023562.009,-18.555,-44.922,-40.039,-19.043,0.000
1714023562.013,-10.254,-50.781,-41.504,-15.137,0.000
1714023562.017,-8.301,-58.594,-43.457,-14.160,0.000
1714023562.021,-9.277,-48.828,-56.152,-21.973,0.000
1714023562.025,-8.789,-39.551,-54.688,-16.602,0.000
1714023562.029,-6.348,-42.969,-44.922,1.953,0.000
1714023562.033,-3.418,-43.945,-44.922,-4.883,0.000
1714023562.036,-4.395,-44.922,-55.664,-13.672,0.000
1714023562.040,1.465,-39.062,-49.805,-0.488,0.000
1714023562.044,3.906,-36.621,-37.598,7.324,0.000
1714023562.048,1.465,-37.598,-37.598,3.418,0.000
1714023562.052,3.418,-36.133,-49.316,0.000,0.000
1714023562.056,-1.953,-36.621,-64.453,-6.348,0.000
1714023562.060,-4.395,-32.715,-50.293,-1.953,0.000
1714023562.064,2.441,-26.855,-32.227,7.812,0.000
1714023562.068,6.348,-25.391,-39.551,8.789,0.000
1714023562.072,1.953,-24.414,-53.711,2.441,0.000
1714023562.075,-3.906,-36.621,-58.105,1.953,0.000
1714023562.079,-1.953,-44.922,-49.316,1.465,0.000
1714023562.083,-5.859,-41.992,-44.434,-11.719,0.000
1714023562.087,-7.812,-40.527,-45.410,-7.324,0.000
1714023562.091,-4.395,-36.621,-41.016,4.395,0.000
1714023562.095,-9.766,-38.574,-38.574,0.000,0.000
1714023562.099,-11.230,-40.527,-39.062,-6.348,0.000
1714023562.103,-5.859,-35.156,-41.992,-5.859,0.000
1714023562.107,-9.277,-38.086,-47.363,-7.324,0.000
1714023562.111,-12.207,-40.039,-50.293,-8.789,0.000
1714023562.114,-17.090,-41.016,-59.082,-20.508,0.000
1714023562.118,-20.020,-47.363,-61.035,-24.902,0.000
1714023562.122,-13.672,-46.875,-50.293,-21.484,0.000
1714023562.126,-7.324,-43.945,-47.852,-20.508,0.000
1714023562.130,-3.906,-41.992,-47.363,-12.695,0.000
1714023562.134,-7.324,-39.062,-43.457,-17.090,0.000
1714023562.138,-13.672,-39.551,-45.410,-27.832,0.000
1714023562.142,-7.324,-41.016,-49.316,-20.020,0.000
1714023562.146,0.488,-37.598,-44.434,-4.395,0.000
1714023562.150,-4.395,-40.527,-48.828,-10.742,0.000
1714023562.153,-12.695,-39.551,-56.152,-23.438,0.000
1714023562.157,-13.672,-32.715,-51.758,-19.043,0.000
1714023562.161,-12.695,-37.109,-44.922,-18.555,0.000
1714023562.165,-13.672,-40.527,-50.293,-23.926,0.000
1714023562.169,-15.625,-50.293,-50.781,-27.832,0.000
1714023562.173,-10.742,-46.387,-44.922,-21.484,0.000
1714023562.177,-8.789,-31.250,-52.734,-15.625,0.000
1714023562.181,-5.371,-24.902,-51.270,-23.926,0.000
1714023562.185,-4.883,-27.832,-44.434,-22.461,0.000
1714023562.189,-13.672,-33.691,-43.457,-22.461,0.000
1714023562.193,-18.066,-36.133,-51.270,-24.414,0.000
1714023562.196,-10.254,-37.598,-51.270,-20.996,0.000
1714023562.200,-8.301,-34.180,-31.250,-15.137,0.000
1714023562.204,-14.648,-38.086,-29.297,-17.090,0.000
1714023562.208,-16.602,-46.875,-39.551,-25.879,0.000
1714023562.212,-21.973,-44.922,-41.992,-27.832,0.000
1714023562.216,-21.973,-39.062,-41.504,-24.902,0.000
1714023562.220,-20.020,-44.922,-51.270,-26.855,0.000
1714023562.224,-19.043,-48.340,-49.805,-27.832,0.000
1714023562.228,-16.113,-37.109,-34.668,-18.066,0.000
1714023562.232,-19.043,-31.250,-33.691,-18.066,0.000
1714023562.236,-25.391,-37.598,-42.969,-25.879,0.000
1714023562.239,-27.344,-41.504,-44.922,-21.973,0.000
1714023562.243,-24.414,-39.551,-46.875,-20.020,0.000
1714023562.247,-17.578,-40.039,-43.945,-23.438,0.000
1714023562.251,-16.113,-41.504,-35.645,-28.809,0.000
1714023562.255,-20.020,-41.992,-34.668,-24.414,0.000
1714023562.259,-19.531,-43.945,-37.109,-11.719,0.000
1714023562.263,-24.414,-44.434,-30.273,-21.973,0.000
1714023562.267,-33.691,-45.410,-38.574,-33.691,0.000
1714023562.271,-27.344,-42.969,-47.852,-22.461,0.000
1714023562.275,-11.230,-46.875,-45.898,-15.137,0.000
1714023562.279,-18.555,-45.898,-51.270,-27.832,0.000
1714023562.282,-28.809,-29.785,-44.922,-35.156,0.000
1714023562.286,-20.996,-23.438,-37.109,-27.832,0.000
1714023562.290,-18.066,-20.996,-37.598,-29.785,0.000
1714023562.294,-28.320,-21.484,-37.109,-34.180,0.000
1714023562.298,-34.180,-27.344,-41.016,-40.527,0.000
1714023562.302,-27.832,-31.738,-47.363,-41.504,0.000
1714023562.306,-23.926,-37.598,-47.852,-40.527,0.000
1714023562.310,-28.320,-35.645,-49.805,-38.574,0.000
1714023562.314,-23.926,-37.109,-51.270,-26.855,0.000
1714023562.318,-18.066,-38.574,-45.898,-40.527,0.000
1714023562.322,-21.484,-35.645,-40.039,-52.734,0.000
1714023562.325,-18.555,-38.086,-41.504,-44.434,0.000
1714023562.329,-25.391,-36.621,-44.434,-40.527,0.000
1714023562.333,-34.668,-40.527,-39.062,-42.480,0.000
1714023562.337,-25.879,-50.293,-42.969,-42.480,0.000
1714023562.341,-32.227,-47.363,-44.434,-43.945,0.000
1714023562.345,-41.992,-34.668,-39.062,-52.246,0.000
1714023562.349,-30.273,-37.109,-36.621,-50.293,0.000
1714023562.353,-23.438,-43.945,-36.621,-41.504,0.000
1714023562.357,-28.809,-42.969,-44.922,-34.180,0.000
1714023562.361,-26.855,-32.227,-41.992,-30.762,0.000
1714023562.364,-22.461,-23.926,-40.039,-35.645,0.000
1714023562.368,-21.484,-28.320,-46.387,-38.086,0.000
1714023562.372,-17.578,-34.668,-34.180,-34.180,0.000
1714023562.376,-21.484,-39.062,-32.715,-28.809,0.000
1714023562.380,-27.344,-38.574,-41.016,-34.668,0.000
1714023562.384,-26.367,-36.621,-38.086,-44.922,0.000
1714023562.388,-27.832,-41.504,-30.273,-46.387,0.000
1714023562.392,-39.062,-43.945,-29.785,-29.785,0.000
1714023562.396,-47.852,-38.086,-38.574,-20.996,0.000
1714023562.400,-48.340,-40.527,-33.203,-34.668,0.000
1714023562.404,-47.363,-40.527,-31.250,-37.109,0.000
1714023562.407,-48.340,-38.574,-37.598,-36.621,0.000
1714023562.411,-44.922,-45.410,-35.156,-36.621,0.000
1714023562.415,-34.668,-36.621,-25.391,-23.438,0.000
1714023562.419,-30.762,-42.480,-24.414,-31.250,0.000
1714023562.423,-31.250,-55.664,-29.297,-36.621,0.000
1714023562.427,-29.297,-39.551,-29.297,-22.949,0.000
1714023562.431,-33.691,-27.344,-35.645,-25.879,0.000
1714023562.435,-39.551,-37.109,-35.645,-35.156,0.000
1714023562.439,-38.086,-40.527,-28.809,-38.086,0.000
1714023562.443,-35.156,-33.203,-28.320,-29.297,0.000
1714023562.446,-32.715,-43.945,-28.320,-20.508,0.000
1714023562.450,-40.527,-48.340,-32.715,-29.785,0.000
1714023562.454,-42.480,-34.668,-30.273,-36.621,0.000
1714023562.458,-26.855,-33.203,-25.391,-22.461,0.000
1714023562.462,-26.367,-38.086,-24.902,-21.484,0.000
1714023562.466,-37.598,-40.039,-27.832,-37.109,0.000
1714023562.470,-34.668,-41.992,-32.715,-35.645,0.000
1714023562.474,-23.438,-44.434,-33.203,-30.273,0.000
1714023562.478,-23.438,-46.387,-35.645,-33.691,0.000
1714023562.482,-23.926,-39.062,-33.691,-42.480,0.000
1714023562.485,-16.602,-31.738,-35.156,-46.387,0.000
1714023562.489,-13.184,-32.227,-50.293,-46.875,0.000
1714023562.493,-23.926,-39.062,-48.340,-38.574,0.000
1714023562.497,-34.668,-45.410,-34.668,-37.109,0.000
1714023562.501,-24.902,-43.457,-31.738,-36.133,0.000
1714023562.505,-13.672,-44.922,-31.738,-22.461,0.000
1714023562.509,-25.391,-52.734,-38.574,-29.785,0.000
1714023562.513,-36.133,-50.293,-42.969,-44.434,0.000
1714023562.517,-35.645,-44.434,-37.109,-52.734,0.000
1714023562.521,-30.273,-39.062,-31.250,-49.316,0.000
1714023562.524,-28.809,-39.551,-25.879,-41.992,0.000
1714023562.528,-30.273,-39.551,-26.367,-43.945,0.000
1714023562.532,-29.785,-29.297,-28.809,-35.645,0.000
1714023562.536,-30.762,-36.133,-34.180,-28.809,0.000
1714023562.540,-33.203,-46.387,-36.621,-28.320,0.000
1714023562.544,-32.715,-41.504,-35.156,-27.832,0.000
1714023562.548,-29.297,-37.109,-33.691,-30.273,0.000
1714023562.552,-28.809,-38.574,-34.668,-32.227,0.000
1714023562.556,-27.344,-38.086,-35.645,-25.879,0.000
1714023562.560,-32.715,-35.645,-33.203,-31.738,0.000
1714023562.564,-34.668,-42.969,-35.645,-35.645,0.000
1714023562.567,-34.180,-51.758,-36.133,-33.691,0.000
1714023562.571,-38.574,-52.246,-44.922,-33.203,0.000
1714023562.575,-30.762,-48.828,-46.875,-29.297,0.000
1714023562.579,-26.855,-45.898,-34.668,-24.414,0.000
1714023562.583,-29.297,-40.527,-42.969,-23.926,0.000
1714023562.587,-28.809,-36.133,-51.270,-30.273,0.000
1714023562.591,-31.738,-39.551,-43.457,-27.344,0.000
1714023562.595,-31.250,-38.574,-37.109,-21.973,0.000
1714023562.599,-29.297,-39.062,-37.598,-19.043,0.000
1714023562.603,-26.367,-41.504,-34.668,-29.785,0.000
1714023562.607,-30.762,-45.410,-35.645,-38.086,0.000
1714023562.610,-32.227,-41.992,-40.527,-27.344,0.000
1714023562.614,-27.344,-47.363,-38.574,-24.414,0.000
1714023562.618,-18.555,-51.270,-25.879,-25.391,0.000
1714023562.622,-17.090,-46.387,-28.320,-24.902,0.000
1714023562.626,-22.949,-41.016,-44.434,-23.438,0.000
1714023562.630,-21.973,-36.621,-45.898,-21.973,0.000
1714023562.634,-22.461,-38.574,-40.527,-26.367,0.000
1714023562.638,-26.367,-34.180,-32.715,-31.250,0.000
1714023562.642,-26.367,-33.691,-31.250,-22.461,0.000
1714023562.646,-21.484,-32.227,-34.668,-13.672,0.000
1714023562.650,-15.137,-35.645,-28.320,-20.508,0.000
1714023562.653,-15.625,-36.621,-26.367,-19.043,0.000
1714023562.657,0.000,-33.691,-31.738,-19.531,0.000
1714023562.661,0.000,-30.273,-33.203,-25.391,0.000
1714023562.665,0.000,-20.996,-38.574,-26.855,0.000
1714023562.669,0.000,-27.344,-41.504,-24.902,0.000
1714023562.673,0.000,-42.969,-40.527,-20.996,0.000
1714023562.677,0.000,-41.992,-34.668,-15.137,0.000
1714023562.681,0.000,-35.645,-28.809,-26.855,0.000
1714023562.685,0.000,-33.203,-32.227,-34.668,0.000
1714023562.689,0.000,-37.109,-39.551,-23.438,0.000
1714023562.693,0.000,-38.086,-40.039,-26.855,0.000
1714023562.696,0.000,-33.691,-34.668,-26.855,0.000
1714023562.700,0.000,-32.715,-27.344,-29.297,0.000
1714023562.704,-21.484,-26.855,-27.344,-33.691,0.000
1714023562.708,-22.949,-30.762,-34.668,-29.297,0.000
1714023562.712,-31.250,-41.016,-45.410,-29.785,0.000
1714023562.716,-25.391,-45.898,-49.805,-30.273,0.000
1714023562.720,-20.508,-48.340,-45.410,-31.250,0.000
1714023562.724,-27.344,-38.086,-39.551,-34.668,0.000
1714023562.728,-30.273,-33.203,-37.109,-29.785,0.000
1714023562.732,-16.602,-39.551,-36.133,-20.020,0.000
1714023562.735,-16.602,-45.898,-39.551,-24.414,0.000
1714023562.739,-24.902,-32.715,-35.156,-34.180,0.000
1714023562.743,-20.020,-21.973,-31.250,-30.762,0.000
1714023562.747,-18.555,-32.227,-38.574,-32.227,0.000
1714023562.751,-25.391,-40.527,-34.668,-34.668,0.000
1714023562.755,-31.250,-40.039,-36.133,-34.180,0.000
1714023562.759,-30.273,-39.062,-39.062,-27.344,0.000
1714023562.763,-21.973,-41.016,-33.691,-22.949,0.000
1714023562.767,-23.926,-39.062,-28.320,-30.273,0.000
1714023562.771,-30.273,-35.645,-31.250,-29.297,0.000
1714023562.775,-33.691,-38.086,-36.621,-31.738,0.000
1714023562.778,-31.738,-45.410,-39.551,-28.809,0.000
1714023562.782,-26.855,-49.805,-37.109,-28.320,0.000
1714023562.786,-26.367,-47.852,-27.832,-31.738,0.000
1714023562.790,-26.367,-50.293,-25.879,-30.762,0.000
1714023562.794,-27.832,-58.105,-25.879,-29.785,0.000
1714023562.798,-29.297,-48.828,-24.902,-29.297,0.000
1714023562.802,-32.715,-41.504,-33.203,-40.039,0.000
1714023562.806,-29.785,-46.387,-36.621,-41.016,0.000
1714023562.810,-31.250,-47.363,-40.039,-38.574,0.000
1714023562.814,-33.691,-42.480,-41.504,-36.133,0.000
1714023562.817,-34.668,-46.387,-39.062,-37.109,0.000
1714023562.821,-32.715,-53.711,-32.227,-33.203,0.000
1714023562.825,-25.391,-41.504,-16.602,-27.832,0.000
1714023562.829,-25.879,-37.109,-20.020,-44.434,0.000
1714023562.833,-25.879,-40.039,-32.227,-45.410,0.000
1714023562.837,-30.273,-40.527,-35.645,-43.457,0.000
1714023562.841,-40.039,-47.852,-38.574,-41.992,0.000
1714023562.845,-41.992,-55.664,-41.504,-37.109,0.000
1714023562.849,-29.785,-55.664,-36.621,-28.320,0.000
1714023562.853,-24.414,-51.270,-28.320,-27.832,0.000
1714023562.856,-32.227,-46.875,-27.832,-37.598,0.000
1714023562.860,-25.391,-44.922,-35.645,-30.762,0.000
1714023562.864,-18.555,-43.945,-40.527,-24.414,0.000
1714023562.868,-15.625,-41.504,-35.645,-23.926,0.000
1714023562.872,-16.113,-38.086,-35.645,-27.344,0.000
1714023562.876,-23.926,-44.922,-36.621,-23.926,0.000
1714023562.880,-35.645,-49.316,-39.062,-32.715,0.000
1714023562.884,-43.945,-42.969,-38.574,-45.898,0.000
1714023562.888,-37.109,-38.086,-36.133,-41.504,0.000
1714023562.891,-35.156,-42.480,-48.340,-38.574,0.000
1714023562.895,-41.504,-42.969,-57.129,-43.945,0.000
1714023562.899,-37.109,-38.086,-45.898,-47.852,0.000
1714023562.903,-32.227,-39.062,-36.621,-37.598,0.000
1714023562.907,-26.855,-30.762,-41.504,-28.320,0.000
1714023562.911,-22.949,-35.156,-36.133,-24.902,0.000
1714023562.915,-33.691,-48.340,-26.367,-29.785,0.000
1714023562.919,-39.062,-44.922,-35.645,-43.457,0.000
1714023562.923,-44.922,-48.828,-40.527,-49.805,0.000
1714023562.927,-44.922,-52.734,-33.203,-39.551,0.000
1714023562.931,-40.039,-48.340,-31.738,-37.598,0.000
1714023562.934,-31.250,-37.109,-9.277,-36.133,0.000
1714023562.938,-39.062,-39.062,-12.207,-40.527,0.000
1714023562.942,-62.988,-49.316,-38.086,-57.129,0.000
1714023562.946,-57.617,-49.805,-36.621,-54.688,0.000
1714023562.950,-54.688,-48.340,-26.367,-66.895,0.000
1714023562.954,-71.777,-50.293,-29.297,-86.914,0.000
1714023562.958,-81.055,-51.270,-30.762,-88.867,0.000
1714023562.962,-93.750,-49.805,-25.391,-99.609,0.000
1714023562.966,-105.957,-56.152,-28.809,-121.094,0.000
1714023562.970,-114.746,-66.406,-23.926,-125.488,0.000
1714023562.974,-137.695,-60.547,-19.043,-130.371,0.000
1714023562.977,-157.227,-56.152,-5.371,-146.973,0.000
1714023562.981,-154.785,-63.477,1.953,-149.414,0.000
1714023562.985,-152.344,-53.711,-8.301,-153.320,0.000
1714023562.989,-154.785,-40.039,-5.371,-154.297,0.000
1714023562.993,-161.621,-41.992,0.488,-160.156,0.000
1714023562.997,-164.551,-42.480,-1.953,-170.410,0.000
1714023563.001,-157.227,-35.645,-6.348,-169.434,0.000
1714023563.005,-158.691,-42.480,-8.301,-166.504,0.000
1714023563.009,-146.973,-50.781,2.930,-149.902,0.000
1714023563.013,-124.023,-53.711,9.766,-128.418,0.000
1714023563.017,-113.281,-53.223,-6.836,-125.000,0.000
1714023563.021,-99.609,-49.805,-7.324,-121.094,0.000
1714023563.024,-88.379,-41.504,-6.836,-109.375,0.000
1714023563.028,-63.965,-33.203,-18.066,-95.215,0.000
1714023563.032,-40.527,-35.156,-20.996,-88.379,0.000
1714023563.036,-35.156,-40.039,-23.926,-84.961,0.000
1714023563.040,-21.973,-39.551,-26.855,-66.406,0.000
1714023563.044,-16.602,-46.875,-31.250,-41.504,0.000
1714023563.048,-21.484,-55.664,-41.504,-36.133,0.000
1714023563.052,-12.207,-54.688,-48.340,-35.156,0.000
1714023563.056,-13.184,-41.016,-51.270,-28.320,0.000
1714023563.060,-15.137,-37.598,-44.434,-20.996,0.000
1714023563.063,-10.254,-41.504,-40.039,-7.812,0.000
1714023563.067,-17.090,-44.922,-44.922,-10.254,0.000
1714023563.071,-5.371,-49.805,-41.504,-2.930,0.000
1714023563.075,2.441,-46.875,-39.551,9.766,0.000
1714023563.079,0.000,-48.340,-51.270,5.371,0.000
1714023563.083,3.418,-48.340,-55.176,7.812,0.000
1714023563.087,-1.953,-45.410,-56.152,8.301,0.000
1714023563.091,1.465,-46.387,-56.641,10.254,0.000
1714023563.095,5.371,-44.434,-55.176,8.301,0.000
1714023563.099,0.977,-44.434,-59.570,0.977,0.000
1714023563.103,-0.977,-51.270,-52.734,-0.488,0.000
1714023563.106,2.930,-48.828,-46.875,5.371,0.000
1714023563.110,5.859,-34.668,-53.711,18.555,0.000
1714023563.114,1.465,-38.086,-60.059,8.301,0.000
1714023563.118,-2.441,-41.016,-63.477,-1.465,0.000
1714023563.122,-5.371,-46.875,-63.965,-2.930,0.000
1714023563.126,-7.812,-57.617,-59.082,-1.465,0.000
1714023563.130,-4.883,-48.340,-51.758,6.836,0.000
1714023563.134,1.465,-42.969,-56.641,3.906,0.000
1714023563.138,-4.395,-45.410,-64.453,-4.395,0.000
1714023563.142,-4.395,-39.062,-54.199,4.883,0.000
1714023563.146,5.859,-33.691,-43.945,13.672,0.000
1714023563.149,9.277,-36.133,-42.480,9.277,0.000
1714023563.153,5.859,-48.828,-43.457,8.789,0.000
1714023563.157,-2.441,-54.199,-47.363,0.977,0.000
1714023563.161,-0.488,-44.434,-46.875,-1.465,0.000
1714023563.165,7.324,-38.086,-36.621,12.695,0.000
1714023563.169,9.766,-27.832,-37.109,8.789,0.000
1714023563.173,0.000,-21.973,-42.480,-0.977,0.000
1714023563.177,0.000,-24.414,-38.574,4.883,0.000
1714023563.181,0.000,-27.832,-41.504,7.812,0.000
1714023563.185,0.000,-36.133,-47.363,-3.418,0.000
1714023563.188,0.000,-35.645,-47.852,-9.277,0.000
1714023563.192,0.000,-35.156,-49.316,-0.977,0.000
1714023563.196,0.000,-39.062,-48.340,8.301,0.000
1714023563.200,0.000,-34.668,-43.945,0.000,0.000
1714023563.204,0.000,-34.668,-43.945,-20.020,0.000
1714023563.208,0.000,-38.574,-51.270,-22.949,0.000
1714023563.212,0.000,-35.156,-56.641,-15.137,0.000
1714023563.216,0.000,-31.250,-54.199,-13.184,0.000
1714023563.220,-0.977,-30.273,-42.969,-16.113,0.000
1714023563.224,5.859,-41.992,-34.668,-2.930,0.000
1714023563.227,6.348,-45.410,-27.344,6.836,0.000
1714023563.231,0.000,-33.691,-24.414,-0.488,0.000
1714023563.235,-4.395,-31.738,-38.086,-12.695,0.000
1714023563.239,-7.812,-29.297,-45.898,-18.555,0.000
1714023563.243,-8.789,-27.344,-40.039,-10.254,0.000
1714023563.247,-6.836,-25.391,-41.016,-9.277,0.000
1714023563.251,-1.953,-24.414,-40.527,-20.508,0.000
1714023563.255,1.465,-31.250,-37.598,-26.367,0.000
1714023563.259,-2.441,-37.109,-41.016,-20.996,0.000
1714023563.263,-0.977,-36.621,-42.480,-2.930,0.000
1714023563.266,-2.441,-35.156,-41.504,-2.930,0.000
1714023563.270,-6.348,-40.527,-45.410,-13.672,0.000
1714023563.274,-7.812,-38.574,-45.410,-19.531,0.000
1714023563.278,-11.719,-33.691,-42.480,-18.555,0.000
1714023563.282,-15.137,-31.738,-40.527,-21.973,0.000
1714023563.286,-12.207,-33.691,-47.363,-20.020,0.000
1714023563.290,-12.695,-41.992,-48.340,-19.043,0.000
1714023563.294,-14.648,-44.434,-38.086,-22.949,0.000
1714023563.298,-12.207,-38.574,-36.133,-23.438,0.000
1714023563.302,-17.090,-40.039,-39.551,-28.809,0.000
1714023563.305,-23.438,-48.340,-41.992,-31.250,0.000
1714023563.309,-28.320,-45.898,-42.480,-31.250,0.000
1714023563.313,-36.133,-41.992,-47.852,-32.715,0.000
1714023563.317,-33.203,-41.016,-50.781,-31.738,0.000
1714023563.321,-27.344,-34.180,-34.668,-31.250,0.000
1714023563.325,-33.691,-38.574,-29.785,-30.762,0.000
1714023563.329,-29.785,-40.527,-34.180,-27.344,0.000
1714023563.333,-31.250,-45.410,-36.621,-35.156,0.000
1714023563.337,-31.250,-44.434,-38.574,-31.738,0.000
1714023563.341,-21.973,-37.598,-36.621,-21.484,0.000
1714023563.345,-23.438,-38.086,-33.203,-16.113,0.000
1714023563.348,-20.508,-36.621,-32.227,-14.648,0.000
1714023563.352,-12.207,-33.203,-29.785,-19.531,0.000
1714023563.356,-16.602,-33.203,-27.832,-18.066,0.000
1714023563.360,-23.926,-37.109,-25.879,-9.766,0.000
1714023563.364,-17.090,-38.086,-26.855,-1.953,0.000
1714023563.368,-6.836,-33.691,-33.203,-11.719,0.000
1714023563.372,-14.648,-34.668,-38.086,-23.926,0.000
1714023563.376,-30.273,-47.852,-41.992,-35.645,0.000
1714023563.380,-34.668,-46.875,-44.922,-45.410,0.000
1714023563.384,-31.250,-32.715,-46.387,-36.621,0.000
1714023563.388,-26.367,-30.762,-42.480,-41.016,0.000
1714023563.392,-21.484,-32.715,-40.527,-38.574,0.000
1714023563.395,-19.531,-23.926,-48.828,-32.715,0.000
1714023563.399,-22.461,-24.902,-52.734,-42.969,0.000
1714023563.403,-22.949,-33.691,-54.688,-50.781,0.000
1714023563.407,-21.973,-32.227,-53.711,-36.621,0.000
1714023563.411,-21.484,-38.574,-46.875,-30.762,0.000
1714023563.415,-19.531,-44.922,-39.551,-42.480,0.000
1714023563.419,-18.066,-39.062,-34.180,-41.016,0.000
1714023563.423,-25.879,-39.062,-32.227,-40.039,0.000
1714023563.427,-26.367,-39.062,-38.086,-38.086,0.000
1714023563.431,-21.973,-37.109,-45.898,-32.715,0.000
1714023563.434,-26.855,-35.156,-47.852,-34.668,0.000
1714023563.438,-28.320,-38.086,-50.293,-39.551,0.000
1714023563.442,-17.090,-41.504,-49.316,-33.203,0.000
1714023563.446,-20.508,-40.039,-46.387,-39.062,0.000
1714023563.450,-24.902,-37.598,-39.062,-44.434,0.000
1714023563.454,-13.184,-36.621,-28.809,-32.715,0.000
1714023563.458,-17.090,-40.039,-33.691,-39.551,0.000
1714023563.462,-22.949,-40.527,-41.504,-41.016,0.000
1714023563.466,-16.602,-37.109,-40.527,-39.062,0.000
1714023563.470,-13.184,-26.855,-45.410,-43.945,0.000
1714023563.474,-19.531,-20.996,-52.246,-42.480,0.000
1714023563.477,-24.902,-20.996,-48.340,-35.645,0.000
1714023563.481,-17.090,-22.949,-41.992,-24.414,0.000
1714023563.485,-9.766,-29.297,-40.527,-21.484,0.000
1714023563.489,-18.555,-34.180,-36.621,-20.996,0.000
1714023563.493,-19.531,-37.598,-37.109,-14.648,0.000
1714023563.497,-19.531,-36.621,-41.016,-20.996,0.000
1714023563.501,-25.391,-33.691,-37.109,-36.133,0.000
1714023563.505,-23.438,-32.227,-36.133,-36.133,0.000
1714023563.509,-22.949,-33.203,-42.480,-30.762,0.000
1714023563.513,-27.832,-41.504,-40.527,-26.855,0.000
1714023563.516,-35.156,-39.551,-40.527,-28.809,0.000
1714023563.520,-30.273,-33.203,-44.434,-24.902,0.000
1714023563.524,-24.414,-35.645,-38.086,-20.508,0.000
1714023563.528,-25.391,-38.086,-36.133,-18.555,0.000
1714023563.532,-22.949,-36.621,-33.691,-22.461,0.000
1714023563.536,-24.902,-36.621,-32.227,-28.809,0.000
1714023563.540,-23.438,-34.668,-31.250,-20.996,0.000
1714023563.544,-22.461,-37.598,-34.668,-20.996,0.000
1714023563.548,-27.344,-43.945,-41.016,-25.879,0.000
1714023563.552,-23.926,-41.992,-40.039,-30.762,0.000
1714023563.556,-20.996,-51.758,-29.785,-23.926,0.000
1714023563.559,-21.484,-53.223,-19.043,-16.602,0.000
1714023563.563,-21.484,-39.062,-27.344,-27.344,0.000
1714023563.567,-21.973,-31.738,-34.180,-36.133,0.000
1714023563.571,-23.438,-34.180,-35.645,-34.180,0.000
1714023563.575,-19.043,-41.504,-31.738,-25.879,0.000
1714023563.579,-20.996,-40.039,-20.996,-29.785,0.000
1714023563.583,-24.902,-41.016,-24.902,-39.551,0.000
1714023563.587,-29.785,-45.410,-40.039,-44.434,0.000
1714023563.591,-22.949,-37.598,-49.316,-37.598,0.000
1714023563.595,-12.695,-38.086,-41.992,-31.738,0.000
1714023563.598,-7.324,-41.992,-32.715,-33.691,0.000
1714023563.602,4.883,-31.738,-29.297,-31.250,0.000
1714023563.606,-0.488,-33.203,-34.180,-31.250,0.000
1714023563.610,-15.625,-37.109,-41.504,-33.203,0.000
1714023563.614,-17.578,-38.574,-46.875,-35.156,0.000
1714023563.618,-16.602,-41.504,-46.875,-37.598,0.000
1714023563.622,-18.555,-33.203,-35.645,-37.598,0.000
1714023563.626,-24.902,-22.949,-34.668,-31.250,0.000
1714023563.630,-29.297,-27.832,-38.086,-22.949,0.000
1714023563.634,-32.227,-32.715,-35.156,-29.297,0.000
1714023563.637,-25.391,-29.297,-22.949,-20.508,0.000
1714023563.641,-18.066,-36.621,-20.508,-9.766,0.000
1714023563.645,-22.949,-40.039,-33.203,-20.508,0.000
1714023563.649,-26.367,-41.504,-38.574,-28.809,0.000
1714023563.653,-30.762,-47.852,-32.715,-25.391,0.000
1714023563.657,-31.738,-41.992,-38.086,-20.996,0.000
1714023563.661,-23.926,-36.621,-50.781,-14.160,0.000
1714023563.665,-24.414,-44.434,-46.875,-17.090,0.000
1714023563.669,-26.855,-46.387,-34.668,-33.691,0.000
1714023563.673,-24.414,-47.852,-28.809,-29.297,0.000
1714023563.676,-26.367,-47.363,-27.344,-23.438,0.000
1714023563.680,-29.297,-37.109,-32.227,-29.297,0.000
1714023563.684,-30.273,-34.668,-32.227,-37.598,0.000
1714023563.688,-23.438,-41.504,-28.809,-33.203,0.000
1714023563.692,-24.902,-41.504,-33.691,-28.320,0.000
1714023563.696,-29.297,-39.551,-30.762,-31.738,0.000
1714023563.700,-28.809,-44.922,-37.109,-31.738,0.000
1714023563.704,-27.832,-40.039,-37.109,-30.273,0.000
1714023563.708,-29.297,-40.527,-34.668,-28.320,0.000
1714023563.712,-33.203,-50.293,-38.086,-28.320,0.000
1714023563.716,-37.598,-41.504,-31.250,-37.598,0.000
1714023563.719,-39.551,-39.062,-37.598,-34.668,0.000
1714023563.723,-36.133,-49.805,-46.875,-32.227,0.000
1714023563.727,-36.133,-54.199,-42.969,-44.434,0.000
1714023563.731,-35.645,-46.387,-41.504,-41.992,0.000
1714023563.735,-31.250,-42.480,-50.293,-33.203,0.000
1714023563.739,-26.367,-45.410,-44.922,-34.668,0.000
1714023563.743,-27.832,-46.387,-32.715,-36.621,0.000
1714023563.747,-28.320,-54.199,-31.250,-39.062,0.000
1714023563.751,-23.926,-53.223,-36.133,-41.992,0.000
1714023563.755,-26.367,-41.016,-34.180,-41.016,0.000
1714023563.759,-25.879,-32.715,-31.250,-37.598,0.000
1714023563.762,-24.414,-36.621,-29.297,-35.156,0.000
1714023563.766,-25.391,-45.410,-31.738,-29.785,0.000
1714023563.770,-22.949,-39.551,-29.297,-23.438,0.000
1714023563.774,-22.949,-34.180,-28.809,-27.344,0.000
1714023563.778,-22.949,-43.945,-36.621,-40.039,0.000
1714023563.782,-21.484,-43.945,-40.527,-42.969,0.000
1714023563.786,-20.508,-28.809,-35.645,-37.598,0.000
1714023563.790,-18.555,-33.691,-26.855,-29.785,0.000
1714023563.794,-21.973,-39.062,-17.090,-24.902,0.000
1714023563.798,-28.320,-35.156,-21.484,-40.039,0.000
1714023563.802,-29.785,-34.180,-41.016,-46.875,0.000
1714023563.805,-28.320,-32.227,-42.480,-39.062,0.000
1714023563.809,-24.414,-29.785,-40.527,-36.133,0.000
1714023563.813,-22.949,-32.715,-40.527,-31.738,0.000
1714023563.817,-19.043,-31.250,-25.391,-27.344,0.000
1714023563.821,-15.137,-32.715,-20.996,-35.645,0.000
1714023563.825,-17.090,-32.227,-17.090,-33.203,0.000
1714023563.829,-18.555,-26.367,-14.648,-25.879,0.000
1714023563.833,-13.184,-29.297,-31.738,-22.949,0.000
1714023563.837,-21.484,-33.203,-40.527,-33.203,0.000
1714023563.841,-44.434,-33.691,-42.969,-52.734,0.000
1714023563.845,-42.969,-38.574,-43.457,-44.922,0.000
1714023563.848,-41.016,-51.758,-36.133,-47.852,0.000
1714023563.852,-47.363,-45.410,-24.414,-50.781,0.000
1714023563.856,-43.945,-40.527,-32.227,-34.180,0.000
1714023563.860,-48.828,-40.039,-37.109,-40.039,0.000
1714023563.864,-56.641,-37.598,-27.832,-56.641,0.000
1714023563.868,-55.664,-43.945,-39.551,-49.805,0.000
1714023563.872,-51.758,-50.293,-42.969,-38.574,0.000
1714023563.876,-48.340,-49.805,-38.086,-44.434,0.000
1714023563.880,-52.246,-48.828,-38.086,-50.781,0.000
1714023563.884,-47.852,-50.781,-36.621,-48.340,0.000
1714023563.887,-44.434,-43.945,-31.738,-45.898,0.000
1714023563.891,-46.387,-45.898,-26.855,-38.086,0.000
1714023563.895,-41.992,-53.223,-33.203,-32.715,0.000
1714023563.899,-36.621,-45.898,-41.504,-28.809,0.000
1714023563.903,-36.621,-35.645,-42.969,-27.344,0.000
1714023563.907,-44.922,-42.969,-41.504,-38.574,0.000
1714023563.911,-40.039,-44.922,-40.527,-36.621,0.000
1714023563.915,-28.320,-34.180,-31.250,-26.367,0.000
1714023563.919,-27.832,-39.062,-18.066,-28.320,0.000
1714023563.923,-37.598,-49.805,-21.973,-30.762,0.000
1714023563.927,-38.574,-45.410,-32.227,-28.809,0.000
1714023563.930,-33.691,-41.992,-35.156,-23.438,0.000
1714023563.934,-33.691,-48.340,-35.156,-30.762,0.000
1714023563.938,-33.691,-58.105,-41.504,-27.344,0.000
1714023563.942,-29.297,-54.688,-54.688,-22.461,0.000
1714023563.946,-21.973,-50.781,-49.316,-22.949,0.000
1714023563.950,-22.461,-48.340,-29.297,-27.344,0.000
1714023563.954,-23.438,-42.480,-22.461,-29.785,0.000
1714023563.958,-31.250,-43.457,-27.832,-29.785,0.000
1714023563.962,-34.180,-38.574,-39.551,-27.832,0.000
1714023563.966,-29.297,-35.156,-38.086,-28.320,0.000
1714023563.969,-29.785,-41.992,-38.574,-39.062,0.000
1714023563.973,-32.227,-42.480,-44.922,-40.527,0.000
1714023563.977,-29.297,-42.480,-39.062,-36.621,0.000
1714023563.981,-24.902,-46.387,-36.621,-37.598,0.000
1714023563.985,-30.273,-48.828,-39.551,-39.551,0.000
1714023563.989,-28.809,-43.945,-39.062,-35.645,0.000
1714023563.993,-36.133,-52.246,-39.062,-39.551,0.000
1714023563.997,-43.457,-58.594,-36.133,-41.504,0.000
1714023564.001,-41.504,-44.434,-30.273,-42.480,0.000
1714023564.005,-41.992,-43.945,-32.227,-40.039,0.000
1714023564.008,-37.598,-53.223,-39.062,-37.598,0.000
1714023564.012,-33.203,-52.734,-41.016,-45.410,0.000
1714023564.016,-36.621,-47.852,-34.180,-46.387,0.000
1714023564.020,-47.363,-48.828,-38.086,-46.387,0.000
1714023564.024,-50.781,-50.781,-43.945,-40.039,0.000
1714023564.028,-48.340,-49.805,-42.969,-32.715,0.000
1714023564.032,-40.527,-47.363,-35.645,-29.785,0.000
1714023564.036,-37.109,-42.969,-26.855,-22.949,0.000
1714023564.040,-41.016,-47.363,-35.645,-18.555,0.000
1714023564.044,-41.504,-45.898,-40.039,-29.297,0.000
1714023564.047,-28.320,-43.945,-35.645,-24.414,0.000
1714023564.051,-18.555,-51.758,-40.039,-20.508,0.000
1714023564.055,-34.668,-52.734,-37.598,-43.457,0.000
1714023564.059,-35.156,-46.387,-27.344,-41.016,0.000
1714023564.063,-24.414,-46.387,-24.414,-21.973,0.000
1714023564.067,-37.109,-45.410,-36.133,-37.598,0.000
1714023564.071,-46.875,-45.410,-41.016,-49.316,0.000
1714023564.075,-42.969,-49.316,-41.016,-48.340,0.000
1714023564.079,-42.480,-44.922,-45.410,-52.246,0.000
1714023564.083,-43.945,-42.969,-45.410,-52.734,0.000
1714023564.087,-40.527,-40.527,-34.668,-56.152,0.000
1714023564.090,-32.715,-43.945,-32.715,-57.129,0.000
1714023564.094,-35.156,-43.457,-36.133,-53.711,0.000
1714023564.098,-37.109,-31.738,-32.227,-38.574,0.000
1714023564.102,-34.668,-30.273,-25.879,-38.086,0.000
1714023564.106,-38.086,-32.715,-32.715,-37.109,0.000
1714023564.110,-38.574,-41.504,-46.875,-29.785,0.000
1714023564.114,-33.203,-49.316,-39.551,-35.156,0.000
1714023564.118,-28.320,-37.598,-25.879,-34.668,0.000
1714023564.122,-35.645,-31.250,-29.785,-31.738,0.000
1714023564.126,-32.715,-32.227,-31.738,-21.973,0.000
1714023564.130,-25.879,-35.156,-24.414,-18.555,0.000
1714023564.133,-27.832,-36.133,-36.621,-33.691,0.000
1714023564.137,-34.668,-39.062,-48.828,-43.945,0.000
1714023564.141,-35.645,-49.316,-39.551,-34.180,0.000
1714023564.145,-29.785,-51.758,-26.855,-25.391,0.000
1714023564.149,-32.227,-44.922,-31.738,-34.180,0.000
1714023564.153,-35.156,-40.527,-45.410,-36.621,0.000
1714023564.157,0.000,-37.598,-46.875,-33.691,0.000
1714023564.161,0.000,-41.504,-37.598,-36.133,0.000
1714023564.165,0.000,-41.992,-32.715,-41.992,0.000
1714023564.169,0.000,-29.785,-34.180,-37.598,0.000
1714023564.173,0.000,-32.715,-42.480,-36.621,0.000
1714023564.177,0.000,-41.992,-45.898,-38.086,0.000
1714023564.181,0.000,-50.293,-39.062,-34.180,0.000
1714023564.184,0.000,-44.434,-33.203,-37.109,0.000
1714023564.188,0.000,-32.715,-26.855,-40.039,0.000
1714023564.192,0.000,-34.668,-18.555,-39.551,0.000
1714023564.196,0.000,-33.691,-24.414,-38.574,0.000
1714023564.200,0.000,-37.598,-35.645,-49.316,0.000
1714023564.204,-31.738,-41.992,-32.227,-41.504,0.000
1714023564.208,-25.391,-34.668,-23.438,-16.113,0.000
1714023564.212,-31.250,-40.039,-23.438,-22.949,0.000
1714023564.216,-30.762,-43.945,-25.391,-32.227,0.000
1714023564.220,-21.973,-38.086,-22.949,-33.691,0.000
1714023564.224,-27.832,-41.992,-25.879,-36.133,0.000
1714023564.227,-29.297,-45.898,-34.180,-37.598,0.000
1714023564.231,-22.461,-35.156,-38.574,-41.992,0.000
1714023564.235,-24.414,-35.156,-38.574,-38.574,0.000
1714023564.239,-26.367,-39.062,-37.598,-31.738,0.000
1714023564.243,-32.227,-39.551,-38.574,-30.273,0.000
1714023564.247,-35.156,-43.945,-43.945,-24.902,0.000
1714023564.251,-32.715,-39.062,-37.109,-29.785,0.000
1714023564.255,-36.621,-42.480,-37.598,-42.480,0.000
1714023564.259,-40.527,-43.945,-40.527,-38.086,0.000
1714023564.263,-37.598,-42.969,-31.250,-38.086,0.000
1714023564.266,-31.250,-49.805,-38.086,-42.969,0.000
1714023564.270,-33.203,-45.410,-44.434,-40.527,0.000
1714023564.274,-39.551,-43.945,-39.551,-41.992,0.000
1714023564.278,-32.715,-49.316,-33.691,-36.133,0.000
1714023564.282,-22.949,-41.504,-28.809,-26.855,0.000
1714023564.286,-28.809,-40.039,-39.062,-48.828,0.000
1714023564.290,-26.855,-37.109,-38.086,-51.758,0.000
1714023564.294,-27.344,-41.992,-38.574,-38.086,0.000
1714023564.298,-42.969,-51.758,-41.992,-47.363,0.000
1714023564.302,-42.480,-42.969,-31.250,-48.340,0.000
1714023564.305,-35.156,-41.016,-35.156,-43.457,0.000
1714023564.309,-32.715,-45.898,-44.922,-41.504,0.000
1714023564.313,-25.879,-41.016,-32.715,-29.785,0.000
1714023564.317,-22.949,-41.992,-30.273,-27.344,0.000
1714023564.321,-22.949,-44.922,-48.340,-34.180,0.000
1714023564.325,-19.043,-42.969,-41.504,-31.738,0.000
1714023564.329,-16.602,-31.250,-27.344,-17.090,0.000
1714023564.333,-17.578,-26.367,-25.879,-23.438,0.000
1714023564.337,-20.020,-32.227,-32.715,-34.180,0.000
1714023564.341,-15.137,-31.250,-24.414,-20.996,0.000
1714023564.344,-12.207,-39.062,-21.973,-19.043,0.000
1714023564.348,-18.066,-41.504,-49.805,-27.344,0.000
1714023564.352,-29.785,-39.062,-55.176,-35.645,0.000
1714023564.356,-34.180,-44.434,-45.410,-39.551,0.000
1714023564.360,-26.367,-39.062,-37.598,-37.598,0.000
1714023564.364,-20.508,-33.691,-29.785,-33.691,0.000
1714023564.368,-20.020,-41.016,-22.461,-23.926,0.000
1714023564.372,-11.230,-40.527,-10.742,-17.090,0.000
1714023564.376,-11.230,-23.926,-17.578,-19.531,0.000
1714023564.380,-20.508,-26.367,-35.156,-32.227,0.000
1714023564.384,-12.207,-21.973,-20.508,-32.715,0.000
1714023564.387,-24.414,-26.367,-15.137,-34.180,0.000
1714023564.391,-44.922,-41.992,-32.715,-42.480,0.000
1714023564.395,-33.691,-40.039,-36.133,-36.621,0.000
1714023564.399,-42.480,-49.805,-32.715,-46.387,0.000
1714023564.403,-73.730,-49.316,-20.508,-71.777,0.000
1714023564.407,-82.031,-34.180,3.418,-76.660,0.000
1714023564.411,-96.191,-41.016,-5.371,-92.773,0.000
1714023564.415,-114.746,-46.875,-21.484,-111.816,0.000
1714023564.419,-130.371,-48.340,-19.043,-130.371,0.000
1714023564.423,-150.879,-49.316,-10.742,-147.949,0.000
1714023564.426,-158.691,-46.875,5.371,-152.832,0.000
1714023564.430,-171.875,-39.062,15.625,-172.852,0.000
1714023564.434,-193.848,-39.062,15.625,-195.801,0.000
1714023564.438,-193.359,-45.410,16.602,-192.383,0.000
1714023564.442,-184.570,-44.434,25.391,-180.664,0.000
1714023564.446,-178.711,-51.270,31.250,-175.293,0.000
1714023564.450,-173.340,-51.270,33.203,-168.457,0.000
1714023564.454,-173.828,-54.688,27.832,-164.062,0.000
1714023564.458,-161.133,-62.988,19.043,-149.414,0.000
1714023564.462,-146.484,-60.547,25.879,-130.859,0.000
1714023564.466,-144.043,-68.359,41.992,-130.859,0.000
1714023564.469,-130.859,-61.523,30.273,-119.629,0.000
1714023564.473,-105.957,-51.270,32.227,-93.750,0.000
1714023564.477,-97.168,-57.129,50.293,-91.309,0.000
1714023564.481,-89.355,-61.523,45.410,-82.031,0.000
1714023564.485,-65.430,-73.242,27.832,-58.594,0.000
1714023564.489,-57.129,-71.289,20.020,-48.340,0.000
1714023564.493,-51.758,-58.105,11.719,-33.203,0.000
1714023564.497,-34.668,-65.918,3.418,-17.090,0.000
1714023564.501,-22.949,-72.754,-7.324,-10.254,0.000
1714023564.505,-19.531,-72.266,-20.508,-1.953,0.000
1714023564.509,-24.414,-68.848,-21.973,-2.930,0.000
1714023564.512,-16.602,-64.941,-26.367,-3.906,0.000
1714023564.516,-3.906,-70.312,-41.992,4.883,0.000
1714023564.520,-6.836,-67.871,-46.875,5.859,0.000
1714023564.524,-5.371,-53.223,-34.668,8.301,0.000
1714023564.528,0.977,-53.223,-35.156,15.137,0.000
1714023564.532,15.137,-50.781,-43.457,21.973,0.000
1714023564.536,22.461,-45.410,-48.828,19.531,0.000
1714023564.540,12.207,-44.434,-47.852,13.672,0.000
1714023564.544,10.254,-48.340,-47.363,14.648,0.000
1714023564.548,19.531,-47.363,-54.199,20.020,0.000
1714023564.552,20.996,-40.039,-61.523,25.879,0.000
1714023564.555,20.996,-38.574,-59.570,28.320,0.000
1714023564.559,26.367,-37.598,-56.152,31.738,0.000
1714023564.563,28.809,-44.922,-68.848,32.715,0.000
1714023564.567,27.832,-52.246,-68.848,24.902,0.000
1714023564.571,24.414,-37.109,-49.805,25.879,0.000
1714023564.575,21.484,-29.297,-54.688,25.391,0.000
1714023564.579,26.367,-34.668,-64.941,18.066,0.000
1714023564.583,27.344,-40.527,-56.152,14.160,0.000
1714023564.587,21.484,-43.945,-59.570,7.812,0.000
1714023564.591,18.066,-38.086,-70.801,11.719,0.000
1714023564.595,17.578,-34.668,-64.453,7.812,0.000
1714023564.598,17.090,-43.457,-59.082,10.254,0.000
1714023564.602,19.043,-41.016,-60.547,15.137,0.000
1714023564.606,23.438,-28.809,-63.965,20.020,0.000
1714023564.610,17.090,-27.344,-61.035,25.391,0.000
1714023564.614,12.695,-23.438,-58.105,9.277,0.000
1714023564.618,15.625,-32.227,-68.359,-1.953,0.000
1714023564.622,11.230,-30.762,-63.965,0.000,0.000
1714023564.626,13.672,-23.926,-55.176,10.742,0.000
1714023564.630,17.578,-26.855,-57.129,6.348,0.000
1714023564.634,11.230,-32.227,-57.129,-6.348,0.000
1714023564.637,8.789,-33.691,-49.316,-5.859,0.000
1714023564.641,3.418,-29.297,-51.270,-0.977,0.000
1714023564.645,4.883,-32.715,-53.223,5.371,0.000
1714023564.649,10.254,-36.133,-50.781,-0.488,0.000
1714023564.653,6.348,-33.691,-54.688,0.000,0.000
1714023564.657,2.930,-28.809,-45.410,3.418,0.000
1714023564.661,3.418,-27.344,-37.109,-2.930,0.000
1714023564.665,9.766,-25.879,-44.922,-0.977,0.000
1714023564.669,16.113,-34.668,-44.434,-0.488,0.000
1714023564.673,7.324,-56.152,-41.016,-3.418,0.000
1714023564.676,0.977,-52.734,-44.922,1.953,0.000
1714023564.680,-5.859,-41.016,-46.875,-2.441,0.000
1714023564.684,-8.301,-46.875,-46.387,-10.742,0.000
1714023564.688,-7.812,-43.457,-50.781,-6.836,0.000
1714023564.692,-12.207,-39.551,-47.363,-8.789,0.000
1714023564.696,-12.695,-43.457,-42.480,-2.930,0.000
1714023564.700,-12.695,-42.969,-31.738,-0.488,0.000
1714023564.704,-16.602,-38.086,-25.391,-14.160,0.000
1714023564.708,-19.531,-36.621,-40.039,-20.020,0.000
1714023564.712,-18.555,-29.785,-41.992,-16.602,0.000
1714023564.716,-16.602,-34.180,-40.527,-20.996,0.000
1714023564.719,-17.090,-37.598,-40.527,-29.297,0.000
1714023564.723,-18.555,-45.410,-33.691,-19.043,0.000
1714023564.727,-20.508,-48.340,-43.945,-21.973,0.000
1714023564.731,-20.020,-38.574,-47.363,-32.227,0.000
1714023564.735,-16.113,-33.691,-32.715,-28.320,0.000
1714023564.739,-20.508,-34.668,-37.598,-31.738,0.000
1714023564.743,-27.344,-39.062,-44.434,-29.297,0.000
1714023564.747,-25.879,-38.574,-41.504,-25.879,0.000
1714023564.751,-19.043,-40.527,-37.598,-26.855,0.000
1714023564.755,-15.625,-33.203,-41.992,-21.973,0.000
1714023564.758,-18.555,-31.250,-45.410,-20.508,0.000
1714023564.762,-16.113,-32.715,-29.297,-25.879,0.000
1714023564.766,-13.672,-40.527,-26.367,-32.227,0.000
1714023564.770,-12.207,-48.828,-41.016,-34.180,0.000
1714023564.774,-0.977,-40.039,-43.457,-25.391,0.000
1714023564.778,2.441,-33.691,-35.645,-23.926,0.000
1714023564.782,1.953,-28.809,-36.133,-32.715,0.000
1714023564.786,2.930,-28.809,-37.109,-37.598,0.000
1714023564.790,-8.789,-31.738,-40.527,-29.785,0.000
1714023564.794,-17.578,-31.738,-38.574,-27.344,0.000
1714023564.797,-22.949,-31.250,-42.480,-30.273,0.000
1714023564.801,-32.227,-41.016,-43.457,-29.297,0.000
1714023564.805,-34.668,-43.945,-29.297,-21.973,0.000
1714023564.809,-34.180,-41.016,-33.203,-20.508,0.000
1714023564.813,-30.762,-39.062,-39.551,-20.508,0.000
1714023564.817,-28.320,-34.668,-35.645,-24.902,0.000
1714023564.821,-32.715,-39.551,-37.598,-26.855,0.000
1714023564.825,-38.574,-44.434,-42.969,-26.367,0.000
1714023564.829,-41.016,-46.387,-43.457,-30.762,0.000
1714023564.833,-41.992,-43.945,-44.922,-33.691,0.000
1714023564.837,-39.551,-42.969,-45.410,-33.691,0.000
1714023564.840,-37.598,-46.387,-29.297,-28.809,0.000
1714023564.844,-37.109,-47.363,-23.926,-26.855,0.000
1714023564.848,-37.598,-46.875,-30.762,-25.391,0.000
1714023564.852,-42.480,-44.922,-28.320,-32.715,0.000
1714023564.856,-36.133,-49.316,-33.203,-31.738,0.000
1714023564.860,-30.762,-51.270,-40.527,-21.973,0.000
1714023564.864,-32.227,-49.316,-41.016,-30.273,0.000
1714023564.868,-30.273,-44.922,-37.109,-40.039,0.000
1714023564.872,-29.785,-40.039,-36.621,-27.832,0.000
1714023564.876,-25.391,-37.109,-38.086,-19.043,0.000
1714023564.880,-22.949,-39.551,-26.855,-22.949,0.000
1714023564.883,-19.531,-39.551,-23.926,-24.902,0.000
1714023564.887,-9.277,-28.320,-37.109,-29.785,0.000
1714023564.891,-9.277,-28.320,-43.457,-18.555,0.000
1714023564.895,-18.555,-38.086,-28.320,-17.090,0.000
1714023564.899,-24.902,-41.016,-18.555,-35.645,0.000
1714023564.903,-28.320,-42.480,-29.297,-41.992,0.000
1714023564.907,-34.668,-45.898,-35.645,-37.598,0.000
1714023564.911,-38.086,-43.457,-25.879,-26.855,0.000
1714023564.915,-32.227,-36.133,-19.531,-28.320,0.000
1714023564.919,-23.438,-38.086,-32.227,-38.574,0.000
1714023564.923,-22.949,-40.039,-41.504,-34.180,0.000
1714023564.926,-25.391,-42.480,-40.039,-27.344,0.000
1714023564.930,-22.461,-40.039,-32.715,-33.691,0.000
1714023564.934,-19.043,-35.645,-29.785,-37.109,0.000
1714023564.938,-24.902,-47.363,-41.992,-33.691,0.000
1714023564.942,-33.691,-49.316,-50.293,-34.668,0.000
1714023564.946,-32.227,-39.062,-45.410,-32.715,0.000
1714023564.950,-27.344,-38.086,-40.039,-31.738,0.000
1714023564.954,-22.949,-30.762,-32.227,-31.250,0.000
1714023564.958,-20.020,-27.832,-30.762,-27.832,0.000
1714023564.962,-20.508,-35.645,-23.926,-26.367,0.000
1714023564.966,-23.438,-42.969,-17.090,-30.762,0.000
1714023564.969,-26.855,-41.992,-19.043,-36.621,0.000
1714023564.973,-29.297,-34.668,-27.344,-33.691,0.000
1714023564.977,-29.785,-35.645,-33.203,-24.902,0.000
1714023564.981,-25.879,-39.062,-27.344,-18.555,0.000
1714023564.985,-30.762,-44.922,-34.180,-26.367,0.000
1714023564.989,-39.551,-45.898,-33.203,-34.180,0.000
1714023564.993,-35.645,-36.621,-23.438,-26.367,0.000
1714023564.997,-30.273,-32.715,-21.484,-25.391,0.000
1714023565.001,-29.297,-38.574,-19.531,-30.273,0.000
1714023565.005,-29.297,-39.062,-25.879,-33.691,0.000
1714023565.008,-26.367,-41.992,-29.785,-35.645,0.000
1714023565.012,-26.855,-47.852,-33.203,-30.762,0.000
1714023565.016,-33.203,-44.922,-37.598,-37.598,0.000
1714023565.020,-34.668,-49.316,-42.480,-41.016,0.000
1714023565.024,-31.250,-54.199,-42.480,-37.109,0.000
1714023565.028,-22.949,-47.363,-41.016,-30.273,0.000
1714023565.032,-22.949,-41.992,-35.645,-31.738,0.000
1714023565.036,-35.156,-49.805,-35.645,-40.527,0.000
1714023565.040,-33.203,-51.270,-39.062,-40.039,0.000
1714023565.044,-24.414,-41.992,-28.320,-34.668,0.000
1714023565.047,-25.879,-39.551,-36.621,-31.738,0.000
1714023565.051,-24.902,-42.480,-49.805,-43.457,0.000
1714023565.055,-23.926,-41.992,-46.875,-41.016,0.000
1714023565.059,-28.809,-41.504,-41.992,-30.762,0.000
1714023565.063,-30.273,-41.992,-39.551,-33.691,0.000
1714023565.067,-33.203,-45.410,-32.227,-34.668,0.000
1714023565.071,-34.180,-46.875,-35.645,-24.902,0.000
1714023565.075,-38.574,-45.410,-48.340,-27.832,0.000
1714023565.079,-41.992,-48.340,-33.203,-35.156,0.000
1714023565.083,-31.738,-41.016,-24.902,-31.250,0.000
1714023565.087,-28.320,-32.227,-36.621,-28.320,0.000
1714023565.090,-30.273,-39.551,-41.016,-25.879,0.000
1714023565.094,-27.344,-40.527,-32.227,-27.344,0.000
1714023565.098,-25.391,-35.645,-26.855,-32.715,0.000
1714023565.102,-25.391,-37.109,-30.762,-31.250,0.000
1714023565.106,-28.809,-41.016,-30.762,-27.344,0.000
1714023565.110,-26.855,-43.457,-24.902,-23.438,0.000
1714023565.114,-20.020,-41.016,-16.113,-17.090,0.000
1714023565.118,-25.879,-45.410,-22.461,-22.949,0.000
1714023565.122,-32.227,-41.504,-26.855,-33.203,0.000
1714023565.126,-28.809,-31.738,-24.414,-26.855,0.000
1714023565.129,-22.461,-34.668,-29.785,-20.996,0.000
1714023565.133,-25.391,-40.039,-36.621,-24.414,0.000
1714023565.137,-29.297,-40.527,-27.344,-20.508,0.000
1714023565.141,-28.320,-38.574,-21.973,-25.391,0.000
1714023565.145,-20.996,-30.273,-23.438,-27.832,0.000
1714023565.149,-17.090,-41.016,-17.090,-24.902,0.000
1714023565.153,-27.832,-61.035,-19.531,-31.250,0.000
1714023565.157,-30.762,-49.805,-32.715,-34.180,0.000
1714023565.161,-22.949,-33.691,-41.992,-25.391,0.000
1714023565.165,-23.438,-33.691,-37.109,-20.508,0.000
1714023565.168,-26.367,-32.715,-36.621,-32.715,0.000
1714023565.172,-13.184,-37.598,-41.016,-33.203,0.000
1714023565.176,1.953,-38.574,-36.621,-9.277,0.000
1714023565.180,-11.719,-35.156,-25.391,-13.672,0.000
1714023565.184,-33.691,-38.086,-14.160,-34.180,0.000
1714023565.188,-38.086,-43.457,-17.090,-29.297,0.000
1714023565.192,-35.645,-46.875,-23.438,-23.438,0.000
1714023565.196,-40.039,-44.922,-28.809,-31.738,0.000
1714023565.200,-42.969,-44.922,-21.973,-46.387,0.000
1714023565.204,-47.363,-49.316,-21.973,-46.387,0.000
1714023565.208,-41.992,-53.711,-24.902,-31.738,0.000
1714023565.211,-28.320,-54.688,-17.578,-26.367,0.000
1714023565.215,-22.949,-50.781,-16.602,-24.414,0.000
1714023565.219,-20.996,-44.434,-25.391,-30.273,0.000
1714023565.223,-22.461,-44.434,-27.832,-33.691,0.000
1714023565.227,-33.203,-49.316,-25.391,-34.180,0.000
1714023565.231,-33.203,-53.223,-32.715,-39.551,0.000
1714023565.235,-32.715,-55.176,-42.480,-40.039,0.000
1714023565.239,-33.203,-53.223,-37.598,-37.109,0.000
1714023565.243,-22.949,-41.504,-27.344,-25.879,0.000
1714023565.247,-22.461,-36.133,-30.762,-20.508,0.000
1714023565.251,-25.391,-41.504,-30.762,-23.438,0.000
1714023565.254,-16.113,-38.086,-20.020,-16.113,0.000
1714023565.258,-13.672,-30.273,-15.137,-11.230,0.000
1714023565.262,-18.555,-34.180,-20.508,-17.578,0.000
1714023565.266,-17.090,-39.062,-26.367,-15.625,0.000
1714023565.270,-20.020,-40.039,-26.855,-16.602,0.000
1714023565.274,-17.578,-36.621,-25.391,-21.484,0.000
1714023565.278,-14.160,-34.180,-22.949,-13.184,0.000
1714023565.282,-16.602,-39.551,-20.508,-20.020,0.000
1714023565.286,-21.484,-43.457,-19.531,-29.297,0.000
1714023565.290,-21.484,-41.016,-19.043,-20.996,0.000
1714023565.294,-18.066,-40.039,-17.090,-17.090,0.000
1714023565.297,-18.555,-46.387,-19.043,-24.414,0.000
1714023565.301,-20.020,-45.410,-29.297,-29.785,0.000
1714023565.305,-20.508,-42.969,-29.785,-25.879,0.000
1714023565.309,-18.555,-47.363,-29.297,-19.043,0.000
1714023565.313,-16.113,-54.688,-25.879,-20.508,0.000
1714023565.317,-17.090,-50.781,-23.926,-28.320,0.000
1714023565.321,-21.484,-44.922,-30.762,-30.273,0.000
1714023565.325,-31.250,-41.504,-25.391,-23.926,0.000
1714023565.329,-30.273,-41.992,-19.531,-19.043,0.000
1714023565.333,-21.484,-43.945,-24.414,-18.555,0.000
1714023565.337,-25.391,-40.039,-38.086,-33.203,0.000
1714023565.340,-31.250,-40.039,-39.551,-33.203,0.000
1714023565.344,-26.367,-43.945,-30.273,-22.949,0.000
1714023565.348,-21.973,-42.969,-24.414,-28.320,0.000
1714023565.352,-15.625,-34.180,-23.438,-32.715,0.000
1714023565.356,-10.742,-36.621,-24.414,-23.438,0.000
1714023565.360,-22.461,-41.504,-27.344,-19.531,0.000
1714023565.364,-20.996,-38.574,-24.902,-24.902,0.000
1714023565.368,-12.207,-44.434,-24.902,-27.832,0.000
1714023565.372,-13.184,-44.434,-33.691,-26.855,0.000
1714023565.376,-12.207,-41.016,-40.039,-30.762,0.000
1714023565.379,-4.883,-37.109,-27.832,-36.133,0.000
1714023565.383,-1.465,-27.832,-20.508,-32.227,0.000
1714023565.387,-9.277,-26.367,-34.180,-36.133,0.000
1714023565.391,-17.090,-40.039,-45.410,-41.504,0.000
1714023565.395,-19.043,-48.340,-53.711,-36.133,0.000
1714023565.399,-20.020,-38.574,-41.992,-37.109,0.000
1714023565.403,-30.762,-42.969,-33.691,-36.621,0.000
1714023565.407,-34.180,-47.852,-38.574,-31.250,0.000
1714023565.411,-23.438,-40.527,-23.438,-23.438,0.000
1714023565.415,-15.137,-32.227,-17.578,-24.414,0.000
1714023565.419,-17.090,-32.227,-35.156,-34.668,0.000
1714023565.422,-19.531,-41.016,-36.621,-32.715,0.000
1714023565.426,-20.508,-41.992,-37.109,-27.832,0.000
1714023565.430,-24.414,-39.551,-44.922,-33.203,0.000
1714023565.434,-27.832,-42.480,-44.434,-41.016,0.000
1714023565.438,-31.250,-45.410,-36.133,-33.203,0.000
1714023565.442,-34.180,-41.504,-28.809,-26.367,0.000
1714023565.446,-27.344,-42.480,-31.738,-18.555,0.000
1714023565.450,-21.484,-38.574,-37.598,-26.855,0.000
1714023565.454,-24.414,-30.273,-35.645,-38.574,0.000
1714023565.458,-24.414,-31.250,-32.715,-28.809,0.000
1714023565.461,-28.809,-33.203,-37.598,-27.344,0.000
1714023565.465,-29.785,-34.668,-29.785,-28.320,0.000
1714023565.469,-27.344,-39.062,-29.785,-35.156,0.000
1714023565.473,-33.691,-48.340,-43.945,-32.715,0.000
1714023565.477,-26.367,-44.922,-33.691,-16.602,0.000
1714023565.481,-20.020,-35.156,-20.508,-20.020,0.000
1714023565.485,-31.738,-41.992,-25.391,-32.715,0.000
1714023565.489,-34.180,-51.758,-35.156,-28.320,0.000
1714023565.493,-14.160,-49.805,-39.062,-5.371,0.000
1714023565.497,-11.719,-48.340,-38.574,-19.531,0.000
1714023565.500,-29.297,-49.805,-46.875,-57.129,0.000
1714023565.504,-36.133,-47.363,-46.875,-51.270,0.000
1714023565.508,-30.273,-41.992,-41.016,-39.551,0.000
1714023565.512,-24.414,-38.574,-41.504,-38.574,0.000
1714023565.516,-28.809,-35.645,-37.109,-45.410,0.000
1714023565.520,-35.156,-33.203,-45.410,-56.641,0.000
1714023565.524,-35.156,-34.668,-57.129,-57.617,0.000
1714023565.528,-32.715,-44.434,-56.641,-45.898,0.000
1714023565.532,-29.297,-39.551,-53.223,-39.551,0.000
1714023565.536,-22.461,-24.414,-52.246,-37.109,0.000
1714023565.539,-21.484,-26.855,-48.828,-35.645,0.000
1714023565.543,-23.438,-26.855,-44.434,-41.016,0.000
1714023565.547,-19.043,-25.391,-41.016,-41.016,0.000
1714023565.551,-25.879,-28.809,-41.504,-49.805,0.000
1714023565.555,-33.691,-28.320,-40.527,-47.852,0.000
1714023565.559,-28.320,-35.156,-41.016,-45.410,0.000
1714023565.563,-20.996,-37.598,-46.387,-47.852,0.000
1714023565.567,-20.020,-32.227,-37.598,-43.457,0.000
1714023565.571,-26.367,-31.250,-37.109,-42.969,0.000
1714023565.575,-23.926,-32.715,-36.133,-34.668,0.000
1714023565.579,-16.113,-25.391,-31.738,-26.367,0.000
1714023565.582,-20.996,-23.926,-43.457,-35.156,0.000
1714023565.586,-25.391,-34.180,-45.410,-38.086,0.000
1714023565.590,-21.973,-34.180,-36.133,-26.855,0.000
1714023565.594,-26.855,-40.527,-36.133,-29.785,0.000
1714023565.598,-28.320,-44.922,-43.945,-36.621,0.000
1714023565.602,-26.855,-42.969,-42.480,-41.504,0.000
1714023565.606,-27.832,-42.969,-46.387,-49.316,0.000
1714023565.610,-27.832,-40.039,-42.969,-45.410,0.000
1714023565.614,-29.785,-32.715,-36.621,-43.945,0.000
1714023565.618,-26.367,-29.297,-40.039,-47.852,0.000
1714023565.622,-23.926,-39.062,-38.086,-39.551,0.000
1714023565.626,-25.879,-46.387,-38.574,-31.250,0.000
1714023565.629,-29.297,-39.551,-42.480,-40.039,0.000
1714023565.633,-31.250,-36.621,-37.109,-42.969,0.000
1714023565.637,-31.738,-42.480,-30.273,-39.062,0.000
1714023565.641,-33.691,-41.504,-32.227,-32.715,0.000
1714023565.645,-36.621,-38.574,-29.297,-30.762,0.000
1714023565.649,-44.922,-39.551,-27.344,-47.363,0.000
1714023565.653,-49.316,-40.527,-31.250,-56.641,0.000
1714023565.657,-50.781,-35.645,-28.320,-54.688,0.000
1714023565.661,-55.664,-35.156,-29.297,-54.688,0.000
1714023565.665,-59.082,-38.574,-29.297,-56.152,0.000
1714023565.668,-59.570,-41.016,-27.832,-56.152,0.000
1714023565.672,-68.359,-44.922,-25.391,-68.359,0.000
1714023565.676,-72.754,-44.922,-22.461,-80.078,0.000
1714023565.680,-80.078,-53.711,-19.043,-88.867,0.000
1714023565.684,-86.914,-59.570,-20.020,-94.238,0.000
1714023565.688,-77.148,-50.781,-24.902,-79.102,0.000
1714023565.692,-84.473,-47.363,-17.090,-90.820,0.000
1714023565.696,-93.262,-47.852,-11.230,-101.074,0.000
1714023565.700,-85.449,-38.574,-17.090,-88.867,0.000
1714023565.704,-77.148,-41.504,-17.578,-82.031,0.000
1714023565.708,-72.754,-51.270,-18.066,-71.777,0.000
1714023565.711,-68.848,-44.922,-27.832,-72.266,0.000
1714023565.715,-55.176,-42.969,-30.762,-71.289,0.000
1714023565.719,-50.781,-48.340,-31.250,-66.895,0.000
1714023565.723,-50.293,-44.922,-34.180,-62.012,0.000
1714023565.727,-47.852,-31.250,-33.203,-55.176,0.000
1714023565.731,-45.410,-27.344,-41.504,-51.270,0.000
1714023565.735,-40.527,-30.273,-47.363,-49.316,0.000
1714023565.739,-30.273,-34.180,-41.504,-47.852,0.000
1714023565.743,-27.344,-41.992,-38.086,-43.945,0.000
1714023565.747,-29.785,-40.039,-41.992,-44.922,0.000
1714023565.751,-21.484,-33.203,-43.457,-43.457,0.000
1714023565.754,-9.277,-36.133,-33.691,-30.273,0.000
1714023565.758,-9.277,-45.410,-36.133,-25.391,0.000
1714023565.762,-22.949,-47.363,-42.480,-37.109,0.000
1714023565.766,-22.949,-45.898,-52.246,-43.457,0.000
1714023565.770,-20.020,-44.434,-59.082,-40.039,0.000
1714023565.774,-14.648,-43.945,-43.945,-32.227,0.000
1714023565.778,-5.371,-40.527,-35.156,-18.066,0.000
1714023565.782,-16.113,-41.504,-31.250,-28.320,0.000
1714023565.786,-20.020,-37.598,-26.855,-32.715,0.000
1714023565.790,-17.578,-35.156,-33.203,-21.484,0.000
1714023565.793,-33.203,-41.992,-41.504,-31.738,0.000
1714023565.797,-49.316,-41.016,-35.645,-55.664,0.000
1714023565.801,-60.059,-46.387,-34.668,-79.102,0.000
1714023565.805,-71.777,-47.363,-37.109,-92.285,0.000
1714023565.809,-84.473,-40.527,-27.832,-94.238,0.000
1714023565.813,-92.285,-35.156,-26.367,-103.516,0.000
1714023565.817,-99.609,-33.203,-24.414,-117.676,0.000
1714023565.821,-112.305,-38.086,-21.484,-125.488,0.000
1714023565.825,-112.305,-45.410,-25.391,-122.559,0.000
1714023565.829,-103.516,-40.527,-16.602,-115.723,0.000
1714023565.833,-112.793,-31.738,-12.695,-125.000,0.000
1714023565.836,-118.652,-34.668,-8.301,-132.812,0.000
1714023565.840,-113.770,-41.992,-11.230,-117.188,0.000
1714023565.844,-102.051,-44.434,-15.137,-107.422,0.000
1714023565.848,-94.727,-43.457,-12.695,-106.445,0.000
1714023565.852,-83.496,-44.434,-12.207,-92.773,0.000
1714023565.856,-74.707,-41.016,-20.020,-81.055,0.000
1714023565.860,-66.406,-40.039,-31.738,-68.848,0.000
1714023565.864,-45.898,-48.340,-27.832,-57.129,0.000
1714023565.868,-38.574,-60.547,-37.598,-53.223,0.000
1714023565.872,-36.133,-52.246,-35.645,-42.969,0.000
1714023565.875,-21.484,-42.969,-22.461,-29.297,0.000
1714023565.879,-21.973,-54.199,-27.344,-30.762,0.000
1714023565.883,-25.391,-61.035,-38.086,-32.227,0.000
1714023565.887,-19.043,-55.176,-50.781,-30.762,0.000
1714023565.891,-18.555,-46.387,-55.664,-31.738,0.000
1714023565.895,-10.254,-42.969,-64.941,-23.438,0.000
1714023565.899,1.465,-46.387,-62.500,-16.602,0.000
1714023565.903,2.441,-53.711,-43.457,-12.695,0.000
1714023565.907,5.859,-54.199,-43.457,-2.441,0.000
1714023565.910,9.766,-51.270,-55.176,3.418,0.000
1714023565.914,12.207,-57.617,-47.363,2.930,0.000
1714023565.918,17.090,-51.758,-39.551,0.977,0.000
1714023565.922,14.160,-35.645,-50.293,0.488,0.000
1714023565.926,21.484,-33.691,-50.781,14.648,0.000
1714023565.930,28.809,-32.715,-43.945,19.531,0.000
1714023565.934,23.926,-29.297,-49.805,8.301,0.000
1714023565.938,14.648,-33.691,-55.664,10.742,0.000
1714023565.942,12.207,-41.992,-56.152,13.672,0.000
1714023565.946,12.207,-41.504,-55.664,9.277,0.000
1714023565.950,13.184,-39.551,-45.410,8.789,0.000
1714023565.954,17.578,-45.410,-39.062,14.160,0.000
1714023565.957,13.672,-54.199,-41.992,19.531,0.000
1714023565.961,7.324,-56.152,-43.945,11.230,0.000
1714023565.965,12.207,-45.410,-43.457,6.836,0.000
1714023565.969,15.625,-32.715,-48.340,5.859,0.000
1714023565.973,12.695,-35.156,-52.246,-3.906,0.000
1714023565.977,21.973,-36.621,-47.363,-1.953,0.000
1714023565.981,33.691,-38.574,-40.039,3.906,0.000
1714023565.985,36.133,-44.434,-40.527,4.883,0.000
1714023565.989,32.715,-32.227,-32.715,11.230,0.000
1714023565.993,20.020,-28.809,-32.715,7.324,0.000
1714023565.997,13.672,-41.504,-45.898,4.883,0.000
1714023566.000,11.719,-39.551,-50.293,1.465,0.000
1714023566.004,1.953,-40.527,-56.641,-6.836,0.000
1714023566.008,-3.906,-43.457,-47.363,3.418,0.000
1714023566.012,-5.859,-42.480,-33.203,10.254,0.000
1714023566.016,-1.465,-50.293,-33.691,9.277,0.000
1714023566.020,1.465,-49.805,-29.297,12.207,0.000
1714023566.024,-8.301,-41.016,-22.949,7.324,0.000
1714023566.028,-10.254,-42.969,-28.320,-1.465,0.000
1714023566.032,-7.812,-43.457,-35.645,-10.254,0.000
1714023566.036,-10.742,-39.551,-41.992,-3.906,0.000
1714023566.040,-12.207,-33.691,-41.016,4.883,0.000
1714023566.043,-9.766,-35.645,-38.086,1.953,0.000
1714023566.047,-4.395,-33.691,-34.180,1.953,0.000
1714023566.051,-0.977,-31.738,-34.180,4.883,0.000
1714023566.055,-3.906,-38.574,-34.668,-0.488,0.000
1714023566.059,-8.301,-40.039,-33.691,-10.254,0.000
1714023566.063,-5.859,-40.527,-37.598,-15.137,0.000
1714023566.067,-0.488,-45.898,-36.133,-19.043,0.000
1714023566.071,-4.395,-62.012,-31.250,-17.578,0.000
1714023566.075,-6.348,-51.758,-41.504,-9.766,0.000
1714023566.079,-2.441,-42.480,-47.363,-1.465,0.000
1714023566.082,-4.395,-43.945,-37.598,-8.301,0.000
1714023566.086,-12.207,-24.414,-36.133,-19.043,0.000
1714023566.090,-17.090,-35.645,-41.016,-10.742,0.000
1714023566.094,-14.160,-83.984,-44.434,-15.625,0.000
1714023566.098,-6.836,-96.680,-62.012,-27.832,0.000
1714023566.102,-11.230,-37.598,-51.270,-24.902,0.000
1714023566.106,-15.625,-34.180,-38.086,-12.207,0.000
1714023566.110,-16.113,-67.383,-57.617,-2.930,0.000
1714023566.114,-21.973,-45.410,-40.527,-15.625,0.000
1714023566.118,-20.508,-18.555,-10.742,-19.531,0.000
1714023566.122,-28.809,5.859,-12.207,-21.973,0.000
1714023566.125,-37.598,-1.465,-13.672,-26.855,0.000
1714023566.129,-32.715,-17.090,-15.625,-27.832,0.000
1714023566.133,-26.855,-24.902,-20.020,-27.832,0.000
1714023566.137,-31.250,-36.621,-25.391,-38.086,0.000
1714023566.141,-37.109,-48.340,-33.203,-40.039,0.000
1714023566.145,-20.508,-45.410,-36.621,-20.020,0.000
1714023566.149,-21.484,-40.039,-42.480,-29.785,0.000
1714023566.153,-41.992,-42.969,-46.875,-50.293,0.000
1714023566.157,-43.945,-50.293,-37.109,-45.410,0.000
1714023566.161,-33.691,-50.293,-30.273,-30.762,0.000
1714023566.165,-36.133,-47.852,-35.156,-35.645,0.000
1714023566.168,-46.387,-45.898,-37.598,-56.152,0.000
1714023566.172,-39.551,-40.527,-37.109,-45.410,0.000
1714023566.176,-39.551,-38.086,-45.898,-41.016,0.000
1714023566.180,-41.016,-37.598,-52.246,-48.340,0.000
1714023566.184,-36.621,-34.180,-45.410,-49.316,0.000
1714023566.188,-40.039,-35.156,-40.527,-53.711,0.000
1714023566.192,-43.457,-45.898,-40.039,-48.340,0.000
1714023566.196,-46.387,-53.711,-39.062,-46.875,0.000
1714023566.200,-43.457,-43.457,-41.016,-50.293,0.000
1714023566.204,-38.086,-29.785,-32.715,-52.246,0.000
1714023566.207,-33.691,-28.809,-33.203,-47.363,0.000
1714023566.211,-26.855,-29.785,-37.598,-43.945,0.000
1714023566.215,-22.461,-34.180,-29.785,-40.039,0.000
1714023566.219,-28.809,-39.551,-34.180,-42.969,0.000
1714023566.223,-31.250,-36.133,-38.574,-41.992,0.000
1714023566.227,-27.344,-30.762,-38.086,-37.109,0.000
1714023566.231,-31.250,-34.668,-35.156,-43.945,0.000
1714023566.235,-34.668,-31.250,-34.668,-46.875,0.000
1714023566.239,-38.086,-32.715,-49.316,-44.434,0.000
1714023566.243,-40.039,-40.527,-54.199,-33.203,0.000
1714023566.246,-33.203,-31.738,-41.016,-25.879,0.000
1714023566.250,-24.414,-27.832,-33.203,-28.320,0.000
1714023566.254,-23.438,-38.574,-38.574,-29.297,0.000
1714023566.258,-25.391,-41.016,-38.574,-30.273,0.000
1714023566.262,-31.250,-36.621,-32.227,-41.504,0.000
1714023566.266,-29.297,-35.645,-37.598,-44.434,0.000
1714023566.270,-20.996,-34.668,-46.387,-33.691,0.000
1714023566.274,-20.508,-34.180,-46.875,-29.785,0.000
1714023566.278,-22.949,-27.832,-43.457,-25.879,0.000
1714023566.282,-28.320,-33.691,-39.062,-27.344,0.000
1714023566.285,-25.391,-40.527,-38.574,-29.297,0.000
1714023566.289,-25.879,-28.809,-35.645,-21.973,0.000
1714023566.293,-29.785,-29.785,-27.832,-21.484,0.000
1714023566.297,-27.344,-42.480,-30.273,-28.809,0.000
1714023566.301,-32.227,-44.922,-42.969,-37.109,0.000
1714023566.305,-36.621,-41.992,-50.293,-36.621,0.000
1714023566.309,-37.598,-39.062,-40.527,-32.227,0.000
1714023566.313,-36.621,-35.156,-30.762,-33.691,0.000
1714023566.317,-38.086,-31.250,-28.809,-39.062,0.000
1714023566.321,-40.527,-38.086,-22.461,-36.621,0.000
1714023566.325,-41.016,-46.875,-24.414,-27.832,0.000
1714023566.328,-36.621,-43.945,-41.992,-24.902,0.000
1714023566.332,-31.738,-40.039,-52.246,-29.297,0.000
1714023566.336,-32.715,-37.109,-38.086,-36.133,0.000
1714023566.340,-27.832,-34.668,-24.902,-29.297,0.000
1714023566.344,-26.367,-32.227,-23.438,-21.973,0.000
1714023566.348,-26.855,-30.762,-21.973,-18.555,0.000
1714023566.352,-21.973,-28.320,-17.090,-21.973,0.000
1714023566.356,-19.531,-30.762,-23.438,-26.855,0.000
1714023566.360,-15.137,-39.062,-32.715,-22.461,0.000
1714023566.364,-17.578,-43.945,-35.156,-22.949,0.000
1714023566.368,-24.414,-42.969,-28.809,-24.902,0.000
1714023566.371,-27.832,-41.504,-23.438,-23.926,0.000
1714023566.375,-28.320,-42.969,-30.273,-22.461,0.000
1714023566.379,-26.855,-42.969,-27.832,-22.461,0.000
1714023566.383,-22.461,-43.457,-22.949,-23.926,0.000
1714023566.387,-20.508,-42.969,-34.180,-26.367,0.000
1714023566.391,-27.832,-44.922,-42.969,-21.484,0.000
1714023566.395,-29.297,-49.316,-41.016,-16.113,0.000
1714023566.399,-21.973,-37.598,-34.668,-20.020,0.000
1714023566.403,-18.066,-34.668,-41.016,-17.578,0.000
1714023566.407,-26.367,-44.922,-42.480,-20.996,0.000
1714023566.411,-29.297,-39.551,-34.668,-20.996,0.000
1714023566.415,-18.555,-31.250,-26.855,-18.066,0.000
1714023566.419,-24.414,-39.551,-29.785,-20.996,0.000
1714023566.422,-28.320,-49.805,-40.039,-20.020,0.000
1714023566.426,-19.043,-46.875,-41.992,-12.207,0.000
1714023566.430,-17.090,-34.180,-40.039,-15.625,0.000
1714023566.434,-20.508,-30.273,-37.109,-25.391,0.000
1714023566.438,-29.785,-33.203,-37.109,-23.926,0.000
1714023566.442,-19.531,-23.438,-36.133,-13.184,0.000
1714023566.446,-8.301,-20.508,-33.203,-8.789,0.000
1714023566.450,-25.879,-30.273,-29.297,-32.227,0.000
1714023566.454,-35.156,-39.062,-22.949,-45.410,0.000
1714023566.458,-34.180,-43.945,-25.879,-33.691,0.000
1714023566.462,-25.391,-45.898,-30.273,-21.973,0.000
1714023566.465,-23.438,-48.828,-22.461,-17.578,0.000
1714023566.469,-35.156,-50.293,-28.320,-19.043,0.000
1714023566.473,-37.598,-49.805,-33.203,-18.066,0.000
1714023566.477,-38.086,-48.340,-37.598,-19.531,0.000
1714023566.481,-31.738,-49.805,-36.621,-26.367,0.000
1714023566.485,-25.879,-45.410,-31.738,-32.227,0.000
1714023566.489,-29.297,-42.969,-38.086,-37.109,0.000
1714023566.493,-28.809,-50.293,-37.598,-36.621,0.000
1714023566.497,-23.926,-62.500,-39.062,-27.344,0.000
1714023566.501,-22.461,-58.105,-38.574,-32.715,0.000
1714023566.504,-32.227,-43.945,-35.156,-40.527,0.000
1714023566.508,-30.273,-45.898,-36.133,-35.156,0.000
1714023566.512,-22.461,-48.340,-27.832,-26.367,0.000
1714023566.516,-20.020,-42.480,-23.438,-29.297,0.000
1714023566.520,-24.414,-41.504,-32.227,-36.621,0.000
1714023566.524,-27.344,-43.457,-35.156,-26.367,0.000
1714023566.528,-28.809,-45.898,-37.109,-21.973,0.000
1714023566.532,-32.715,-45.898,-27.344,-34.180,0.000
1714023566.536,-30.762,-38.086,-22.949,-34.180,0.000
1714023566.540,-24.902,-39.062,-35.156,-27.832,0.000
1714023566.544,-27.344,-50.781,-29.785,-28.809,0.000
1714023566.547,-30.762,-46.875,-16.113,-26.367,0.000
1714023566.551,-27.832,-42.969,-22.461,-29.785,0.000
1714023566.555,-29.297,-51.758,-36.621,-36.621,0.000
1714023566.559,-33.203,-48.340,-33.691,-30.273,0.000
1714023566.563,-26.855,-38.574,-25.879,-22.461,0.000
1714023566.567,-26.855,-41.504,-26.367,-35.156,0.000
1714023566.571,-27.344,-41.992,-33.203,-36.133,0.000
1714023566.575,-24.902,-41.992,-36.621,-20.996,0.000
1714023566.579,-33.691,-41.016,-35.156,-30.762,0.000
1714023566.583,-37.598,-40.039,-38.086,-37.109,0.000
1714023566.586,-35.645,-40.039,-37.109,-38.086,0.000
1714023566.590,-31.250,-38.574,-28.320,-39.551,0.000
1714023566.594,-26.367,-36.621,-22.949,-27.344,0.000
1714023566.598,-25.879,-37.109,-21.484,-27.344,0.000
1714023566.602,-19.043,-39.062,-25.879,-31.738,0.000
1714023566.606,-16.113,-29.785,-30.762,-29.297,0.000
1714023566.610,-15.625,-29.785,-32.715,-26.367,0.000
1714023566.614,-8.789,-37.598,-39.551,-33.203,0.000
1714023566.618,0.977,-34.180,-42.480,-35.156,0.000
1714023566.622,-2.930,-23.926,-33.691,-31.250,0.000
1714023566.625,-11.719,-24.902,-28.320,-29.785,0.000
1714023566.629,-5.371,-32.715,-28.320,-17.578,0.000
1714023566.633,-14.160,-32.715,-32.227,-18.066,0.000
1714023566.637,-29.785,-33.203,-28.320,-23.926,0.000
1714023566.641,-35.156,-45.410,-27.832,-30.762,0.000
1714023566.645,-36.621,-53.711,-41.016,-31.738,0.000
1714023566.649,-29.297,-50.781,-43.945,-21.484,0.000
1714023566.653,-31.250,-50.293,-40.039,-22.949,0.000
1714023566.657,-33.203,-39.551,-37.109,-25.879,0.000
1714023566.661,-31.250,-30.762,-29.297,-21.484,0.000
1714023566.664,-31.250,-38.574,-31.250,-23.438,0.000
1714023566.668,-37.598,-38.574,-31.738,-35.645,0.000
1714023566.672,-40.039,-32.715,-22.949,-34.180,0.000
1714023566.676,-33.691,-34.180,-26.367,-21.973,0.000
1714023566.680,-29.785,-40.527,-30.273,-21.484,0.000
1714023566.684,-37.109,-47.363,-32.227,-34.180,0.000
1714023566.688,-39.551,-45.410,-35.156,-33.691,0.000
1714023566.692,-25.391,-30.762,-26.855,-25.391,0.000
1714023566.696,-19.531,-30.273,-27.832,-25.391,0.000
1714023566.700,-20.996,-37.109,-36.133,-32.227,0.000
1714023566.704,-21.484,-36.621,-33.203,-31.250,0.000
1714023566.707,-25.391,-42.969,-35.156,-25.879,0.000
1714023566.711,-24.902,-45.410,-38.086,-27.344,0.000
1714023566.715,-19.531,-46.387,-31.738,-30.762,0.000
1714023566.719,-26.367,-51.758,-27.344,-29.785,0.000
1714023566.723,-33.691,-43.457,-38.086,-27.344,0.000
1714023566.727,-26.367,-36.621,-38.574,-24.414,0.000
1714023566.731,-24.414,-39.551,-22.949,-24.414,0.000
1714023566.735,-25.391,-35.645,-30.762,-40.039,0.000
1714023566.739,-24.902,-32.715,-45.898,-43.457,0.000
1714023566.743,-28.320,-36.133,-46.387,-34.668,0.000
1714023566.747,-25.391,-36.133,-37.598,-27.344,0.000
1714023566.750,-22.949,-39.551,-31.738,-27.832,0.000
1714023566.754,-22.461,-37.598,-38.574,-34.180,0.000
1714023566.758,-28.320,-28.809,-45.410,-33.203,0.000
1714023566.762,-24.414,-33.691,-36.621,-26.855,0.000
1714023566.766,-20.996,-37.109,-37.598,-26.855,0.000
1714023566.770,-35.156,-45.898,-41.992,-30.762,0.000
1714023566.774,-42.480,-55.176,-33.203,-32.715,0.000
1714023566.778,-34.180,-44.434,-33.203,-29.297,0.000
1714023566.782,-27.832,-30.273,-32.715,-31.250,0.000
1714023566.786,-29.785,-27.832,-30.762,-42.480,0.000
1714023566.790,-29.785,-27.344,-37.109,-45.898,0.000
1714023566.793,-27.344,-30.273,-35.645,-38.574,0.000
1714023566.797,-27.344,-38.086,-26.367,-40.527,0.000
1714023566.801,-27.832,-39.062,-28.809,-49.316,0.000
1714023566.805,-40.527,-48.828,-41.016,-53.223,0.000
1714023566.809,-50.781,-55.664,-44.434,-53.223,0.000
1714023566.813,-47.852,-42.480,-27.832,-56.152,0.000
1714023566.817,-41.992,-36.133,-15.625,-54.199,0.000
1714023566.821,-48.340,-41.016,-13.672,-62.500,0.000
1714023566.825,-59.570,-40.527,-3.906,-68.848,0.000
1714023566.829,-66.895,-43.457,-2.930,-71.777,0.000
1714023566.833,-81.055,-47.363,-6.836,-98.145,0.000
1714023566.836,-95.215,-51.758,-11.230,-110.840,0.000
1714023566.840,-100.586,-54.688,-6.836,-109.375,0.000
1714023566.844,-107.910,-56.152,-5.371,-118.164,0.000
1714023566.848,-120.117,-62.988,-5.371,-127.930,0.000
1714023566.852,-132.324,-55.664,-2.441,-142.578,0.000
1714023566.856,-127.930,-48.828,1.953,-142.090,0.000
1714023566.860,-127.441,-57.617,11.230,-134.766,0.000
1714023566.864,-130.371,-47.363,18.555,-141.113,0.000
1714023566.868,-121.582,-40.039,12.207,-135.254,0.000
1714023566.872,-114.258,-46.875,-3.418,-126.953,0.000
1714023566.875,-98.633,-49.316,-5.371,-111.816,0.000
1714023566.879,-79.590,-48.340,2.441,-93.750,0.000
1714023566.883,-72.266,-42.969,-2.930,-85.938,0.000
1714023566.887,-74.219,-38.574,-17.090,-86.426,0.000
1714023566.891,-66.895,-34.180,-22.949,-76.660,0.000
1714023566.895,-52.246,-39.062,-28.320,-61.035,0.000
1714023566.899,-49.316,-42.969,-35.645,-59.082,0.000
1714023566.903,-43.457,-44.434,-37.109,-47.852,0.000
1714023566.907,-39.062,-44.434,-32.715,-40.527,0.000
1714023566.911,-27.344,-42.969,-35.156,-32.715,0.000
1714023566.915,-17.090,-36.133,-38.574,-26.367,0.000
1714023566.918,-16.113,-29.297,-40.527,-26.855,0.000
1714023566.922,-16.602,-30.273,-36.621,-22.461,0.000
1714023566.926,-16.113,-38.574,-41.992,-15.625,0.000
1714023566.930,-11.719,-41.992,-56.641,-9.277,0.000
1714023566.934,-9.277,-36.133,-54.688,-16.602,0.000
1714023566.938,-20.508,-37.109,-51.758,-20.508,0.000
1714023566.942,-19.531,-47.852,-48.340,-10.254,0.000
1714023566.946,-1.465,-48.340,-40.527,0.488,0.000
1714023566.950,3.906,-43.457,-45.410,-1.953,0.000
1714023566.954,-0.977,-40.039,-50.293,-7.812,0.000
1714023566.957,0.488,-39.062,-48.340,3.418,0.000
1714023566.961,1.953,-47.852,-51.758,4.395,0.000
1714023566.965,2.441,-49.316,-62.012,-10.254,0.000
1714023566.969,1.465,-45.410,-64.941,-5.371,0.000
1714023566.973,-0.977,-42.969,-59.082,3.906,0.000
1714023566.977,0.488,-36.133,-48.340,6.348,0.000
1714023566.981,-5.371,-32.715,-41.016,4.883,0.000
1714023566.985,-6.348,-31.250,-34.180,1.465,0.000
1714023566.989,-1.953,-31.738,-31.738,1.953,0.000
1714023566.993,-3.418,-27.344,-46.875,2.930,0.000
1714023566.996,-6.348,-28.809,-55.664,-1.953,0.000
1714023567.000,-8.301,-35.645,-56.641,-11.230,0.000
1714023567.004,-8.301,-30.762,-55.176,-18.066,0.000
1714023567.008,-17.578,-35.645,-47.363,-18.066,0.000
1714023567.012,-20.020,-41.992,-42.969,-12.207,0.000
1714023567.016,-14.160,-36.133,-39.062,-17.090,0.000
1714023567.020,-16.113,-40.527,-44.434,-15.625,0.000
1714023567.024,-15.137,-44.434,-49.805,-9.766,0.000
1714023567.028,-7.812,-40.527,-34.180,-13.184,0.000
1714023567.032,-2.930,-31.738,-37.598,-10.254,0.000
1714023567.035,-3.906,-30.273,-50.781,-12.207,0.000
1714023567.039,-8.789,-39.551,-56.152,-14.160,0.000
1714023567.043,-17.090,-40.039,-60.059,-18.555,0.000
1714023567.047,-15.625,-31.738,-49.805,-15.137,0.000
1714023567.051,-14.648,-38.574,-42.480,-19.043,0.000
1714023567.055,-20.020,-54.199,-47.852,-26.367,0.000
1714023567.059,-10.254,-41.992,-41.504,-13.184,0.000
1714023567.063,-6.836,-28.320,-36.133,-12.695,0.000
1714023567.067,-18.555,-39.062,-48.340,-28.320,0.000
1714023567.071,-10.254,-43.945,-58.105,-21.484,0.000
1714023567.075,-12.207,-41.504,-56.641,-17.090,0.000
1714023567.078,-18.555,-43.457,-48.828,-20.508,0.000
1714023567.082,-12.695,-46.875,-45.898,-16.602,0.000
1714023567.086,-19.531,-53.223,-49.316,-20.020,0.000
1714023567.090,-30.273,-48.340,-43.457,-22.461,0.000
1714023567.094,-29.785,-40.527,-34.180,-20.996,0.000
1714023567.098,-25.879,-44.434,-37.109,-23.438,0.000
1714023567.102,-24.902,-37.109,-42.480,-18.066,0.000
1714023567.106,-27.832,-26.367,-42.480,-16.602,0.000
1714023567.110,-26.855,-26.855,-35.645,-11.719,0.000
1714023567.114,-24.414,-25.391,-36.621,-20.020,0.000
1714023567.118,-33.691,-29.297,-39.062,-34.668,0.000
1714023567.121,-32.227,-32.715,-29.297,-15.625,0.000
1714023567.125,-22.461,-34.668,-25.391,-0.488,0.000
1714023567.129,-28.809,-41.016,-30.273,-12.207,0.000
1714023567.133,-31.738,-46.875,-31.250,-23.438,0.000
1714023567.137,-25.879,-42.480,-30.762,-23.438,0.000
1714023567.141,-24.902,-28.809,-39.551,-14.648,0.000
1714023567.145,-30.762,-29.297,-43.945,-14.648,0.000
1714023567.149,-32.227,-39.062,-31.250,-20.508,0.000
1714023567.153,-28.320,-33.203,-14.648,-24.902,0.000
1714023567.157,-30.273,-21.484,-16.113,-23.926,0.000
1714023567.161,-25.391,-25.391,-20.508,-7.812,0.000
1714023567.164,-23.926,-38.574,-22.461,-10.742,0.000
1714023567.168,-30.762,-42.969,-33.203,-23.438,0.000
1714023567.172,-31.250,-39.551,-39.551,-20.508,0.000
1714023567.176,-26.855,-37.598,-34.180,-10.254,0.000
1714023567.180,-25.391,-39.551,-26.855,-17.578,0.000
1714023567.184,-21.973,-40.527,-36.621,-19.043,0.000
1714023567.188,-25.879,-36.133,-40.039,-5.859,0.000
1714023567.192,-28.320,-22.949,-15.625,-10.742,0.000
1714023567.196,-21.484,-15.625,-11.719,-17.578,0.000
1714023567.200,-25.391,-24.902,-28.809,-27.344,0.000
1714023567.204,-30.762,-26.855,-28.809,-35.156,0.000
1714023567.207,-29.785,-25.879,-31.250,-32.715,0.000
1714023567.211,-30.762,-31.250,-37.598,-32.715,0.000
1714023567.215,-29.785,-39.062,-36.133,-31.738,0.000
1714023567.219,-28.320,-48.340,-30.762,-29.297,0.000
1714023567.223,-20.020,-38.574,-24.902,-25.879,0.000
1714023567.227,-14.648,-33.203,-24.902,-27.344,0.000
1714023567.231,-19.531,-32.715,-25.879,-30.762,0.000
1714023567.235,-22.949,-35.156,-27.832,-29.785,0.000
1714023567.239,-23.438,-41.016,-28.809,-32.715,0.000
1714023567.243,-24.414,-31.738,-30.273,-36.133,0.000
1714023567.247,-26.855,-35.645,-34.180,-26.367,0.000
1714023567.250,-25.879,-49.316,-31.738,-23.926,0.000
1714023567.254,-28.320,-45.410,-35.156,-30.273,0.000
1714023567.258,-27.344,-40.039,-47.363,-23.926,0.000
1714023567.262,-24.414,-30.273,-35.156,-22.949,0.000
1714023567.266,-24.414,-25.391,-27.344,-29.785,0.000
1714023567.270,-31.250,-33.203,-39.551,-32.715,0.000
1714023567.274,-36.621,-37.109,-40.527,-35.156,0.000
1714023567.278,-34.668,-42.969,-34.180,-25.879,0.000
1714023567.282,-37.109,-44.434,-34.668,-27.832,0.000
1714023567.286,-32.715,-44.434,-35.645,-31.738,0.000
1714023567.289,-25.879,-52.246,-33.203,-20.996,0.000
1714023567.293,-28.809,-41.992,-32.715,-21.484,0.000
1714023567.297,-28.809,-32.715,-32.227,-28.809,0.000
1714023567.301,-24.902,-37.598,-39.062,-34.180,0.000
1714023567.305,-31.738,-44.434,-46.875,-36.133,0.000
1714023567.309,-29.297,-47.363,-45.410,-31.250,0.000
1714023567.313,-21.484,-46.875,-38.086,-35.645,0.000
1714023567.317,-32.715,-47.852,-39.062,-42.969,0.000
1714023567.321,-29.297,-54.688,-43.945,-38.574,0.000
1714023567.325,-15.625,-56.641,-47.852,-35.156,0.000
1714023567.329,-7.324,-41.992,-41.016,-35.156,0.000
1714023567.332,-0.488,-40.039,-39.062,-32.227,0.000
1714023567.336,-5.859,-40.039,-43.457,-28.320,0.000
1714023567.340,-6.836,-35.645,-41.504,-24.414,0.000
1714023567.344,-8.301,-37.598,-43.457,-22.949,0.000
1714023567.348,-21.973,-45.898,-42.969,-31.738,0.000
1714023567.352,-26.855,-44.434,-34.180,-34.668,0.000
1714023567.356,-28.809,-42.480,-29.785,-30.273,0.000
1714023567.360,-39.062,-44.434,-36.133,-34.180,0.000
1714023567.364,-36.621,-40.039,-37.109,-39.551,0.000
1714023567.368,-30.762,-39.062,-33.691,-30.762,0.000
1714023567.372,-31.738,-38.574,-28.320,-19.043,0.000
1714023567.375,-32.715,-36.133,-22.949,-22.949,0.000
1714023567.379,-35.156,-45.898,-32.227,-25.391,0.000
1714023567.383,-32.227,-49.316,-38.086,-26.367,0.000
1714023567.387,-37.109,-41.016,-36.133,-26.855,0.000
1714023567.391,-37.598,-42.969,-29.785,-25.391,0.000
1714023567.395,-37.598,-46.875,-24.414,-33.203,0.000
1714023567.399,-37.598,-45.898,-30.273,-34.180,0.000
1714023567.403,-24.414,-41.504,-32.227,-20.020,0.000
1714023567.407,-17.090,-30.273,-30.273,-17.578,0.000
1714023567.411,-31.250,-29.785,-34.180,-40.527,0.000
1714023567.414,-41.016,-38.574,-39.551,-49.805,0.000
1714023567.418,-41.504,-37.598,-33.691,-42.480,0.000
1714023567.422,-49.805,-41.992,-28.320,-54.688,0.000
1714023567.426,-45.898,-47.363,-39.062,-50.293,0.000
1714023567.430,-45.898,-40.039,-44.922,-48.828,0.000
1714023567.434,-64.453,-38.574,-43.945,-72.754,0.000
1714023567.438,-65.430,-36.621,-43.457,-74.707,0.000
1714023567.442,-46.875,-31.250,-37.598,-58.594,0.000
1714023567.446,-41.504,-36.133,-35.156,-58.105,0.000
1714023567.450,-40.527,-33.691,-41.504,-65.918,0.000
1714023567.454,-37.109,-31.738,-47.852,-62.012,0.000
1714023567.458,-34.180,-29.297,-36.133,-54.199,0.000
1714023567.461,-32.227,-32.715,-26.367,-53.711,0.000
1714023567.465,-36.621,-45.898,-28.809,-52.246,0.000
1714023567.469,-32.715,-36.621,-27.832,-45.898,0.000
1714023567.473,-28.809,-26.855,-26.855,-42.480,0.000
1714023567.477,-36.133,-28.320,-29.785,-51.270,0.000
1714023567.481,-39.551,-30.762,-36.621,-57.617,0.000
1714023567.485,-35.156,-37.598,-41.016,-53.223,0.000
1714023567.489,-32.227,-40.527,-39.062,-49.316,0.000
1714023567.493,-27.832,-41.992,-33.691,-41.992,0.000
1714023567.497,-13.184,-38.086,-29.785,-33.691,0.000
1714023567.501,-15.137,-38.086,-36.621,-39.551,0.000
1714023567.504,-21.484,-41.992,-38.574,-40.039,0.000
1714023567.508,-20.020,-39.062,-40.039,-29.785,0.000
1714023567.512,-18.555,-32.715,-40.527,-26.367,0.000
1714023567.516,-18.066,-41.016,-40.527,-26.855,0.000
1714023567.520,-23.438,-45.410,-41.504,-30.273,0.000
1714023567.524,-23.926,-41.016,-37.598,-30.762,0.000
1714023567.528,-20.996,-42.969,-40.039,-33.203,0.000
1714023567.532,-25.391,-43.945,-42.969,-38.086,0.000
1714023567.536,-30.762,-54.688,-42.969,-37.598,0.000
1714023567.540,-27.832,-57.617,-40.039,-36.621,0.000
1714023567.544,-22.461,-42.480,-27.832,-34.668,0.000
1714023567.547,-19.531,-31.250,-12.207,-34.180,0.000
1714023567.551,-25.391,-26.855,-24.414,-40.039,0.000
1714023567.555,-29.297,-31.738,-41.504,-42.969,0.000
1714023567.559,-26.855,-39.551,-44.434,-34.668,0.000
1714023567.563,-24.902,-35.645,-45.410,-28.320,0.000
1714023567.567,-22.461,-24.414,-40.527,-36.621,0.000
1714023567.571,-19.043,-24.414,-34.180,-32.227,0.000
1714023567.575,-21.484,-35.645,-31.738,-23.926,0.000
1714023567.579,-28.809,-41.504,-37.598,-32.715,0.000
1714023567.583,-25.391,-42.969,-41.016,-36.133,0.000
1714023567.586,-21.484,-38.086,-33.691,-36.133,0.000
1714023567.590,-24.902,-40.527,-35.645,-31.738,0.000
1714023567.594,-18.555,-37.109,-40.527,-24.414,0.000
1714023567.598,-20.996,-30.273,-36.621,-26.855,0.000
1714023567.602,-26.367,-37.598,-34.180,-24.902,0.000
1714023567.606,-19.043,-41.504,-22.949,-10.254,0.000
1714023567.610,-26.855,-43.945,-20.020,-15.137,0.000
1714023567.614,-31.250,-37.598,-29.297,-29.785,0.000
1714023567.618,-26.855,-31.250,-23.926,-23.926,0.000
1714023567.622,-34.180,-36.133,-22.949,-24.414,0.000
1714023567.626,-37.109,-38.574,-33.691,-28.809,0.000
1714023567.629,-31.250,-31.250,-39.551,-25.879,0.000
1714023567.633,-26.367,-37.598,-34.668,-25.391,0.000
1714023567.637,-29.297,-52.734,-26.367,-26.855,0.000
1714023567.641,-29.785,-40.527,-23.926,-28.320,0.000
1714023567.645,-26.855,-35.156,-33.203,-28.809,0.000
1714023567.649,-27.344,-37.598,-34.668,-27.832,0.000
1714023567.653,-26.855,-31.250,-22.461,-24.414,0.000
1714023567.657,-27.344,-25.391,-21.484,-21.484,0.000
1714023567.661,-24.902,-21.973,-22.461,-19.531,0.000
1714023567.665,-28.809,-33.203,-29.785,-24.902,0.000
1714023567.668,-37.109,-38.574,-30.273,-29.785,0.000
1714023567.672,-37.109,-34.668,-22.949,-26.367,0.000
1714023567.676,-33.691,-40.527,-33.203,-29.297,0.000
1714023567.680,-37.109,-45.898,-40.527,-37.598,0.000
1714023567.684,-33.691,-43.457,-38.574,-29.297,0.000
1714023567.688,-29.785,-47.852,-41.504,-26.367,0.000
1714023567.692,-25.391,-50.781,-36.133,-31.250,0.000
1714023567.696,-18.555,-47.363,-24.902,-21.484,0.000
1714023567.700,-20.508,-44.434,-25.879,-17.578,0.000
1714023567.704,-29.297,-41.992,-28.320,-31.250,0.000
1714023567.708,-33.691,-42.480,-33.203,-29.785,0.000
1714023567.711,-32.227,-43.945,-39.551,-28.320,0.000
1714023567.715,-33.691,-50.293,-38.574,-42.480,0.000
1714023567.719,-34.180,-49.316,-38.574,-47.363,0.000
1714023567.723,-28.809,-41.992,-34.668,-36.621,0.000
1714023567.727,-27.832,-41.016,-32.715,-34.180,0.000
1714023567.731,-28.809,-39.551,-30.273,-41.992,0.000
1714023567.735,-31.250,-33.691,-32.227,-41.992,0.000
1714023567.739,-19.043,-33.691,-41.016,-22.949,0.000
1714023567.743,-4.883,-33.691,-39.551,-2.441,0.000
1714023567.747,-20.020,-28.809,-29.297,-18.066,0.000
1714023567.750,-33.203,-32.715,-23.926,-42.480,0.000
1714023567.754,-26.855,-42.969,-29.785,-34.668,0.000
1714023567.758,-27.344,-39.551,-25.879,-23.438,0.000
1714023567.762,-28.809,-34.668,-20.020,-27.344,0.000
1714023567.766,-26.367,-48.828,-24.902,-22.949,0.000
1714023567.770,-26.855,-47.363,-37.598,-22.949,0.000
1714023567.774,-24.414,-35.645,-43.457,-30.273,0.000
1714023567.778,-18.066,-34.180,-37.598,-20.996,0.000
1714023567.782,-11.230,-38.574,-41.504,-17.090,0.000
1714023567.786,-14.160,-41.504,-48.340,-20.020,0.000
1714023567.789,-18.066,-41.504,-45.410,-19.043,0.000
1714023567.793,-19.531,-40.039,-42.480,-20.508,0.000
1714023567.797,-17.578,-32.715,-37.598,-17.090,0.000
1714023567.801,-16.113,-37.598,-36.621,-20.020,0.000
1714023567.805,-23.438,-47.852,-35.156,-22.461,0.000
1714023567.809,-24.902,-38.574,-28.320,-17.578,0.000
1714023567.813,-15.137,-29.785,-36.621,-15.137,0.000
1714023567.817,-22.949,-41.016,-47.852,-23.438,0.000
1714023567.821,-35.645,-48.340,-46.875,-28.320,0.000
1714023567.825,-36.133,-47.852,-45.898,-23.926,0.000
1714023567.829,-34.668,-52.734,-39.551,-23.926,0.000
1714023567.832,-43.945,-48.340,-34.180,-26.367,0.000
1714023567.836,-42.480,-39.062,-34.180,-19.043,0.000
1714023567.840,-32.715,-37.598,-37.109,-14.160,0.000
1714023567.844,-31.738,-40.527,-46.387,-20.508,0.000
1714023567.848,-26.367,-39.551,-49.805,-24.414,0.000
1714023567.852,-28.809,-37.109,-43.457,-34.668,0.000
1714023567.856,-27.832,-39.551,-34.668,-30.273,0.000
1714023567.860,-25.391,-41.016,-36.133,-20.996,0.000
1714023567.864,-23.438,-39.062,-32.715,-30.762,0.000
1714023567.868,-14.160,-30.273,-23.438,-22.461,0.000
1714023567.872,-20.996,-36.621,-28.320,-20.996,0.000
1714023567.875,-36.621,-46.387,-37.598,-32.227,0.000
1714023567.879,-34.180,-44.434,-44.922,-37.109,0.000
1714023567.883,-27.832,-42.969,-41.016,-41.992,0.000
1714023567.887,-31.250,-40.039,-36.133,-43.945,0.000
1714023567.891,-27.832,-40.527,-41.504,-30.762,0.000
1714023567.895,-20.996,-35.645,-49.805,-19.531,0.000
1714023567.899,-20.996,-26.367,-37.598,-30.762,0.000
1714023567.903,-22.461,-36.621,-29.785,-34.180,0.000
1714023567.907,-23.926,-44.922,-34.668,-34.668,0.000
1714023567.911,-28.809,-42.480,-37.109,-34.180,0.000
1714023567.915,-21.973,-43.945,-36.621,-37.109,0.000
1714023567.918,-20.508,-37.109,-36.133,-33.203,0.000
1714023567.922,-24.414,-31.738,-31.250,-21.484,0.000
1714023567.926,-22.949,-43.945,-24.414,-25.879,0.000
1714023567.930,-26.367,-47.852,-29.297,-31.738,0.000
1714023567.934,-24.902,-34.180,-37.109,-33.203,0.000
1714023567.938,-20.020,-31.250,-41.504,-30.273,0.000
1714023567.942,-22.949,-44.434,-41.504,-34.668,0.000
1714023567.946,-17.578,-45.898,-35.645,-36.621,0.000
1714023567.950,-14.160,-32.227,-39.551,-33.691,0.000
1714023567.954,-20.020,-29.785,-45.898,-35.645,0.000
1714023567.958,-20.508,-29.785,-34.668,-28.809,0.000
1714023567.962,-20.996,-28.809,-22.949,-20.508,0.000
1714023567.965,-21.973,-44.434,-22.461,-30.273,0.000
1714023567.969,-21.973,-51.270,-31.250,-36.621,0.000
1714023567.973,-28.320,-44.434,-40.039,-32.227,0.000
1714023567.977,-32.715,-42.969,-40.039,-31.738,0.000
1714023567.981,-34.180,-42.480,-44.922,-29.297,0.000
1714023567.985,-30.762,-42.480,-43.945,-25.391,0.000
1714023567.989,-29.785,-38.574,-36.621,-25.879,0.000
1714023567.993,-30.762,-48.340,-39.551,-25.879,0.000
1714023567.997,-26.855,-54.688,-39.062,-20.020,0.000
1714023568.001,-23.926,-50.781,-34.180,-19.531,0.000
1714023568.005,-25.879,-49.316,-37.598,-24.414,0.000
1714023568.008,-24.902,-40.527,-44.922,-20.508,0.000
1714023568.012,-35.156,-36.133,-41.504,-23.438,0.000
1714023568.016,-41.992,-41.016,-36.621,-41.016,0.000
1714023568.020,-27.832,-44.434,-40.527,-36.133,0.000
1714023568.024,-17.578,-47.852,-39.551,-20.996,0.000
1714023568.028,-19.531,-47.363,-33.691,-25.879,0.000
1714023568.032,-25.879,-43.945,-30.273,-32.227,0.000
1714023568.036,-19.531,-35.156,-32.227,-32.227,0.000
1714023568.040,-16.113,-40.039,-32.715,-26.367,0.000
1714023568.044,-19.531,-54.688,-32.227,-20.996,0.000
1714023568.047,-20.508,-43.945,-30.273,-26.367,0.000
1714023568.051,-30.762,-29.297,-32.227,-40.527,0.000
1714023568.055,-32.227,-28.809,-35.156,-38.574,0.000
1714023568.059,-27.832,-33.691,-34.180,-28.809,0.000
1714023568.063,-31.250,-36.621,-25.879,-23.438,0.000
1714023568.067,-32.227,-42.480,-21.484,-28.320,0.000
1714023568.071,-25.879,-46.387,-28.809,-36.133,0.000
1714023568.075,-17.090,-40.527,-31.738,-28.320,0.000
1714023568.079,-15.137,-36.621,-27.832,-30.273,0.000
1714023568.083,-15.625,-40.527,-35.156,-50.293,0.000
1714023568.087,-10.742,-39.062,-36.133,-59.570,0.000
1714023568.090,-10.254,-40.039,-37.598,-46.875,0.000
1714023568.094,-11.230,-45.898,-46.387,-36.621,0.000
1714023568.098,-11.719,-51.758,-38.086,-32.227,0.000
1714023568.102,-20.508,-52.246,-33.203,-30.273,0.000
1714023568.106,-25.879,-56.641,-39.062,-32.227,0.000
1714023568.110,-23.926,-55.664,-40.527,-28.809,0.000
1714023568.114,-23.926,-49.805,-42.480,-19.043,0.000
1714023568.118,-30.273,-50.293,-47.363,-24.902,0.000
1714023568.122,-30.762,-44.434,-46.875,-25.391,0.000
1714023568.126,-33.691,-40.527,-41.992,-26.855,0.000
1714023568.129,-40.039,-40.039,-39.062,-30.273,0.000
1714023568.133,-36.621,-44.434,-36.133,-35.156,0.000
1714023568.137,-27.832,-42.480,-33.203,-40.039,0.000
1714023568.141,-20.020,-32.227,-38.086,-25.391,0.000
1714023568.145,-19.043,-36.133,-41.504,-18.066,0.000
1714023568.149,-24.414,-48.828,-36.133,-28.809,0.000
1714023568.153,-31.250,-42.969,-32.227,-33.691,0.000
1714023568.157,-30.762,-38.574,-28.320,-27.832,0.000
1714023568.161,-32.227,-50.293,-24.414,-27.832,0.000
1714023568.165,-31.250,-50.293,-21.484,-27.344,0.000
1714023568.168,-31.738,-42.480,-28.320,-25.879,0.000
1714023568.172,-38.574,-46.875,-44.434,-36.133,0.000
1714023568.176,-39.551,-56.641,-38.086,-33.203,0.000
1714023568.180,-40.527,-54.199,-27.832,-29.785,0.000
1714023568.184,-38.574,-47.852,-32.715,-38.574,0.000
1714023568.188,-31.738,-48.828,-40.039,-33.203,0.000
1714023568.192,-29.785,-47.363,-33.203,-25.879,0.000
1714023568.196,-27.344,-46.387,-27.832,-32.227,0.000
1714023568.200,-25.391,-44.434,-39.551,-43.457,0.000
1714023568.204,-30.762,-42.969,-41.504,-43.457,0.000
1714023568.208,-39.062,-41.016,-34.180,-38.086,0.000
1714023568.211,-39.551,-34.180,-35.645,-39.062,0.000
1714023568.215,-35.645,-32.227,-38.086,-42.480,0.000
1714023568.219,-34.668,-34.180,-33.203,-36.133,0.000
1714023568.223,-30.762,-33.203,-25.879,-31.738,0.000
1714023568.227,-27.832,-30.273,-24.414,-35.156,0.000
1714023568.231,-28.320,-32.227,-31.250,-39.551,0.000
1714023568.235,-32.715,-33.203,-34.180,-41.504,0.000
1714023568.239,-34.668,-33.203,-33.691,-39.062,0.000
1714023568.243,-35.156,-34.668,-34.668,-41.504,0.000
1714023568.247,-30.762,-27.344,-35.645,-39.551,0.000
1714023568.251,-25.391,-24.414,-36.621,-40.039,0.000
1714023568.254,-29.297,-33.691,-38.574,-37.109,0.000
1714023568.258,-28.809,-36.133,-39.062,-33.691,0.000
1714023568.262,-28.809,-37.598,-35.156,-38.086,0.000
1714023568.266,-32.227,-35.156,-33.203,-42.969,0.000
1714023568.270,-37.109,-36.133,-31.738,-47.852,0.000
1714023568.274,-39.551,-35.645,-26.855,-47.852,0.000
1714023568.278,-35.645,-31.250,-17.090,-42.969,0.000
1714023568.282,-40.527,-25.391,-15.625,-45.898,0.000
1714023568.286,-42.480,-22.949,-26.855,-52.246,0.000
1714023568.290,-42.480,-29.297,-26.855,-55.664,0.000
1714023568.294,-49.805,-39.551,-20.508,-51.270,0.000
1714023568.297,-58.105,-35.645,-20.508,-49.316,0.000
1714023568.301,-65.430,-35.156,-24.414,-64.941,0.000
1714023568.305,-68.848,-45.898,-21.484,-70.801,0.000
1714023568.309,-62.012,-43.457,-10.254,-62.500,0.000
1714023568.313,-61.523,-43.945,-20.020,-61.523,0.000
1714023568.317,-76.172,-38.086,-28.320,-86.914,0.000
1714023568.321,-79.102,-24.902,-23.438,-98.633,0.000
1714023568.325,-67.871,-20.508,-31.738,-83.496,0.000
1714023568.329,-66.406,-24.414,-31.250,-83.496,0.000
1714023568.333,-68.359,-34.180,-21.484,-87.891,0.000
1714023568.337,-71.777,-37.598,-15.137,-86.426,0.000
1714023568.340,-78.125,-34.668,-6.348,-83.008,0.000
1714023568.344,-64.453,-34.180,-4.883,-65.918,0.000
1714023568.348,-74.219,-41.992,-13.184,-83.008,0.000
1714023568.352,-82.031,-39.551,-22.461,-101.074,0.000
1714023568.356,-72.266,-42.969,-28.809,-93.262,0.000
1714023568.360,-84.961,-53.711,-23.438,-97.168,0.000
1714023568.364,-95.215,-44.922,-8.789,-102.539,0.000
1714023568.368,-100.586,-41.992,-1.465,-112.793,0.000
1714023568.372,-104.004,-52.734,7.812,-106.934,0.000
1714023568.376,-99.121,-57.129,6.836,-95.215,0.000
1714023568.379,-107.910,-56.152,9.277,-107.910,0.000
1714023568.383,-123.535,-63.477,11.719,-127.441,0.000
1714023568.387,-125.000,-62.988,9.766,-132.812,0.000
1714023568.391,-130.859,-52.734,20.996,-135.254,0.000
1714023568.395,-143.066,-54.199,28.809,-134.766,0.000
1714023568.399,-133.789,-52.246,30.762,-129.883,0.000
1714023568.403,-132.812,-64.941,22.461,-131.348,0.000
1714023568.407,-142.090,-70.801,24.902,-129.395,0.000
1714023568.411,-141.113,-58.594,27.832,-124.512,0.000
1714023568.415,-145.508,-64.941,14.160,-136.230,0.000
1714023568.419,-140.625,-65.918,13.672,-141.602,0.000
1714023568.422,-129.395,-56.641,16.113,-129.395,0.000
1714023568.426,-123.535,-61.035,16.113,-109.863,0.000
1714023568.430,-113.281,-63.965,17.090,-104.004,0.000
1714023568.434,-104.492,-57.617,9.766,-104.980,0.000
1714023568.438,-104.980,-46.387,4.395,-101.562,0.000
1714023568.442,-104.492,-42.480,1.465,-96.680,0.000
1714023568.446,-98.633,-54.199,-2.441,-91.797,0.000
1714023568.450,-88.867,-59.570,-4.395,-83.984,0.000
1714023568.454,-80.078,-55.176,-7.324,-80.078,0.000
1714023568.458,-71.777,-55.176,-4.395,-69.824,0.000
1714023568.461,-59.082,-45.898,-4.883,-56.152,0.000
1714023568.465,-44.922,-39.062,-13.184,-51.758,0.000
1714023568.469,-47.852,-46.387,-28.809,-60.059,0.000
1714023568.473,-47.363,-44.434,-41.992,-57.129,0.000
1714023568.477,-37.109,-37.598,-40.039,-42.480,0.000
1714023568.481,-25.879,-35.645,-30.273,-40.039,0.000
1714023568.485,-19.043,-31.738,-25.879,-34.668,0.000
1714023568.489,-23.438,-38.574,-34.180,-41.504,0.000
1714023568.493,-17.090,-44.922,-42.969,-27.344,0.000
1714023568.497,-12.207,-35.645,-47.852,-23.438,0.000
1714023568.500,-13.672,-23.438,-41.504,-39.551,0.000
1714023568.504,-10.254,-24.414,-46.387,-30.273,0.000
1714023568.508,-24.414,-44.434,-64.453,-32.227,0.000
1714023568.512,-30.762,-35.156,-48.828,-41.992,0.000
1714023568.516,-35.156,-19.531,-43.945,-61.523,0.000
1714023568.520,-62.988,-41.016,-55.176,-86.426,0.000
1714023568.524,-80.078,-45.898,-48.828,-89.844,0.000
1714023568.528,-73.730,-30.762,-36.621,-86.426,0.000
1714023568.532,-80.566,-34.668,-32.715,-102.051,0.000
1714023568.536,-87.402,-32.715,-35.645,-107.910,0.000
1714023568.540,-86.914,-27.832,-31.250,-95.215,0.000
1714023568.544,-98.633,-30.762,-27.832,-96.680,0.000
1714023568.547,-102.051,-31.250,-33.203,-110.840,0.000
1714023568.551,-84.961,-27.344,-32.715,-97.656,0.000
1714023568.555,-76.660,-30.762,-30.273,-83.496,0.000
1714023568.559,-83.008,-39.551,-32.227,-91.797,0.000
1714023568.563,-81.055,-43.945,-37.109,-93.262,0.000
1714023568.567,-80.566,-36.133,-40.039,-100.586,0.000
1714023568.571,-71.289,-23.926,-39.062,-96.191,0.000
1714023568.575,-55.664,-20.020,-35.156,-77.637,0.000
1714023568.579,-43.457,-17.578,-28.320,-63.477,0.000
1714023568.583,-42.969,-24.902,-24.902,-49.805,0.000
1714023568.587,-43.457,-31.738,-24.414,-41.504,0.000
1714023568.590,-34.180,-37.598,-22.461,-35.645,0.000
1714023568.594,-29.785,-49.316,-33.203,-25.391,0.000
1714023568.598,-24.414,-53.711,-48.828,-18.066,0.000
1714023568.602,-7.324,-41.504,-54.199,-9.766,0.000
1714023568.606,0.488,-33.691,-50.293,-4.395,0.000
1714023568.610,-1.465,-39.551,-47.852,-5.859,0.000
1714023568.614,5.859,-42.969,-49.805,5.371,0.000
1714023568.618,10.742,-40.527,-49.805,12.695,0.000
1714023568.622,15.137,-41.016,-43.457,6.348,0.000
1714023568.626,24.414,-43.457,-45.410,2.930,0.000
1714023568.630,30.273,-43.945,-51.758,9.766,0.000
1714023568.633,25.879,-47.852,-51.270,12.695,0.000
1714023568.637,28.320,-43.945,-63.965,14.160,0.000
1714023568.641,36.133,-41.992,-71.289,22.461,0.000
1714023568.645,40.527,-48.340,-65.918,28.809,0.000
1714023568.649,42.480,-54.199,-62.988,22.461,0.000
1714023568.653,40.527,-57.617,-53.711,27.344,0.000
1714023568.657,39.551,-49.316,-52.734,35.156,0.000
1714023568.661,36.621,-43.945,-59.082,27.832,0.000
1714023568.665,37.598,-44.922,-58.105,26.367,0.000
1714023568.669,42.480,-42.969,-55.176,31.738,0.000
1714023568.673,44.434,-37.598,-53.711,37.598,0.000
1714023568.677,42.969,-34.668,-51.758,41.504,0.000
1714023568.681,30.273,-41.504,-61.035,35.645,0.000
1714023568.684,28.320,-46.387,-62.500,38.086,0.000
1714023568.688,32.715,-45.410,-63.965,39.062,0.000
1714023568.692,41.016,-31.250,-67.383,39.551,0.000
1714023568.696,48.828,-26.367,-58.594,46.387,0.000
1714023568.700,48.340,-43.457,-53.711,42.480,0.000
1714023568.704,50.293,-52.246,-55.664,36.621,0.000
1714023568.708,50.293,-38.086,-61.035,31.250,0.000
1714023568.712,44.434,-22.461,-62.500,23.926,0.000
1714023568.716,38.574,-22.949,-62.988,15.625,0.000
1714023568.720,32.715,-29.297,-61.523,13.184,0.000
1714023568.723,20.508,-34.180,-65.918,14.648,0.000
1714023568.727,13.672,-32.715,-67.383,16.113,0.000
1714023568.731,19.531,-31.250,-55.664,22.461,0.000
1714023568.735,25.879,-39.551,-54.199,23.438,0.000
1714023568.739,26.367,-41.504,-65.430,19.043,0.000
1714023568.743,30.273,-38.086,-64.453,26.855,0.000
1714023568.747,32.715,-34.668,-55.176,35.645,0.000
1714023568.751,31.738,-21.973,-46.875,33.691,0.000
1714023568.755,29.785,-19.531,-51.758,34.668,0.000
1714023568.759,25.879,-21.973,-62.500,36.133,0.000
1714023568.763,27.344,-22.461,-57.129,29.785,0.000
1714023568.766,20.996,-35.645,-47.363,20.020,0.000
1714023568.770,9.766,-39.062,-54.199,15.625,0.000
1714023568.774,10.254,-34.668,-58.594,16.602,0.000
1714023568.778,5.371,-39.551,-61.523,14.160,0.000
1714023568.782,-0.488,-38.086,-54.199,7.812,0.000
1714023568.786,4.395,-34.668,-47.363,1.465,0.000
1714023568.790,9.766,-40.527,-57.129,4.395,0.000
1714023568.794,6.836,-38.574,-56.152,2.441,0.000
1714023568.798,0.977,-33.203,-53.711,-4.395,0.000
1714023568.802,1.953,-31.250,-53.711,5.371,0.000
1714023568.805,2.930,-30.762,-61.523,10.254,0.000
1714023568.809,7.812,-28.809,-60.059,10.254,0.000
1714023568.813,11.719,-30.762,-51.270,6.836,0.000
1714023568.817,1.953,-45.410,-55.176,3.418,0.000
1714023568.821,-3.418,-42.969,-58.105,-0.977,0.000
1714023568.825,-0.977,-34.668,-59.570,-1.465,0.000
1714023568.829,5.371,-28.320,-55.664,-6.348,0.000
1714023568.833,2.441,-34.668,-55.176,-20.508,0.000
1714023568.837,5.371,-41.504,-57.129,-13.672,0.000
1714023568.841,12.207,-33.691,-49.316,-5.371,0.000
1714023568.844,9.766,-25.879,-43.457,-7.324,0.000
1714023568.848,13.672,-26.855,-49.316,-6.348,0.000
1714023568.852,9.766,-30.273,-54.688,-8.301,0.000
1714023568.856,-2.441,-33.691,-43.945,-3.906,0.000
1714023568.860,-9.766,-35.645,-42.480,-1.953,0.000
1714023568.864,-9.766,-41.504,-54.688,0.000,0.000
1714023568.868,-12.695,-45.410,-58.105,-1.953,0.000
1714023568.872,-17.578,-40.527,-45.410,-7.324,0.000
1714023568.876,-20.508,-41.016,-42.969,-15.137,0.000
1714023568.880,-22.949,-33.203,-53.711,-23.926,0.000
1714023568.884,-23.438,-31.250,-47.363,-31.738,0.000
1714023568.887,-29.297,-41.016,-41.016,-30.273,0.000
1714023568.891,-39.551,-50.781,-43.457,-26.367,0.000
1714023568.895,-36.133,-43.945,-48.340,-17.578,0.000
1714023568.899,-25.879,-36.133,-40.527,-9.766,0.000
1714023568.903,-28.320,-46.875,-37.109,-15.625,0.000
1714023568.907,-29.785,-46.875,-41.992,-16.113,0.000
1714023568.911,-26.855,-41.504,-46.875,-12.695,0.000
1714023568.915,-31.738,-49.316,-50.781,-24.902,0.000
1714023568.919,-34.180,-52.246,-48.828,-36.133,0.000
1714023568.922,-32.227,-51.758,-43.945,-32.715,0.000
1714023568.926,-32.715,-40.039,-42.480,-21.484,0.000
1714023568.930,-30.273,-31.738,-40.039,-20.996,0.000
1714023568.934,-32.227,-41.016,-36.133,-31.250,0.000
1714023568.938,-31.738,-46.875,-41.504,-28.809,0.000
1714023568.942,-28.809,-44.434,-48.340,-23.438,0.000
1714023568.946,-17.578,-36.621,-49.805,-20.020,0.000
1714023568.950,-12.695,-35.645,-45.410,-23.438,0.000
1714023568.954,-19.531,-44.922,-46.387,-32.227,0.000
1714023568.958,-19.531,-44.922,-37.598,-22.949,0.000
1714023568.962,-17.090,-32.227,-25.879,-12.695,0.000
1714023568.966,-24.414,-29.297,-33.203,-28.320,0.000
1714023568.969,-39.551,-39.551,-42.480,-49.316,0.000
1714023568.973,-42.480,-40.527,-47.363,-44.434,0.000
1714023568.977,-32.715,-33.203,-47.852,-29.785,0.000
1714023568.981,-26.367,-29.785,-42.480,-26.855,0.000
1714023568.985,-26.855,-41.992,-42.969,-21.484,0.000
1714023568.989,-23.438,-55.664,-31.738,-13.184,0.000
1714023568.993,-20.996,-49.316,-21.484,-16.113,0.000
1714023568.997,-20.508,-32.715,-28.809,-17.578,0.000
1714023569.001,-16.602,-29.785,-32.715,-25.879,0.000
1714023569.005,-16.113,-36.621,-39.062,-41.016,0.000
1714023569.009,-13.184,-31.250,-43.457,-30.273,0.000
1714023569.012,-13.672,-28.809,-41.504,-32.227,0.000
1714023569.016,-14.160,-37.109,-41.992,-38.574,0.000
1714023569.020,-12.695,-38.574,-38.086,-30.762,0.000
1714023569.024,-14.160,-30.762,-27.832,-35.156,0.000
1714023569.028,-20.996,-31.250,-26.367,-43.457,0.000
1714023569.032,-21.973,-39.062,-32.715,-44.922,0.000
1714023569.036,-23.438,-39.551,-36.133,-39.062,0.000
1714023569.040,-24.414,-39.551,-34.180,-28.320,0.000
1714023569.044,-20.020,-35.645,-34.180,-14.160,0.000
1714023569.048,-19.043,-23.926,-34.180,-14.648,0.000
1714023569.051,-23.438,-26.855,-30.273,-25.391,0.000
1714023569.055,-18.066,-28.809,-24.902,-20.996,0.000
1714023569.059,-19.531,-28.809,-22.461,-14.160,0.000
1714023569.063,-26.855,-34.180,-25.391,-13.672,0.000
1714023569.067,-24.902,-34.668,-28.809,-23.926,0.000
1714023569.071,-25.879,-37.109,-40.527,-28.809,0.000
1714023569.075,-23.438,-37.109,-45.898,-21.484,0.000
1714023569.079,-16.113,-32.715,-40.039,-23.438,0.000
1714023569.083,-13.672,-29.785,-33.691,-26.855,0.000
1714023569.087,-19.531,-29.297,-36.133,-25.391,0.000
1714023569.091,-22.461,-36.133,-33.203,-25.391,0.000
1714023569.094,-19.531,-40.039,-22.949,-28.320,0.000
1714023569.098,-18.555,-41.016,-32.715,-31.738,0.000
1714023569.102,-23.926,-45.410,-41.504,-40.039,0.000
1714023569.106,-24.414,-38.574,-43.945,-38.574,0.000
1714023569.110,-28.809,-33.203,-45.410,-30.273,0.000
1714023569.114,-28.809,-34.668,-39.551,-37.109,0.000
1714023569.118,-18.066,-34.180,-28.809,-34.668,0.000
1714023569.122,-20.996,-42.969,-18.555,-26.367,0.000
1714023569.126,-20.996,-41.992,-17.090,-20.996,0.000
1714023569.130,-18.555,-25.391,-18.555,-24.414,0.000
1714023569.134,-24.414,-27.832,-28.320,-39.551,0.000
1714023569.137,-29.297,-37.598,-42.480,-42.969,0.000
1714023569.141,-33.203,-37.598,-38.574,-36.621,0.000
1714023569.145,-33.691,-40.527,-37.109,-36.133,0.000
1714023569.149,-34.668,-36.133,-40.527,-38.086,0.000
1714023569.153,-33.691,-31.738,-31.250,-31.738,0.000
1714023569.157,-32.715,-37.598,-28.809,-31.250,0.000
1714023569.161,-33.203,-42.480,-33.203,-38.086,0.000
1714023569.165,-34.180,-44.434,-30.762,-38.574,0.000
1714023569.169,-31.738,-41.992,-36.621,-33.691,0.000
1714023569.173,-30.273,-47.363,-39.551,-34.180,0.000
1714023569.176,-31.250,-52.734,-35.645,-31.738,0.000
1714023569.180,-25.391,-46.387,-35.645,-29.785,0.000
1714023569.184,-20.508,-37.109,-40.039,-44.922,0.000
1714023569.188,-21.973,-36.621,-35.156,-45.898,0.000
1714023569.192,-17.578,-41.016,-21.484,-35.645,0.000
1714023569.196,-18.066,-38.574,-26.855,-32.715,0.000
1714023569.200,-20.020,-35.156,-37.598,-30.762,0.000
1714023569.204,-24.902,-34.668,-34.668,-33.691,0.000
1714023569.208,-35.645,-38.574,-37.109,-35.156,0.000
1714023569.212,-37.109,-45.898,-38.574,-32.227,0.000
1714023569.215,-30.762,-41.016,-29.785,-29.785,0.000
1714023569.219,-35.645,-36.621,-29.785,-37.109,0.000
1714023569.223,-40.527,-47.852,-33.691,-41.504,0.000
1714023569.227,-27.832,-48.340,-33.203,-26.855,0.000
1714023569.231,-20.020,-44.434,-40.527,-23.438,0.000
1714023569.235,-25.879,-41.016,-41.016,-30.273,0.000
1714023569.239,-20.020,-32.715,-34.180,-21.973,0.000
1714023569.243,-17.090,-34.668,-38.086,-15.137,0.000
1714023569.247,-18.555,-36.621,-41.504,-21.484,0.000
1714023569.251,-14.648,-37.109,-34.668,-26.855,0.000
1714023569.254,-16.113,-39.062,-30.762,-25.879,0.000
1714023569.258,-17.090,-34.668,-22.949,-24.902,0.000
1714023569.262,-17.578,-36.133,-21.484,-29.785,0.000
1714023569.266,-19.043,-44.922,-29.297,-41.504,0.000
1714023569.270,-30.273,-49.805,-39.062,-46.875,0.000
1714023569.274,-38.086,-44.434,-43.457,-39.062,0.000
1714023569.278,-29.297,-41.016,-40.527,-32.715,0.000
1714023569.282,-27.832,-42.969,-42.480,-41.504,0.000
1714023569.286,-32.715,-47.363,-49.805,-44.434,0.000
1714023569.290,-30.273,-45.898,-44.922,-40.039,0.000
1714023569.293,-25.391,-34.668,-29.297,-41.504,0.000
1714023569.297,-19.531,-28.320,-26.367,-33.691,0.000
1714023569.301,-20.020,-35.156,-30.762,-34.668,0.000
1714023569.305,-32.715,-44.922,-37.109,-37.109,0.000
1714023569.309,-39.551,-52.246,-43.945,-33.691,0.000
1714023569.313,-33.691,-58.594,-49.805,-30.762,0.000
1714023569.317,-31.250,-50.781,-42.480,-30.762,0.000
1714023569.321,-31.250,-41.016,-31.738,-32.227,0.000
1714023569.325,-22.461,-36.621,-26.855,-20.996,0.000
1714023569.329,-21.973,-39.062,-22.461,-19.531,0.000
1714023569.333,-28.809,-46.875,-29.297,-31.738,0.000
1714023569.337,-35.156,-53.711,-33.203,-35.156,0.000
1714023569.340,-41.992,-53.223,-35.645,-34.668,0.000
1714023569.344,-38.574,-45.898,-43.457,-30.762,0.000
1714023569.348,-32.715,-35.156,-41.992,-26.855,0.000
1714023569.352,-33.691,-42.969,-39.551,-34.180,0.000
1714023569.356,-28.809,-49.805,-34.668,-38.574,0.000
1714023569.360,-26.367,-45.410,-26.367,-29.785,0.000
1714023569.364,-34.180,-46.387,-36.621,-29.297,0.000
1714023569.368,-31.250,-43.945,-41.504,-30.762,0.000
1714023569.372,-27.344,-46.387,-42.480,-41.504,0.000
1714023569.376,-27.832,-47.852,-39.551,-36.133,0.000
1714023569.380,-21.973,-37.109,-30.273,-26.855,0.000
1714023569.383,-23.926,-38.574,-35.645,-40.527,0.000
1714023569.387,-32.715,-40.527,-38.086,-48.340,0.000
1714023569.391,-30.273,-43.457,-31.738,-38.086,0.000
1714023569.395,-25.391,-44.434,-29.785,-25.391,0.000
1714023569.399,-27.344,-32.227,-32.715,-33.203,0.000
1714023569.403,-31.738,-37.109,-36.133,-32.715,0.000
1714023569.407,-31.250,-44.434,-38.086,-20.020,0.000
1714023569.411,-28.320,-41.992,-39.551,-17.578,0.000
1714023569.415,-27.344,-39.062,-31.738,-26.367,0.000
1714023569.419,-23.438,-29.785,-25.391,-24.902,0.000
1714023569.423,-19.043,-25.391,-15.625,-19.531,0.000
1714023569.426,-15.625,-29.785,-16.113,-21.973,0.000
1714023569.430,-13.672,-32.227,-33.203,-25.879,0.000
1714023569.434,-18.555,-42.480,-37.598,-34.180,0.000
1714023569.438,-20.996,-47.363,-37.109,-31.250,0.000
1714023569.442,-20.996,-41.992,-30.273,-29.297,0.000
1714023569.446,-22.461,-38.574,-22.461,-32.715,0.000
1714023569.450,-20.508,-31.250,-20.020,-33.691,0.000
1714023569.454,-20.508,-33.203,-18.066,-37.598,0.000
1714023569.458,-29.297,-36.621,-25.879,-34.668,0.000
1714023569.462,-27.832,-37.598,-39.062,-31.738,0.000
1714023569.465,-17.090,-36.621,-39.062,-28.320,0.000
1714023569.469,-12.207,-33.691,-32.227,-26.367,0.000
1714023569.473,-21.973,-44.922,-39.062,-28.320,0.000
1714023569.477,-20.996,-61.523,-45.898,-25.879,0.000
1714023569.481,-14.160,-49.805,-33.203,-19.043,0.000
1714023569.485,-22.461,-27.344,-27.832,-23.438,0.000
1714023569.489,-27.344,-25.391,-35.156,-35.645,0.000
1714023569.493,-25.879,-37.109,-45.898,-29.297,0.000
1714023569.497,-28.320,-37.109,-47.363,-26.367,0.000
1714023569.501,-29.785,-30.762,-37.598,-30.762,0.000
1714023569.505,-29.297,-34.180,-38.574,-28.809,0.000
1714023569.508,-24.902,-41.016,-34.668,-26.367,0.000
1714023569.512,-25.879,-42.480,-34.180,-30.762,0.000
1714023569.516,-26.367,-43.945,-31.738,-40.039,0.000
1714023569.520,-27.344,-46.875,-23.926,-36.621,0.000
1714023569.524,-31.738,-46.387,-41.016,-31.738,0.000
1714023569.528,-27.832,-47.363,-49.805,-28.809,0.000
1714023569.532,-22.949,-40.039,-34.180,-33.203,0.000
1714023569.536,-21.973,-32.227,-32.715,-33.691,0.000
1714023569.540,-25.879,-38.574,-38.574,-33.203,0.000
1714023569.544,-32.227,-48.828,-31.738,-34.180,0.000
1714023569.547,-41.504,-50.781,-28.809,-37.598,0.000
1714023569.551,-35.156,-39.551,-26.855,-36.133,0.000
1714023569.555,-30.273,-36.621,-29.297,-32.715,0.000
1714023569.559,-39.062,-38.574,-34.668,-35.645,0.000
1714023569.563,-35.645,-37.109,-32.227,-30.762,0.000
1714023569.567,-29.785,-40.039,-33.203,-23.926,0.000
1714023569.571,-27.344,-43.945,-35.645,-23.926,0.000
1714023569.575,-26.855,-43.457,-39.062,-24.414,0.000
1714023569.579,-25.391,-44.434,-32.715,-29.297,0.000
1714023569.583,-23.926,-41.504,-28.320,-44.434,0.000
1714023569.587,-26.367,-42.969,-37.109,-44.922,0.000
1714023569.590,-17.090,-35.645,-41.504,-31.250,0.000
1714023569.594,-1.953,-29.785,-36.133,-33.203,0.000
1714023569.598,-10.254,-38.086,-37.109,-42.969,0.000
1714023569.602,-32.227,-35.645,-25.391,-54.199,0.000
1714023569.606,-40.527,-35.156,-22.949,-57.129,0.000
1714023569.610,-49.805,-48.828,-36.133,-67.383,0.000
1714023569.614,-66.895,-49.805,-28.320,-79.590,0.000
1714023569.618,-83.496,-51.758,-20.996,-88.867,0.000
1714023569.622,-101.562,-56.152,-11.230,-107.910,0.000
1714023569.626,-110.352,-50.293,-8.301,-122.559,0.000
1714023569.629,-121.582,-49.805,-7.324,-128.418,0.000
1714023569.633,-132.324,-41.504,3.906,-132.324,0.000
1714023569.637,-139.160,-35.156,0.977,-142.578,0.000
1714023569.641,-156.738,-38.574,-1.953,-159.668,0.000
1714023569.645,-168.945,-38.086,10.742,-169.434,0.000
